
Integration time [ms]: 100.000
Averaging Nr. [scans]: 40
Smoothing Nr. [pixels]: 0
Data measured with spectrometer [name]: 2101013U2
Wave   ;Sample   ;Dark     ;Reference
[nm]   ;[counts] ;[counts] ;[counts] 

394.013;   88.084; -450.257; -315.536
394.305;  291.157; -461.258; -419.536
394.596; 1110.603; -676.269; -527.514
394.887; 2512.470; -796.268; -654.518
395.178;  981.876;  145.736;   11.476
395.470;  109.562; -210.263; -356.526
395.761;  259.585;  305.734;  394.479
396.052;  473.102; -545.284; -306.489
396.343;  465.473; -557.276; -454.503
396.634;  160.291; -200.279; -290.497
396.926;  192.392; -618.268; -565.517
397.217;  143.352;   11.725;  -17.504
397.508;   82.768; -366.273; -154.507
397.799;   86.316; -555.279; -571.497
398.090;   21.785; -973.280; -902.495
398.381;  164.902;   11.708;  -11.473
398.672;   29.203; -585.292; -742.473
398.963;   81.697; -348.279; -373.498
399.254;  142.362;   54.709; -209.475
399.545;   -8.918;-1017.266; -883.520
399.836;  100.362; -407.277; -343.501
400.127;   78.078; -205.295; -209.468
400.418;   88.488; -423.274; -392.506
400.709;   92.173; -359.281; -333.493
401.000;   80.766; -268.291; -309.476
401.290;  123.939;  225.698;  115.545
401.581;   72.160; -166.286; -228.485
401.872;   33.750; -542.298; -486.462
402.163;   75.646; -313.296; -252.467
402.454;  116.463; -123.291; -163.475
402.744;  104.512; -844.297; -813.465
403.035;  566.718; -226.293;  -86.471
403.326;  764.031; -366.292; -384.474
403.617;  461.769;  204.701;  165.539
403.907;  260.733; -593.283; -679.490
404.198; 2242.043; -545.307; -599.446
404.489; 5996.488; -618.283; -588.491
404.779; 2093.618; -618.302; -660.456
405.070;  251.271;  -67.304; -174.451
405.360;  345.745; -259.293; -238.472
405.651;  367.104;  125.699;   98.542
405.942;  230.805;  209.714;  127.516
406.232;  383.795; -432.285; -413.487
406.523;  621.488;  641.706;  758.530
406.813;  153.107; -579.286; -644.484
407.104;  456.101;  261.708;  144.527
407.394;  280.221; -604.299; -591.462
407.685;  174.269;  336.715;  222.513
407.975;   92.937; -400.283; -382.490
408.265;  139.427; -134.289; -190.478
408.556;   94.135; -472.291; -459.475
408.846;  178.239;  474.706;  429.530
409.137;  105.961;   -1.288; -216.480
409.427;   58.970; -193.285; -271.487
409.717;   50.521; -776.273; -692.508
410.007;  168.038;    4.715; -170.486
410.298;  128.381; -360.295; -342.469
410.588;   92.717; -495.285; -510.486
410.878;   51.297; -792.287; -873.482
411.168;  133.902; -481.298; -478.463
411.459;  136.306; -295.283; -242.489
411.749;   76.258; -609.292; -507.474
412.039;   92.534; -755.289; -386.480
412.329;  232.254;   40.722;  132.501
412.619;  220.458;  -62.286; -148.485
412.909;  406.655;  639.711;  594.521
413.199;  406.136; -130.280; -251.495
413.490;  444.196;  521.710;  352.523
413.780;  163.165;-1013.279; -913.496
414.070;  350.299;  -46.276;  235.497
414.360;  424.101; -729.278; -666.498
414.650;  454.268; -726.288; -688.482
414.940;  530.914; -538.280; -441.496
415.230;  919.890;   50.712;   74.519
415.520; 5859.702;  155.730;   66.486
415.809;23128.472; -305.281; -125.493
416.099;17527.164; -388.277; -229.501
416.389; 4727.410;  435.726;  236.494
416.679; 2770.441;   91.738;   85.473
416.969;  514.402; -527.287; -503.483
417.259;  472.517;  341.721;  171.503
417.549;  706.796;  522.718;  318.508
417.838; 1544.969; -205.268; -147.518
418.128; 5106.576;  650.710;  492.522
418.418; 4184.153; -491.272; -579.509
418.708; 2862.760;    9.726;  -48.506
418.997;10719.931; -474.275; -480.505
419.287;10991.392; -733.273; -790.507
419.577;10139.256; -160.283; -123.489
419.866;34298.962; -588.277; -498.501
420.156;35795.848; -242.270;  -55.513
420.446; 6459.933; -112.263;  -26.526
420.735; 1002.317; -376.271; -446.512
421.025;  886.950; 1830.722;  315.502
421.314;  852.765; -203.271; -226.512
421.604; 1982.737;   89.732;  233.484
421.893; 1157.687; -705.271; -602.511
422.183;  261.683; -487.263; -461.526
422.472;  410.538;  -36.271; -107.511
422.762;  498.137; -416.266; -379.521
423.051;  286.574; -916.276; -916.503
423.341;  360.844; -491.273; -439.507
423.630;  463.718; -121.265;   15.477
423.919;  413.981;   58.725;   49.495
424.209;  389.289;  -31.263;   56.473
424.498;  505.017;   68.732;  161.483
424.787; 1057.573; -535.267; -601.518
425.077; 3305.692;   34.735;   29.478
425.366; 5111.619; -734.262; -744.528
425.655; 9238.770;  639.727;  259.493
425.945;18503.499; -313.247; -268.554
426.234;10201.692;  117.741;  300.467
426.523; 4910.547;  -86.259; -350.534
426.812; 6574.483;  107.734;  159.480
427.101; 9596.834; -127.269; -323.515
427.390;12377.277;  -55.270;  -86.514
427.680; 3241.192; -624.257; -411.538
427.969;  550.678; -330.255; -301.540
428.258;  372.209; -385.257; -477.536
428.547;  595.882;  449.728;  397.490
428.836; 1563.444; -421.253; -398.543
429.125; 2255.349; -199.259;  -72.534
429.414;  933.692; -330.251; -294.548
429.703; 2978.192; -231.251; -213.548
429.992; 8737.771; -938.250; -828.549
430.281; 5664.001; -397.264; -331.524
430.570;  629.732;  -21.252;   32.454
430.859;  689.922;  279.741;  352.466
431.148;  506.995;  636.752;  631.446
431.437;  321.582;  391.748;  367.454
431.725;  174.985; -544.257; -481.536
432.014;  138.652; -845.253; -756.545
432.303;  441.446; -149.239; -105.569
432.592;  758.708; -460.263; -178.525
432.881; 1057.971; -601.248; -437.554
433.169; 5659.179; -343.255;  -61.540
433.458;11414.005;  445.765;  540.424
433.747; 4876.550; -397.261; -289.529
434.036; 1062.447; -275.242; -280.564
434.324; 2071.558; -395.249; -379.551
434.613; 3470.090;   40.757;  159.437
434.902; 1264.886;  333.760;  439.433
435.190;  839.095;   75.761;  295.431
435.479;  460.172;  -52.245;   83.441
435.767;  163.880; -411.244; -427.561
436.056;  283.967; -340.242; -294.563
436.345;  382.038; -372.240; -223.568
436.633;  412.003;   60.750;  383.450
436.922;  346.940;  208.760;  414.432
437.210;  899.270; -194.236;    1.426
437.499; 2980.778; -583.235; -432.576
437.787; 3241.094; -339.236;  -10.574
438.075;  759.950;   56.761;  162.430
438.364; 1070.528;  -44.238;  250.429
438.652;  622.008; -286.226; -138.592
438.941;  179.572;    3.770;  269.415
439.229;   31.655; -665.252; -466.545
439.517;   55.336; -160.234;  -85.577
439.806;   23.224; -501.225; -290.595
440.094;  219.269;  377.766;  650.421
440.382;  293.048; -653.233; -302.580
440.670;  302.727; -361.235; -285.576
440.959;   49.216; -347.223; -170.599
441.247;  125.533; -151.229; -109.587
441.535;  162.635; -266.235;   31.423
441.823;   84.466; -497.234; -305.578
442.111;  240.462;  173.771;  327.412
442.400;  734.871; -628.245; -335.559
442.688; 2048.968; -111.234; -620.579
442.976; 1513.329; -786.213; -450.617
443.264;  159.080; -324.224; -364.597
443.552;  125.634; -258.226;   51.408
443.840;  180.983;  602.765;  876.423
444.128;  128.147;  265.767;  269.420
444.416;   28.490; -694.228; -312.588
444.704;   45.621; -465.219;  -92.605
444.992;  100.437;   -0.226;  240.407
445.280;   76.197; -517.230;  -94.585
445.568;   90.683; -694.212; -396.618
445.856;  478.380; -174.221;  357.398
446.143; 1057.767;  -54.220;   -7.604
446.431;  836.619;  -25.228;  625.411
446.719;  286.640;  489.783;  675.391
447.007;  195.692;  481.769;  705.416
447.295;  193.138;  597.777;  871.402
447.583;  123.056; -464.229;  -34.587
447.870;  192.602; -434.221; -202.601
448.158;  539.746; -104.230;  129.415
448.446;  439.693; -800.219; -338.604
448.733;  207.232;   13.776;  269.403
449.021;  294.582;   60.788;  341.382
449.309;  202.347; -296.210;  208.379
449.596;  245.811;  128.783;   59.392
449.884;  180.420; -571.222; -325.600
450.172;  148.999; -756.227; -406.590
450.459;  408.737;  645.786;  780.387
450.747; 2065.110; -411.218; -147.608
451.034; 6735.870;  493.772;  889.411
451.322; 5401.540; -413.214; -170.614
451.609;  492.933;  292.777;  508.403
451.897;  541.561; -550.203; -183.634
452.184; 1668.563; -622.223; -400.598
452.472; 1573.444;   97.792;  269.375
452.759;  349.719;  512.781;  864.395
453.047;  160.055; -407.212; -125.617
453.334;  116.727; -732.219; -216.606
453.621;  128.043; -438.214; -161.615
453.909;  127.303;   13.796;  384.368
454.196;  146.323; -299.199; -123.641
454.483;  229.574;  317.798;  540.364
454.771;  161.822; -215.208;  196.374
455.058;   63.100; -316.207;  102.374
455.345;   98.128;   71.807;  344.347
455.632;   82.328; -128.207;  235.373
455.919;   58.046;  -82.196;  182.354
456.207;  -47.797; -774.198; -450.642
456.494;    0.636; -475.200;  -66.639
456.781;   24.844; -399.202; -198.635
457.068;   80.385; -253.206;  -29.628
457.355;   26.536; -698.206; -401.629
457.642;   12.942; -552.205; -290.630
457.929;   41.195; -778.194; -417.651
458.216;   69.705; -575.212; -354.617
458.503;  202.074; -173.193;  -19.652
458.790;  184.695; -864.208; -630.625
459.077;  264.599;  -77.202;  110.364
459.364;  762.837; -350.195; -210.649
459.651; 1534.033;  -46.206;  220.372
459.938;  734.985; -864.209; -665.623
460.225;  177.877;  132.799;  276.363
460.512;  -25.307; -836.197; -688.645
460.799;  120.084;  -32.218;  320.392
461.086;  108.990; -370.200; -251.640
461.372;   88.378; -509.198; -279.642
461.659;  168.697; -165.196;  108.354
461.946;   98.423; -445.193;  -54.651
462.233;  264.288;  842.800;  888.361
462.519;  347.585; -814.201; -464.639
462.806; 1001.418; -768.197; -497.645
463.093;  803.794; -445.191;  -66.656
463.380;   -6.640; -920.186; -824.664
463.666;   64.295; -259.197;  -18.646
463.953;  105.157; -406.195; -243.648
464.239;  176.107; -173.195;  -77.648
464.526;  424.968;  413.806;  743.350
464.813;  420.230; -565.190; -304.658
465.099;  396.624;  606.807;  607.348
465.386;  388.978;  903.807;  921.348
465.672;   69.694; -694.197; -522.645
465.959;   52.248; -598.188; -520.662
466.245;   29.203; -468.193; -359.652
466.532;  125.155; -109.195;   63.352
466.818;  101.885; -357.186; -216.664
467.104;   31.200; -488.182; -415.672
467.391;   -9.418; -628.189; -459.658
467.677;   43.788; -289.186;    9.335
467.964;   48.014; -682.189; -471.660
468.250;   93.366; -331.186; -160.665
468.536;   96.408;   90.811;  180.341
468.822;  -15.022; -821.184; -574.668
469.109;  154.456;  351.827;  471.311
469.395;  191.013;  729.808;  787.346
469.681;  206.886;   46.811;  156.341
469.967; 1144.341; -699.188; -382.660
470.254; 2504.199; -494.188; -306.662
470.540; 1573.421; -601.196; -476.646
470.826;  235.661; -488.181; -397.675
471.112;  291.731;  288.816;  113.331
471.398;  111.036; -253.183;  -58.670
471.684;   62.664; -626.177; -447.680
471.970;   11.440; -918.180; -981.675
472.256;   38.362; -521.192; -441.654
472.542;   33.417; -499.171; -434.691
472.828;   36.421; -743.182; -607.672
473.114;   59.711; -380.166; -283.700
473.400;   35.131; -504.175; -293.684
473.686;   69.267; -452.166; -400.701
473.972;   77.346; -230.174; -131.687
474.258;  -37.644; -925.173; -843.689
474.544;  181.656; -183.178;   -2.679
474.830;  272.508;  -65.175;   45.316
475.116;  406.182; -123.190; -196.658
475.401;  568.942; -558.180; -467.676
475.687;  187.016; -725.180; -718.676
475.973;   32.754; -673.181; -770.673
476.259;  265.260;  736.825;  764.315
476.544;  381.398; -539.176; -437.682
476.830;  709.913; -398.172; -322.690
477.116;  581.296; -430.177; -336.682
477.401;  134.142;  346.820;  358.324
477.687;  -18.844; -289.175; -405.684
477.973;   38.607;   21.819;   28.326
478.258;   -3.563; -448.163; -348.706
478.544;   68.496;   21.815;   61.334
478.829;  -29.203; -818.171; -738.692
479.115;  -21.137; -749.172; -651.690
479.401;  -14.009; -444.174; -449.686
479.686;   41.491; -253.180;  -74.676
479.972;  -15.564; -886.178; -776.680
480.257;   37.912; -258.166;  -65.700
480.542;   -2.349; -614.170; -469.693
480.828;  237.379; 1288.824; 1392.317
481.113;  -27.023; -464.176; -426.683
481.399;    5.736; -236.161; -202.711
481.684;  -44.564; -620.166; -462.700
481.969;   23.825; -158.159;  -73.713
482.255;    9.512; -439.169; -285.695
482.540;    7.937; -569.178; -441.680
482.825;   18.855; -395.187; -404.663
483.110;   74.715;  -85.169; -105.696
483.396;  148.321; -840.157; -652.718
483.681;  418.221;  543.826;  730.313
483.966;  123.569; -696.160; -700.712
484.251;   14.145; -404.174; -310.687
484.536;   21.197; -356.165; -378.703
484.822;   16.973; -205.173; -218.687
485.107;  -10.390; -599.152; -502.726
485.392;  115.428;  662.836;  541.296
485.677;   73.675;  354.832;  163.302
485.962;  113.869;  160.843;  270.283
486.247;  116.445;  -14.162;   -8.707
486.532;   41.713; -178.166; -325.701
486.817;  166.806;  381.839;  431.291
487.102;  127.193; -453.154; -514.722
487.387;  570.123; -637.156; -652.718
487.672;  972.883; -154.164;  -38.705
487.957;  623.763; -394.160; -286.711
488.241;  193.951; -290.150; -314.729
488.526;  617.961; -280.152; -148.726
488.811; 1030.714; -881.177; -818.680
489.096;  763.370; -666.154; -702.723
489.381;  452.182;    3.847;  162.275
489.666;  303.486; -428.161; -510.710
489.950;  166.823;  558.846;  627.277
490.235;  -16.404; -480.151; -458.728
490.520;  -32.665; -756.161; -723.710
490.804;  -48.225; -827.156; -736.719
491.089;    8.592; -469.149; -299.732
491.374;   42.582; -132.164;  -75.704
491.658;    5.504; -817.147; -717.735
491.943;  210.565; -657.152; -609.727
492.227;  315.413; -178.155;  -38.721
492.512;   75.518; -294.157; -341.717
492.797;  -63.014; -713.149; -716.731
493.081;  -41.169; -588.147; -598.735
493.366;  -27.863; -751.161; -635.711
493.650;  208.335;  831.859;  917.254
493.935;   45.728; -648.147; -447.734
494.219;  -42.778; -778.142; -687.743
494.503;  -47.919; -585.150; -487.730
494.788;   41.385;   46.842;   74.285
495.072;   92.253;  184.850;  434.271
495.356;  162.195; -463.148; -343.733
495.641;  492.313; -812.146; -736.736
495.925;  480.255; -976.156; -903.719
496.209;   54.817; -599.149; -451.732
496.494;  -34.002; -763.142; -544.744
496.778;   11.768; -364.154; -360.722
497.062;  -34.295; -819.156; -627.719
497.346;  -41.660; -869.160; -640.711
497.631;  131.974;  580.852;  560.266
497.915;   84.749;  -64.145;  175.261
498.199;   70.171; -341.157; -277.718
498.483;   64.284; -562.152; -508.725
498.767;  173.729;  301.850;  300.271
499.051;  174.714; -126.149; -100.732
499.335;   29.387; -693.149; -739.731
499.619;  -32.714; -381.129; -423.767
499.903;   31.962; -272.155;  -65.721
500.187;   45.225; -588.153; -316.724
500.471;   51.440; -796.152; -595.727
500.755;  127.285;   62.839;  -96.710
501.039;   55.938; -270.155; -357.721
501.323;  114.937;  -21.141;  264.254
501.607;   62.813; -447.163; -503.706
501.891;   21.473; -607.156; -512.718
502.174;  -23.865; -726.144; -585.741
502.458;   76.869;   89.849;  370.273
502.742;   29.735; -180.138; -191.751
503.026;   94.228; -412.147; -254.734
503.310;  145.349; -437.159; -375.713
503.593;   92.279; -464.147; -325.735
503.877;  136.676; -232.133; -156.760
504.161;  201.677;    2.847;  -50.724
504.444;  163.712; -841.158; -710.716
504.728;  381.631; -487.164; -522.704
505.012;  605.451; -257.150;  -76.729
505.295;  491.786; -417.161; -212.711
505.579;  472.055; -256.156; -496.719
505.862;  624.020; -555.145; -333.738
506.146;  607.001; -681.159; -758.714
506.429;  362.002;  568.841;  461.286
506.713;   71.323; -732.151; -667.728
506.996;  286.942;   90.846;  295.278
507.280;  310.376; -633.165; -474.703
507.563;  215.761; -469.155; -261.721
507.847;   83.701; -423.153; -112.724
508.130;   82.162; -665.161; -456.711
508.413;   88.208; -758.167; -577.700
508.697;  215.458; -151.167;   12.300
508.980;  127.752; -422.153; -312.724
509.263;    2.182; -466.155; -450.720
509.547;   42.375; -124.150;   82.271
509.830;   46.989; -172.160;  140.289
510.113;   77.554;  128.844;  298.281
510.396;   44.158; -530.152; -300.725
510.680;  261.696; -818.145; -812.738
510.963;  953.897;  184.846;  180.277
511.246;  847.283; -493.150; -357.730
511.529;  291.101; -482.145;  -83.739
511.812;  309.522; -250.134;   10.241
512.095;  233.320; -740.151; -396.728
512.378;   67.508; -317.147; -245.736
512.661;   21.293; -703.137; -623.753
512.944;   25.649; -750.142; -637.744
513.227;   81.515; -170.137; -171.752
513.510;   19.160; -479.144; -671.741
513.793;   37.416; -485.140; -435.747
514.076;  140.582;  -43.127;  -39.771
514.359;   97.868; -294.149; -135.732
514.642;   89.902; -442.142; -567.744
514.925;  648.764;  581.860;  561.253
515.208;  841.394; -498.134; -443.758
515.491;  552.983; -276.133; -182.761
515.773;  325.713; -410.143; -337.742
516.056; 1787.874;  249.864;  409.246
516.339; 2517.228; -754.136; -652.755
516.622; 2071.506; -518.150; -488.730
516.904; 1702.970;  882.857;  975.257
517.187;  803.089; -730.138; -523.752
517.470;  430.144; -568.143; -510.743
517.752;  392.731; -624.136; -470.756
518.035;  303.926; -708.139; -725.749
518.318;  300.729; -799.136; -744.755
518.600; 1958.911; -300.132; -325.762
518.883; 2796.676;  310.858;   88.256
519.165; 1329.882; -585.138; -426.751
519.448;  412.336;  -61.132;  -19.762
519.730;  242.715; -573.126; -415.773
520.013;  333.554;  588.867;  664.240
520.295; 1175.449;  -94.134;  -15.759
520.578; 2640.224; -335.131; -305.764
520.860; 2890.336; -254.132;   56.238
521.143; 1431.633; -763.135; -584.756
521.425;  487.102; -251.125; -279.775
521.707;  601.907; -622.127; -380.771
521.990; 1535.708; -199.127;  167.229
522.272; 1742.593; -116.140;   -4.748
522.554;  875.414; -237.143; -157.742
522.836;  457.847;  -24.134;   99.241
523.119;  258.751; -496.148; -189.734
523.401;  173.356; -448.130; -314.766
523.683;   90.169; -865.137; -693.753
523.965;  248.112;  408.862;  260.248
524.247;  237.474;   54.878;  170.220
524.529;  178.624; -451.134; -367.759
524.812;  346.808;   -3.130;  191.234
525.094;  697.136; -773.138; -631.751
525.376; 1129.837; -143.124;   78.223
525.658;  691.151; -441.136; -339.754
525.940;   22.996; -805.131; -671.764
526.222;   60.154; -188.136;  -88.755
526.504;  152.768; -190.131;   32.237
526.786;  288.001; -960.133; -647.760
527.068;  425.492; -124.123;  -67.778
527.349;  219.672; -865.137; -774.754
527.631;  155.011; -137.132;   22.238
527.913;  119.232; -664.127; -450.771
528.195;  132.495; -761.125; -639.774
528.477;  201.519;  -93.134;  -30.758
528.759;   87.558; -648.130; -522.766
529.040;   54.991; -569.123; -293.778
529.322;   51.773; -235.125;  -10.774
529.604;  175.660;  -47.130;   93.233
529.886;  179.239; -546.126; -302.773
530.167;  131.251;  232.870;  192.235
530.449;   50.758;    1.853;   63.265
530.731;   25.873; -572.122; -459.779
531.012;   56.769; -513.120; -216.784
531.294;   65.158; -118.116;  -43.792
531.575;  129.227;  290.875;  538.225
531.857;   32.339; -548.135; -266.757
532.138;  102.060; -113.141;   40.254
532.420;  206.460;  294.865;  403.244
532.701;  297.054; -722.133; -751.760
532.983;  403.882;  232.867;  182.239
533.264;  160.862; -243.126;  175.228
533.546;  -20.271; -491.136; -508.755
533.827;   83.475;  173.867;   -1.759
534.109;   70.964; -352.135;  -80.757
534.390;  118.115; -725.132; -582.762
534.671;  276.560; -270.135;  -82.756
534.953;  158.269; -751.123; -611.779
535.234;   35.618; -426.117; -255.789
535.515;  -73.523; -891.119; -735.785
535.796;   -3.197; -431.128; -193.770
536.078; -106.514;-1050.124; -904.777
536.359;   11.919;  -22.123;    3.221
536.640;  -11.403; -480.125; -197.774
536.921;  158.940;  225.871;  143.232
537.202;  339.008;  -87.138;  -16.751
537.483;  411.448;  251.869;  377.236
537.764;  136.677;   17.870;   98.235
538.045;  -43.907; -543.134; -371.758
538.326;  -21.258; -596.129; -447.768
538.607;   11.133; -686.127; -476.771
538.888;  161.485;   98.879;    5.218
539.169;  154.654; -704.122; -535.781
539.450;  328.889;  236.871;   16.233
539.731;  230.164; -361.121; -182.783
540.012;  149.644;  199.880;  412.216
540.293;  103.506;   82.876;  158.224
540.574;   41.704; -895.113; -717.796
540.855;  469.812;  435.879;  377.218
541.136;  537.877;   47.878;  139.220
541.416;  263.758; -161.130; -220.766
541.697;  156.369; -274.131; -170.763
541.978;  869.412; -270.135; -315.757
542.259; 1143.258; -211.127; -236.771
542.539;  541.427; -191.116; -186.790
542.820;  178.377;  461.875;  480.225
543.101;  144.348;  -52.145;  -77.738
543.381;   48.408; -638.127; -591.771
543.662;  251.855;  159.873; -254.771
543.942;  501.229; -751.127; -830.770
544.223;  895.903;  193.878;  161.219
544.504;  572.036; -275.124; -182.777
544.784;  484.339; -592.126; -408.773
545.065; 1455.755;  104.884; -254.791
545.345; 1719.327;  227.881;   14.215
545.626; 1091.778;  -14.113; -108.796
545.906;  737.201;   77.869;   98.235
546.186;  300.369;   92.874;  -95.773
546.467;  181.314;   99.877;  -95.778
546.747;  289.901;  264.884;  327.210
547.027;  329.860;   91.876;  111.223
547.308;  287.778; -376.127; -530.770
547.588;  355.243;  299.871;  371.232
547.868;  187.602;  458.870;  588.235
548.149;  182.963;  609.885;  593.207
548.429;  105.556; -347.127; -299.771
548.709;  147.193; -645.120; -461.784
548.989;  387.887;   84.882;   88.213
549.269; 1745.909;   10.868;  139.239
549.550; 4083.443;  215.877;  117.222
549.830; 3603.246; -758.111; -556.799
550.110;  722.653; -468.110; -320.801
550.390;  703.848; -128.122;  -56.779
550.670;  965.499; -868.114; -783.795
550.950;  675.412; -509.121; -471.782
551.230;  159.333;  549.879;  460.218
551.510;  -12.939; -381.121; -326.782
551.790;   36.361; -173.109; -127.803
552.070;  235.063;  940.877; 1181.223
552.350;  311.606; -492.119; -377.786
552.630;  486.181;   -2.121;   77.219
552.909;  298.256;  181.884;   73.209
553.189;  191.991;  -49.132;   33.237
553.469;  145.156; -703.119; -514.786
553.749;  138.409; -469.127; -357.772
554.029;  142.172;   33.883;  -24.790
554.308;  123.492; -154.115;  -37.794
554.588;   53.927; -196.128; -204.770
554.868;   48.913; -366.121;  -47.782
555.147;  118.939; -114.115;  -46.793
555.427;  476.408; -260.116; -250.792
555.707; 3265.112; -284.115; -200.793
555.986; 3939.749; -719.111; -538.800
556.266; 2044.375;   23.884;   72.210
556.546;   83.611; -888.121; -675.782
556.825;  222.971; -657.114; -556.794
557.105; 1506.699; -125.128;   17.230
557.384; 1749.155;  122.884;  187.209
557.664;  656.833; -717.116; -508.792
557.943;   87.987; -557.121; -411.782
558.222;  140.690; -345.118; -344.788
558.502;  255.416; -116.115;  -76.793
558.781;  427.986;  194.885;  499.208
559.061;  348.940; -232.118; -227.788
559.340;  240.545;  302.883;  353.211
559.619;  587.525;   93.884;  148.210
559.899;  816.196; -239.117; -266.789
560.178;  751.890; -778.115; -593.793
560.457; 2603.098; -623.117; -562.790
560.736; 3696.400; -472.111; -482.800
561.015; 2385.672; -500.128; -502.769
561.295;  330.856;  180.893;  215.193
561.574;  320.838;  119.885;  116.207
561.853;  455.440;  274.891;  303.197
562.132;  408.293;  -45.114;  182.206
562.411;  383.106;  396.879;  553.219
562.690;  113.061; -592.115; -458.792
562.969;  128.560;  472.888;  630.203
563.248;  453.779; 2966.878; 2487.219
563.527;  225.675; -290.111; -408.800
563.806;  297.631; -650.127; -521.771
564.085;  340.996; -297.105; -206.810
564.364;  184.500; -594.117; -405.790
564.643;  399.257; -276.121; -223.781
564.922; 1561.809;  221.890;  397.198
565.201; 1542.788; -640.109; -700.803
565.479;  650.610; -297.115; -219.792
565.758;  272.425; -810.128; -712.770
566.037;  427.464; -155.109; -100.803
566.316;  198.255; -286.116;  -28.791
566.595;   49.337;  -17.115;  -12.793
566.873;   81.077; -166.111;  -79.801
567.152;  -61.666; -490.113; -590.797
567.431;    5.651; -113.116;    6.210
567.709;    5.906; -344.107; -212.807
567.988;  207.696; -810.114; -769.794
568.266;  453.912; -160.115;  -68.793
568.545;  311.543; -644.100; -514.819
568.824;  476.534;  160.885;  356.208
569.102;  452.246; -351.114; -235.794
569.381;  174.933; -492.116; -407.792
569.659;  -37.669; -553.113; -553.796
569.938;   22.302; -743.122; -465.780
570.216;   83.567; -225.109; -225.804
570.494;  -30.301; -632.114; -572.795
570.773;   31.210;  202.879;  114.218
571.051;   -7.759; -373.123; -357.778
571.330;   53.278; -221.113; -174.796
571.608;   27.811; -181.098; -173.823
571.886;  -71.356; -671.111; -581.799
572.164;  -63.462; -739.121; -621.782
572.443;  -54.575; -562.105; -512.811
572.721;  -31.102; -399.117; -289.790
572.999;  -27.358; -280.117; -168.788
573.277;   88.693;  379.894;  620.191
573.555;  231.496;   94.894;   37.190
573.834; 1095.291;  -86.117; -114.788
574.112; 1295.284;  880.893;  811.193
574.390;  371.501; -143.111;  -96.801
574.668;    6.786;  -91.112;  -61.797
574.946;  -11.704; -165.106; -187.810
575.224;   13.563;   71.891;  -16.803
575.502;  -12.672; -200.116; -204.791
575.780;  -73.163; -767.112; -829.798
576.058;  216.275; 1589.889; 1004.200
576.336;  -19.545; -210.110; -129.801
576.614;  -55.788; -511.112; -340.798
576.891;   24.542; -711.115; -823.794
577.169;  400.275; -158.108; -285.805
577.447;  477.083;  169.893;  202.193
577.725;  222.141;  629.888;  854.201
578.003;    9.864;  -71.112; -371.798
578.280;   91.484; -208.104; -242.812
578.558;   54.766; -450.115; -422.793
578.836;  128.674; -210.114; -145.795
579.114;   55.585; -630.112; -670.797
579.391;   72.718;   -6.117;  -18.789
579.669;  -65.657; -595.114; -704.794
579.947;  140.630; -326.107; -127.806
580.224;  266.055; -692.107; -524.806
580.502;  268.134;  127.893;   76.193
580.779;   32.974;  -42.117;   75.210
581.057;  -76.783; -584.109; -470.804
581.334; -100.501; -726.102; -695.815
581.612;   27.322;   54.895;  511.190
581.889;  -37.538;  -83.101; -129.818
582.167;  -31.224; -298.099; -190.821
582.444;  -93.918; -845.102; -814.817
582.721;   91.257;  657.899;  715.183
582.999;   42.374; -326.100; -167.821
583.276;  409.796; -812.123; -713.779
583.553;  581.477; -364.102; -294.816
583.831;  166.481; -607.104; -631.812
584.108;   40.623;  349.892;  174.195
584.385;   16.748; -122.102;  -98.815
584.662;  -75.623; -651.111; -828.801
584.940;   39.626;  204.889;  204.199
585.217;  -14.470;  -73.113; -303.796
585.494;   29.785;   71.890;  118.198
585.771;  170.668; -250.109; -354.804
586.048;  427.680; -196.113;  -76.796
586.325;  264.130; -721.110; -773.801
586.602;   86.384;  230.896;  213.188
586.879;  -20.505; -499.100; -580.820
587.156;   29.422; -156.105; -331.810
587.433;  -50.220; -701.102; -667.817
587.710;   64.437;  152.888;  234.202
587.987;  269.003; -264.105; -236.811
588.264;  710.689;  315.888;  387.202
588.541; 1167.212;  -61.104;   26.187
588.818; 2356.770;   72.892;  171.196
589.095; 2044.232; -163.104; -174.812
589.371;  311.866; -459.109; -414.804
589.648;   20.884; -581.107; -437.807
589.925;    8.375; -517.114; -621.795
590.202;   -8.338; -741.112; -607.798
590.478;   72.079; -166.105;  -73.811
590.755;  215.201; -241.108; -132.806
591.032; 2038.482; -741.110; -699.802
591.308; 2836.501; -732.094; -790.831
591.585; 1442.056; -573.110; -560.802
591.862;  108.331;-1056.102; -950.817
592.138;   36.674; -475.108; -474.805
592.415;  107.185; -486.104; -495.813
592.691; 1238.783;  460.896;  518.188
592.968; 1636.788; -208.098; -123.824
593.244;  767.651; -695.116; -595.790
593.521;   56.381; -105.102;  -42.817
593.797;  -34.801; -810.122; -720.780
594.074;  274.126; -611.096; -588.826
594.350;  582.687;  828.905;  729.172
594.626;  243.427; -303.111; -283.801
594.903;   87.582; -643.101; -645.817
595.179;  165.764;  243.896;  418.187
595.455;    2.135; -136.107; -150.807
595.731;    5.690;  -19.103;  -38.814
596.008;  -29.779; -464.111; -434.800
596.284;   20.598; -187.100; -242.820
596.560;   22.283; -501.093; -493.833
596.836;  181.799; -173.105;  -70.810
597.112;  277.174; -582.108; -437.805
597.388;  237.724;  -49.097;  -48.826
597.665;   91.058;  437.887;  530.203
597.941;  -61.163; -572.089; -658.839
598.217;   13.060; -323.110; -293.802
598.493;  214.569;   61.891; -204.804
598.769;  419.117; -175.100;  -50.819
599.045;  238.277; -490.108; -562.806
599.321;   25.872; -193.100; -261.820
599.597;  112.319; -355.109; -476.804
599.872;  400.587;  409.896;  429.187
600.148;  292.950;  -61.097; -172.826
600.424;  230.982;   91.893;  202.193
600.700;  180.984; -170.107; -280.807
600.976;   89.719; -442.097; -464.825
601.252;  205.840; -226.109; -272.803
601.527;  159.288; -833.104; -840.813
601.803;  125.305; -453.105; -404.812
602.079;  156.367; -124.100; -118.819
602.354;  456.893; -620.092; -531.835
602.630;  688.930; -140.113; -482.796
602.906; 1903.287; -910.101; -863.818
603.181; 5696.931; -627.119; -534.786
603.457; 4800.273;   98.903; -278.826
603.733;  694.289; -605.120; -626.783
604.008;  797.471; -245.106; -164.810
604.284; 2636.533; -636.101; -580.817
604.559; 2269.591;   -3.112;  -42.799
604.835;  400.174; -163.105; -225.810
605.110;  316.027; -732.099; -892.821
605.385;  594.635;  224.907;  267.167
605.661;  523.790; -625.095; -729.829
605.936;  941.953; -664.108; -737.806
606.211;  821.297;  -17.103; -170.815
606.487;  161.670; -329.114; -376.794
606.762;   -2.769; -791.119; -745.786
607.037;  -26.826; -501.105; -433.810
607.313;  -51.017; -589.096; -574.828
607.588;  -13.629; -375.106; -137.810
607.863;   20.812;  -28.101; -143.818
608.138;  155.759;  513.890;  516.198
608.413;   11.431; -576.099; -592.822
608.688;   30.374; -203.108; -267.805
608.964;  153.990; -509.106; -218.809
609.239;  192.172; -107.105; -212.810
609.514;  210.980;  281.895;  240.188
609.789;  533.584; -187.104; -716.812
610.064;  725.982; -435.096; -609.827
610.339;  708.916; -855.109; -799.804
610.614;  958.547; -131.100; -315.820
610.889;  528.905;  215.895;  107.188
611.163;   36.256; -407.104; -591.812
611.438;   64.646;   81.886; -167.794
611.713;   -4.867; -467.101; -499.817
611.988;   20.636; -144.101; -328.818
612.263;  -34.501; -771.102; -717.815
612.538;  180.130;  385.887;  251.204
612.812;  118.948; -832.100; -911.820
613.087;  108.361; -358.098; -338.823
613.362;  -55.490; -497.107; -557.807
613.637;   33.993;  261.897;  138.186
613.911;  -13.857; -256.092; -345.835
614.186;   71.783; -249.107; -292.807
614.460;  528.387; -842.081; -758.854
614.735;  643.835;  -55.087;  -17.843
615.010;  136.975;   43.912;  -82.841
615.284;  204.323;  360.892;  246.195
615.559;  304.767; -792.092; -955.835
615.833;  242.329;  -76.099;  -87.822
616.108;   -3.371; -225.090; -390.837
616.382;  123.987;  274.913;  402.156
616.656;  121.829; -241.090; -232.837
616.931;  406.354; -785.099; -700.822
617.205;  900.738; -973.104; -979.813
617.480;  832.450;  -91.125;    6.225
617.754;  123.948; -396.125; -128.774
618.028;    0.293; -369.129; -382.768
618.302;   46.947;   73.892;  -25.805
618.577;  -64.131; -371.103; -518.815
618.851;  -65.463; -399.109; -600.803
619.125;  -60.026; -335.134; -378.759
619.399;  -39.287; -244.104; -374.813
619.673;  -56.416; -330.115; -515.792
619.947;  -42.026; -333.114; -448.795
620.222;  -24.372; -198.110; -204.801
620.496;   -8.063;  -47.121;  -96.782
620.770;    5.154; -187.122;  -93.781
621.044;  189.097;  323.895;  346.190
621.318;  638.090; -653.120; -614.783
621.592;  550.213; -430.121; -409.783
621.866;  268.392; -476.112; -572.799
622.140;    3.278; -207.116; -356.791
622.413;   36.571;  138.889;  112.200
622.687;  -52.666; -746.101; -492.817
622.961;    8.872; -130.108; -143.805
623.235;  -73.428; -633.111; -661.800
623.509; -105.621; -816.105; -848.811
623.783;    7.831;  -12.107;   48.193
624.056;  -30.709; -254.120; -280.783
624.330;   43.211;   63.888;   -3.797
624.604;   36.025; -271.116; -355.790
624.877;   48.808;  180.890;   26.198
625.151;   28.368; -249.114; -238.794
625.425;  -32.110; -150.103; -283.814
625.698;  -65.524; -367.119; -374.785
625.972;  -89.990; -799.110; -765.802
626.245;   70.926;  685.884;  484.210
626.519;  -53.755; -426.120; -340.784
626.792;  -48.266; -192.107; -380.807
627.066;  -92.503; -485.122; -662.779
627.339;  -97.694; -736.110; -663.802
627.613;   36.394;  351.880;  148.216
627.886;   42.012;  187.891; -612.803
628.160;  -16.510;  312.880; -161.783
628.433;  -93.947; -695.125; -703.775
628.706;  -87.205; -517.120; -615.784
628.979;   19.110;  296.876;  117.223
629.253; -108.095; -785.119; -833.786
629.526;  268.138; -334.126; -253.772
629.799;  270.117; -641.123; -479.778
630.072;  110.195; -497.128; -516.769
630.346;  -73.274;-1115.116;-1080.790
630.619;  352.510; -467.107; -545.808
630.892;  547.648;  709.889;  593.200
631.165;  273.738;  790.896;  679.187
631.438;  -91.636;-1092.112;-1055.798
631.711;   41.695;  453.877;  257.221
631.984;  -54.678; -523.117; -624.789
632.257;  -74.607; -636.117; -681.789
632.530;  -42.874; -412.119; -433.785
632.803;   20.366; -109.115;    7.207
633.076;  -71.812; -360.123; -422.777
633.349;    3.424;  173.872;  121.231
633.622;  -32.325; -187.119; -240.785
633.895; -131.834; -903.120; -823.783
634.167;  -74.985; -496.126; -525.773
634.440;  -28.092;  -19.116; -137.792
634.713;   -1.171;  -22.119; -120.786
634.986;   60.739;  593.871;  453.233
635.258;  -83.210; -507.115; -597.793
635.531;   83.739;  742.882; -343.788
635.804;  -24.080; -303.117; -318.789
636.077;  -83.271; -830.116; -852.791
636.349;  -22.462; -586.115; -474.793
636.622;  342.162; 1695.874; 1392.228
636.894;  199.246; -474.120; -909.784
637.167;  104.156; -836.127; -789.771
637.439;    8.827; -278.128; -213.770
637.712;  -52.936; -312.126; -293.772
637.984;  -76.870; -635.116; -707.791
638.257;  328.064;  515.877;  488.222
638.529;  505.754; -881.125; -924.776
638.802;  218.370; -508.128; -449.769
639.074; -128.322; -927.122; -952.781
639.346; -121.335; -942.135; -930.757
639.619;    3.900;  -79.142; -319.744
639.891;   -8.303;  -83.122; -168.779
640.163;  -79.751; -689.122; -756.780
640.435;   20.001;  273.878;  103.220
640.708;    5.377;  -72.122; -132.780
640.980;  -36.146; -366.122; -362.781
641.252;  160.606;  -25.121;  -71.781
641.524; 1645.658;  580.879;  573.219
641.796; 1675.860;-1094.121; -907.782
642.068;  299.762; -191.121; -300.782
642.340;  -59.187; -486.121; -566.783
642.613;   30.290;  294.880;  323.217
642.885; -103.408; -787.120; -878.783
643.157;  -35.556; -810.120; -658.784
643.428;   55.771;  170.880;  218.216
643.700;  -77.853; -498.120; -425.784
643.972;  -44.726;  -16.119; -133.785
644.244;  -96.424; -474.119; -559.785
644.516;  -41.822; -250.119; -114.786
644.788;   57.030;  662.881;  548.214
645.060;  -22.493;  -12.119; -124.786
645.332;  -95.717; -525.118; -535.787
645.603;   24.460;  479.882;  342.213
645.875;  -74.538; -334.118; -369.787
646.147;  156.639; 1487.882; 1242.212
646.418;  -94.884; -931.117; -918.788
646.690;   79.393; -714.117; -715.789
646.962;    7.094; -413.117; -451.789
647.233;  -16.029;   15.883;   11.211
647.505; -103.377; -595.117; -475.790
647.776;   26.625;  328.884;  229.210
648.048;  -20.748; -248.116; -418.790
648.320;  -76.121; -752.116; -679.791
648.591; -150.820;-1055.116; -958.791
648.862;  -80.593; -505.116; -577.792
649.134;   12.434;  115.885;  198.208
649.405;  -50.339; -661.115; -618.792
649.677;  -68.587; -475.115; -598.793
649.948;  -14.835; -181.115; -296.793
650.219;    1.866;  -37.115; -147.793
650.491;  -84.932; -431.114; -520.794
650.762; -120.180; -705.114; -731.794
651.033;  -75.228; -437.114; -424.795
651.304;  -88.826; -743.114; -728.795
651.576;  -74.224; -680.114; -645.795
651.847;  -43.673; -250.113; -140.796
652.118;  -32.546;  -32.113; -189.796
652.389; -117.219; -639.113; -722.796
652.660;  -34.617; -147.113;  -89.797
652.931; -133.565; -897.112; -871.797
653.202;  -73.838; -382.112; -541.798
653.473;  -65.837; -633.112; -533.798
653.744;  115.190; -595.112; -590.798
654.015;  121.117; -356.112; -303.799
654.286;  -63.731; -642.111; -663.799
654.557;  -72.654; -586.111; -521.799
654.828; -147.977;-1114.111;-1088.800
655.099;  -73.051; -404.111; -291.800
655.370;  -88.749; -427.111; -543.801
655.641; -126.647; -656.110; -714.801
655.911; -103.495; -618.110; -638.801
656.182;   48.407;  437.890;  387.198
656.453;   97.684;  830.890;  746.198
656.724;  -62.090; -466.110; -426.802
656.994;  -88.213; -553.109; -568.803
657.265; -122.636; -862.109; -873.803
657.536;  -81.659; -500.109; -377.804
657.806; -108.882; -561.109; -593.804
658.077; -133.430; -866.109; -950.804
658.347; -103.029; -523.108; -598.805
658.618;  -99.052; -646.108; -694.805
658.888;  -35.550;  -41.108;  112.195
659.159;  -74.273; -432.108; -548.806
659.429;  -18.896; -292.108; -349.806
659.700;    8.455; -435.107; -390.807
659.970;  -14.018; -370.107; -359.807
660.241;   -8.141; -754.107; -921.807
660.511;  430.786; -147.107; -174.808
660.781;   67.763; -793.106; -748.808
661.052;  -50.385; -222.106; -381.808
661.322;  -22.234;   21.894;   -9.809
661.592;    7.268;  257.894;  148.191
661.862;  -62.580; -369.106; -382.810
662.133;  -90.353; -551.105; -502.810
662.403; -123.651; -770.105; -676.810
662.673;  -59.999; -256.105; -213.811
662.943; -103.448; -612.105; -551.811
663.213;  -19.871;  -85.105;  -81.811
663.483;  -74.794; -593.104; -568.812
663.753;  -51.167; -194.104; -152.812
664.023;  -13.365;   68.896;  -32.813
664.293;  -60.363; -319.104; -126.813
664.563; -115.037; -694.104; -648.813
664.833; -126.160; -743.103; -608.814
665.103; -127.158; -730.103; -793.814
665.373; -107.731; -766.103; -806.814
665.643; -101.004; -863.103; -918.815
665.913;    1.223; -534.103; -714.815
666.182;  103.699; -685.102; -719.816
666.452;  207.751;  -22.102;  -89.816
666.722;  -33.922; -724.102; -784.816
666.992; -127.670; -948.102; -921.817
667.261;  -93.068; -824.102; -808.817
667.531;  183.384;  134.899;   45.183
667.801;  541.360; -440.101; -412.818
668.070;  225.362;  714.899;  697.182
668.340; -106.561; -883.101; -840.819
668.609;   65.466;  588.900;  301.181
668.879;  -95.382; -490.100; -558.819
669.149;  -77.830; -539.100; -516.820
669.418; -114.529; -698.100; -726.820
669.688;  -49.127; -482.100; -666.820
669.957;   36.175; -423.099; -546.821
670.226;  -31.323; -268.099; -331.821
670.496;  -93.846; -431.099; -635.822
670.765;  -76.544; -418.099; -501.822
671.034; -138.268; -872.099; -828.822
671.304;  -23.941;   55.902; -111.823
671.573; -147.164;-1085.098; -957.823
671.842;   59.838; -380.098; -294.823
672.112;    9.365; -692.098; -586.824
672.381;  -12.583; -239.098; -214.824
672.650; -128.107;-1005.097;-1021.825
672.919;  -90.505; -631.097; -507.825
673.188; -106.028; -681.097; -878.825
673.457; -155.126;-1101.097;-1143.826
673.726;  -81.824; -579.096; -646.826
673.995;  -43.247; -533.096; -479.826
674.265;  -36.796; -263.096; -333.827
674.534;  -12.419; -183.096; -235.827
674.802;   -5.142; -618.096; -703.828
675.071;  758.510; -886.095; -801.828
675.340; 3321.962; -464.095; -339.828
675.609; 1091.638;  103.905;   82.171
675.878;   51.465; -949.095; -893.829
676.147;   22.442;  -26.095;   -8.829
676.416;   61.644; -210.094; -294.830
676.685;  620.821; 1000.906; -622.830
676.953;   77.823; -603.094; -452.831
677.222;  -34.901; -193.094; -273.831
677.491;  -27.449;  -24.094; -127.831
677.759;  -19.247;   11.907;  172.168
678.028;  -28.720; -279.093; -222.832
678.297;  -19.368;   71.907;  197.168
678.565; -148.166; -898.093; -944.833
678.834;  -52.615; -311.093; -268.833
679.102;  -83.963; -411.092; -391.834
679.371; -133.161; -898.092; -727.834
679.639; -126.384; -797.092; -786.834
679.908; -128.057; -794.092; -724.835
680.176; -157.730; -895.091; -941.835
680.445;  -70.229; -346.091; -352.835
680.713;  -19.452;  -58.091;  -23.836
680.982;  -99.775; -523.091; -525.836
681.250; -105.823; -578.091; -507.837
681.518;  -96.696; -534.090; -751.837
681.787;  -29.494; -204.090; -167.837
682.055;  -64.893; -490.090; -422.838
682.323; -153.041; -993.090; -992.838
682.591;   13.636; -216.090; -538.838
682.859;   71.738;    9.911;  -35.839
683.128;   -3.910;  232.911;  497.161
683.396; -156.858;-1102.089;-1122.840
683.664;  -50.682; -241.089;   21.160
683.932;    3.695;  144.911;  -76.840
684.200;  -82.878; -576.088; -320.841
684.468;  -19.501;  -73.088; -124.841
684.736;  -49.349; -214.088; -175.841
685.004; -118.022;-1024.088; -982.842
685.272;  -69.496; -880.088; -774.842
685.540;  -70.644; -499.087; -557.843
685.808;  -89.192; -651.087; -682.843
686.076; -107.990; -894.087; -969.843
686.343;  -78.188; -601.087; -815.844
686.611;   22.239; -195.087; -224.844
686.879;  332.465; -530.086; -553.844
687.147; 2833.042; -483.086; -480.845
687.414;  819.119;  -12.086; -169.845
687.682;   -9.979; -658.086; -757.846
687.950;  259.348;  259.915;  263.154
688.217;   -3.400; -792.085; -760.846
688.485;  -34.999; -632.085; -636.847
688.753;  422.128;  -11.085; -102.847
689.020;  130.955; -820.085; -851.847
689.288; -100.893; -853.084; -787.848
689.555;  -31.291; -195.084; -148.848
689.823;  -56.039; -241.084; -345.849
690.090;  -81.788; -546.084; -651.849
690.358; -146.861; -877.084; -897.849
690.625;  -10.809;  120.917;   45.150
690.892;  -71.082; -403.083; -369.850
691.160;  -22.055;   72.917;  -35.850
691.427;    3.371;  141.917;  130.149
691.694; -129.627; -855.083; -929.851
691.962; -132.975;-1177.082;-1060.852
692.229;    3.202;  127.918;   56.148
692.496;   53.354;  130.918;  -49.852
692.763;   13.506; -164.082; -201.853
693.031;  -66.893; -739.082; -716.853
693.298;  -44.566; -509.081; -368.853
693.565;  232.336; -155.081; -163.854
693.832; 1076.163;   -5.081;   -9.854
694.099;  108.865; -643.081; -642.855
694.366;  -64.408; -882.081; -896.855
694.633;  -59.532; -920.080; -633.855
694.900;  700.070; 4367.920; -114.856
695.167;  369.247; -214.080; -380.856
695.434;   88.199; -646.080; -623.856
695.701;  183.751;  121.921;  -61.857
695.968;  412.128; -365.079; -361.857
696.234;  928.279; -415.079; -646.858
696.501;10486.006; -776.079; -614.858
696.768; 5539.558; -554.079; -617.858
697.035;  325.335; -632.078; -667.859
697.302;   59.287; -448.078; -552.859
697.568;   16.039; -458.078; -497.859
697.835;  -32.960; -683.078; -624.860
698.102;  -22.983; -498.078; -407.860
698.368;   66.294;  384.923;  396.139
698.635;  -29.479;  -47.077; -424.861
698.901;  -22.727; -240.077; -348.861
699.168;   44.625; -534.077; -456.862
699.435;   61.851;  -72.077;  -13.862
699.701; -108.247; -868.076; -764.862
699.968;    5.855;  144.924; -441.863
700.234; -102.193; -783.076; -822.863
700.500;  -41.816; -448.076; -539.864
700.767;   -7.689;   -1.075;   26.136
701.033; -122.763;-1015.075; -963.864
701.299;  -60.611; -450.075; -483.865
701.566;  118.716;  950.925;  763.135
701.832;    7.193;  -31.075;  -76.865
702.098;  -96.180;-1054.074;-1034.866
702.365;  -93.928;-1098.074;-1030.866
702.631;  -44.527;-1038.074;-1063.867
702.897; 1185.525; -765.074; -676.867
703.163; 2133.677;  348.926;  254.133
703.429;  144.104; -256.073; -273.868
703.695;  -37.244; -796.073; -792.868
703.961;   19.058; -214.073; -210.868
704.227;  -56.241; -630.073; -725.869
704.493;  128.311;  613.927;  510.131
704.759;  -21.237; -565.072; -540.870
705.025;   44.815; -203.072; -194.870
705.291;    4.392; -666.072; -562.870
705.557;  199.418;  719.928;   34.129
705.823;   38.995; -742.072; -694.871
706.089;  169.147; -307.071; -326.871
706.355;  380.349; -315.071; -244.872
706.620; 5918.701; -776.071; -729.872
706.886; 8443.153; -309.071; -362.873
707.152;  773.504; -818.070; -973.873
707.418;    2.631;-1153.070;-1186.873
707.683;   -4.392; -550.070; -530.874
707.949;  -39.940; -547.070; -578.874
708.215;    5.562; -129.070; -207.874
708.480;  -12.136; -520.069; -420.875
708.746;   90.165;   68.931;   28.125
709.011;  -68.358; -578.069; -612.876
709.277;  -82.856; -538.069; -543.876
709.542;  -33.229; -428.069; -387.876
709.808;   -5.552;  -59.068;   89.123
710.073;  -89.350; -577.068; -695.877
710.339;  -32.074; -242.068; -228.877
710.604;   70.853; -780.068; -845.878
710.869;  313.780; -277.068; -366.878
711.135;  -76.268; -715.067; -628.879
711.400;  -87.566; -507.067; -608.879
711.665;  -77.164; -404.067; -479.879
711.931;  -99.663; -661.067; -677.880
712.196; -123.861; -876.067; -954.880
712.461;   72.191; -402.066; -490.880
712.726;  125.818; -727.066; -771.881
712.991;  -92.405; -647.066; -664.881
713.256;  -60.953; -350.066; -332.882
713.521;  -48.902; -417.065; -381.882
713.787;  -47.925; -454.065; -472.882
714.052;  -16.023; -214.065; -400.883
714.317;  -83.721;-1045.065; -981.883
714.581; 1056.206; -374.065; -268.883
714.846; 1608.558; -822.064; -888.884
715.111;  138.484;  261.936;  257.116
715.376;  -32.564;  -86.064; -223.885
715.641;  -25.087; -365.064; -367.885
715.906;  245.340;   15.936; -551.885
716.171;  122.467;  221.937;  209.114
716.436;   34.844;  -78.063; -104.886
716.700; -113.055; -818.063; -692.886
716.965; -120.953; -794.063; -807.887
717.230;  -75.851; -339.063; -392.887
717.494;  -24.699;  -40.062; -134.888
717.759;  -98.272; -784.062; -640.888
718.024;   -0.145;  269.938;  250.112
718.288;   88.881;  685.938;  395.111
718.553; -134.467; -803.062; -977.889
718.817; -140.515; -883.061; -899.889
719.082;  -32.438; -115.061; -125.890
719.346; -142.786;-1000.061; -947.890
719.611;  -68.909; -300.061; -255.891
719.875;  -99.133; -568.060; -537.891
720.140;  -65.206; -453.060; -603.891
720.404;   22.821; -136.060; -249.892
720.668;  708.348; -475.060; -411.892
720.933;  305.300;  146.940;  137.108
721.197; -100.299; -667.059; -600.893
721.461; -130.497; -851.059; -826.893
721.725;  -11.770;  -21.059; -250.894
721.990;  -59.868; -284.059; -204.894
722.254;  -29.941;  -26.059; -108.894
722.518;  -82.939; -286.058; -442.895
722.782; -112.138; -743.058; -594.895
723.046;  109.264;  614.942;  570.105
723.310;   15.541;  374.942;  210.104
723.574; -107.107; -654.058; -614.896
723.838; -101.255; -576.057; -642.897
724.102;  -45.453; -226.057; -239.897
724.366; -132.352;-1032.057; -978.897
724.630;  -96.150; -749.057; -571.898
724.894;  -73.423; -722.057; -514.898
725.158;  -14.296;   38.944; -295.898
725.422;  -54.744; -394.056; -327.899
725.685;  -67.967; -441.056; -349.899
725.949;  -75.416; -566.056; -519.900
726.213;  -83.139; -732.056; -811.900
726.477;  119.988;-1020.055; -933.900
726.740;  127.940; -274.055; -104.901
727.004;  310.892; -384.055; -510.901
727.268; 3440.394; -442.055; -400.901
727.531; 1054.895; -961.055; -775.902
727.795;  -31.678; -713.054; -673.902
728.059;  -48.776; -552.054; -557.903
728.322;  -84.874; -841.054; -669.903
728.586;    2.053; -692.054; -701.903
728.849;  -95.595; -695.053; -756.904
729.112; -114.394; -812.053; -912.904
729.376; -122.867; -959.053; -905.904
729.639;  -74.040; -536.053; -536.905
729.903; -108.288; -733.053; -699.905
730.166;  -39.261; -437.052; -399.906
730.429;  -50.584; -317.052; -468.906
730.693;  -60.583; -355.052; -894.906
730.956;  170.119;  810.948;  651.093
731.219;  600.496; -310.052; -103.907
731.482;   75.773;-1003.051; -894.907
731.745;   84.125; -794.051; -935.908
732.009;    9.377;  -30.051;   50.092
732.272;  -97.447; -904.051; -771.909
732.535;  -41.570; -300.051; -310.909
732.798; -163.568;-1083.050;-1166.909
733.061;  -62.416; -430.050; -456.910
733.324;    3.261;   31.950; -180.910
733.587;   42.113;  290.950;  365.090
733.850;  -65.661; -973.049;-1050.911
734.113;   16.216;   33.951;   32.089
734.376;   -3.857; -328.049; -447.912
734.639;  197.170; 1188.951; 1011.088
734.901;   46.147; -180.049; -402.912
735.164;  395.674; -883.048; -837.913
735.427; 1197.625; -166.048; -355.913
735.690;  119.902; -205.048; -234.913
735.952;  -40.771; -923.048; -925.914
736.215;  -18.944;-1113.048;-1009.914
736.478;   39.133; -771.047; -774.915
736.740;  178.384;   33.953;  129.085
737.003;  531.211; -658.047; -672.915
737.266; 3590.363;  -94.047;   46.084
737.528;  414.940; -682.047; -660.916
737.791;  314.742; -316.046; -327.916
738.053;  771.119;  465.954;  649.083
738.316;10392.870; -162.046; -136.917
738.578; 8139.697; -770.046; -736.918
738.841;  455.299; -382.046; -446.918
739.103;  157.376; -875.045; -777.918
739.365;  476.953;   79.955;  -69.919
739.628;  -10.845; -884.045; -805.919
739.890;  -19.169; -758.045; -710.919
740.152;  -51.567; -692.044; -754.920
740.414;  -22.490; -408.044; -359.920
740.677;  -43.613; -785.044; -634.921
740.939;  -71.986; -587.044; -487.921
741.201;  218.866; -432.044; -572.921
741.463;   24.942; -689.043; -745.922
741.725;   16.419;  -21.043; -199.922
741.987;   56.921;  220.957;  116.078
742.249;   -7.402; -751.043; -859.923
742.511;  180.900; -703.043; -794.923
742.773;    5.927; -546.042; -546.924
743.035;  115.578;  796.958;  533.076
743.297;  -63.870; -963.042;-1013.924
743.559;  661.082; -278.042; -262.925
743.821;   51.884; -735.042; -744.925
744.083;   -1.764;  -44.041; -149.925
744.345;  -88.012; -869.041; -892.926
744.607;   31.389;   75.959;  122.074
744.868;  -56.109; -490.041; -554.927
745.130; -127.632; -994.041;-1008.927
745.392;   28.195;   -1.040;  -44.927
745.653;  -21.928; -411.040; -378.928
745.915;  141.024;  896.960;  631.072
746.177;   45.425;   35.960;  -43.928
746.438;  -16.098; -428.040; -543.929
746.700;  -45.946; -947.039; -988.929
746.961;    2.706; -659.039; -740.930
747.223;  129.283; -190.039;  -74.930
747.484;   71.160; -391.039; -471.930
747.746;  149.086;  -23.038; -106.931
748.007;   92.263; -647.038; -689.931
748.269;  242.765; -468.038; -440.931
748.530;  437.967; -852.038; -638.932
748.791;  235.269; -354.038; -420.932
749.053;  406.596;  286.963;  163.067
749.314;  429.997; -236.037; -169.933
749.575;  470.774; -945.037; -905.933
749.836;  794.001; -217.037;   86.066
750.098; 2132.928;  -60.037;  -21.934
750.359;33515.205;  414.964;  555.066
750.620; 9478.782; -121.036; -220.935
750.881;  968.333; -585.036; -513.935
751.142; 1244.385; -950.036; -938.936
751.403;15704.737; -789.036; -705.936
751.664; 7802.289;-1034.035; -999.936
751.925;  502.441; -175.035; -262.937
752.186;  272.267; -298.035; -278.937
752.447;  125.694; -590.035; -445.937
752.708;   57.921; -532.035; -648.938
752.969;    8.298; -566.034; -576.938
753.230;  -21.700; -777.034; -672.939
753.491;   -4.048; -650.034; -631.939
753.751;   67.328;  109.966;   19.061
754.012;   71.480;  258.967;  181.060
754.273;   54.482; -174.033;  -71.940
754.534;   -0.716; -487.033; -580.940
754.794;  -81.664; -926.033; -911.941
755.055;  125.163; 1051.967;  881.059
755.316;  -35.686; -700.032; -566.942
755.576;  -44.209; -606.032; -576.942
755.837;  -43.557; -527.032; -695.942
756.097;  -28.380; -530.032; -564.943
756.358;  -58.053; -725.032; -770.943
756.618;  -57.801; -705.031; -641.943
756.879;   -0.600; -254.031; -349.944
757.139; -123.498;-1098.031;-1116.944
757.400;  -56.271; -538.031; -553.945
757.660;  -35.544; -365.031; -401.945
757.920;   -1.142; -266.030; -228.945
758.181;  -25.090; -468.030; -351.946
758.441;  -92.989; -870.030; -809.946
758.701;  -30.212; -308.030; -215.946
758.961;  -18.810; -220.030; -278.947
759.222;  -47.858; -574.029; -502.947
759.482;  -75.281; -683.029; -723.948
759.742;  -98.504; -706.029; -547.948
760.002;    8.772;  -83.029; -143.948
760.262;    6.774;   50.972;  182.051
760.522;  -34.549; -498.028; -574.949
760.782;  -58.097; -738.028; -612.949
761.042;  -27.620; -618.028; -573.950
761.302;   38.332;   55.972;  -18.950
761.562;   43.083; -164.027; -154.951
761.822;   58.885; -710.027; -551.951
762.082;  -35.288;-1104.027;-1093.951
762.342;   56.889; -328.027; -403.952
762.601;   68.941; -567.027; -506.952
762.861;  318.443; -281.026; -207.952
763.121;  384.194; -406.026; -411.953
763.381; 6944.196; -499.026; -485.953
763.640; 8772.573; -139.026; -307.954
763.900;  372.125; -242.026; -203.954
764.160;   91.177; -458.025; -491.954
764.419;   -8.571; -726.025; -782.955
764.679;  -73.495; -795.025; -726.955
764.939;  -13.718; -124.025; -210.955
765.198;  -74.841; -608.025; -563.956
765.458;  -83.989; -710.024; -612.956
765.717;  -92.237; -454.024; -590.957
765.976;  -55.936; -428.024; -411.957
766.236;  -64.409; -475.024; -610.957
766.495;    7.393;  260.977;   73.042
766.755; -106.155;-1090.023; -987.958
767.014;  -12.403; -594.023; -665.958
767.273;  -46.026; -373.023; -397.959
767.533;  -59.125; -228.023; -307.959
767.792;  -30.423; -151.022; -188.960
768.051;  -54.671; -228.022; -276.960
768.310;  -84.644; -546.022; -650.960
768.569;   -2.042; -161.022;    4.039
768.828;  -26.640; -285.022; -363.961
769.088; -110.364;-1050.021; -942.961
769.347;  -81.612; -755.021; -599.962
769.606;  -85.135; -876.021; -857.962
769.865; -113.508;-1016.021;-1033.963
770.124;  -15.006; -411.021; -336.963
770.383;  -48.204; -778.020; -910.963
770.641;    1.697; -398.020; -400.964
770.900;  -59.901; -953.020; -846.964
771.159;  -30.249; -851.020; -951.964
771.418;    7.703; -917.020; -779.965
771.677;  130.805; -224.019; -293.965
771.936;  175.307; -794.019; -865.966
772.194; 2124.683; -465.019; -437.966
772.453;12086.410; -213.019; -391.966
772.712;  878.462;  416.982;  329.033
772.970;  117.064;   32.982;   63.033
773.229;   81.841;  -22.018;  102.033
773.488;  -81.732; -814.018; -770.968
773.746;   39.369;  296.982;  335.032
774.005;    7.571;  190.983;  -22.969
774.263;    7.948;  243.983;  177.031
774.522;  -33.625; -422.017; -548.969
774.780;  -79.848; -484.017; -417.970
775.039;  -82.421; -551.017; -531.970
775.297;  -17.870; -135.016; -351.970
775.555;  -99.393; -489.016; -612.971
775.814; -124.416; -618.016; -570.971
776.072; -123.364; -749.016; -740.971
776.330;  -83.762; -630.016; -520.972
776.589; -114.635; -703.015; -721.972
776.847; -134.559; -645.015; -624.973
777.105; -158.532;-1016.015;-1032.973
777.363;  -83.705; -459.015; -454.973
777.621; -125.928; -660.015; -717.974
777.879;  -22.576;  -42.014;   32.026
778.138; -103.074; -554.014; -717.974
778.396;  -99.898; -585.014; -526.975
778.654; -171.946;-1015.014; -970.975
778.912;  -84.669; -269.014; -371.976
779.170; -118.417; -880.013; -803.976
779.427; -154.840; -922.013; -897.976
779.685; -131.688; -880.013; -832.977
779.943;  -95.612; -654.013; -593.977
780.201; -157.360; -964.012; -883.978
780.459; -116.308; -651.012; -610.978
780.717;  -99.581; -440.012; -390.978
780.974; -110.029; -449.012; -490.979
781.232;  -81.053; -358.012; -338.979
781.490;  -80.526; -551.011; -472.979
781.747;  -95.549; -555.011; -476.980
782.005;    6.353;  462.989;  254.020
782.263; -165.120; -542.011;-1004.981
782.520;  -92.868; -326.011; -501.981
782.778; -156.517;-1013.010;-1051.981
783.035; -182.040; -962.010; -938.982
783.293;  -61.713; -248.010; -206.982
783.550;  -57.511; -134.010; -198.982
783.808; -134.859; -764.010; -776.983
784.065; -148.132; -745.009; -874.983
784.322;  -53.156;   25.991;  -86.984
784.580; -141.554; -915.009; -771.984
784.837;  -91.252; -392.009; -466.984
785.094; -135.400; -783.009; -762.985
785.352;  -80.348; -304.008; -404.985
785.609; -114.046; -934.008; -839.985
785.866;  -86.395; -345.008; -401.986
786.123;  -85.968; -639.008; -583.986
786.380; -105.691; -665.008; -604.987
786.637;  -65.464; -225.007; -380.987
786.895;  -27.112; -456.007; -543.987
787.152;  -47.935; -135.007; -267.988
787.409;  -59.834; -123.007; -225.988
787.666; -100.632; -299.006; -378.988
787.923; -121.705; -616.006; -695.989
788.179; -108.753; -551.006; -584.989
788.436;  -97.376; -585.006; -585.990
788.693;  -26.699;  -92.006;  -87.990
788.950;   78.652; -125.005; -112.990
789.207;  176.929; -381.005; -372.991
789.464;  -55.069; -161.005; -301.991
789.720;  -22.392;  150.995;  110.009
789.977; -164.140;-1003.005; -671.992
790.234;  -38.213;   44.996;  -66.992
790.490; -163.862; -884.004;-1031.993
790.747;  -25.960;  -85.004;   22.007
791.004;  -28.783; -426.004; -348.993
791.260;  -76.306; -430.004; -560.994
791.517; -107.729; -843.003; -788.994
791.773;  -54.227; -379.003; -342.994
792.030; -108.226; -596.003; -660.995
792.286; -115.924; -686.003; -636.995
792.543;  -27.972;  -74.002; -159.995
792.799;  -62.345; -584.002; -382.996
793.055; -154.843;-1179.002;-1210.996
793.312;  -92.916; -827.002; -816.997
793.568;  -52.340; -746.002; -599.997
793.824;    7.287; -226.001; -284.997
794.081;   14.939; -447.001; -508.998
794.337;   60.616; -664.001; -561.998
794.593; 1112.743; -319.001; -271.999
794.849; 6580.720; -746.001; -772.999
795.105;  353.671; -270.000; -261.999
795.361;   13.823; -490.000; -457.000
795.617;  -54.875; -875.000; -945.000
795.873;  -52.575; -360.000; -407.000
796.129;  -31.225; -368.000; -306.000
796.385;  -26.900; -124.000; -156.000
796.641;   64.625;  412.000;  550.000
796.897;  -92.475; -666.000; -635.000
797.153;   60.975;  453.000;  357.000
797.409; -101.975; -785.000; -868.000
797.665;  -81.025; -625.000; -732.000
797.921;  -72.975; -775.000; -762.000
798.176;  -48.600; -744.000; -747.000
798.432;  -49.400; -824.000; -596.000
798.688;  -52.775;-1174.000;-1078.000
798.943;   76.975; -165.000; -147.000
799.199;   15.250;-1005.000; -959.000
799.455;  244.300;  369.000;  316.000
799.710;  131.050; -813.000; -380.000
799.966;  307.075; -162.000; -160.000
800.221;  479.650; -638.000; -721.000
800.477; 9748.400; -743.000; -710.000
800.732;10286.550; -773.000; -800.000
800.988;  696.300;  205.000;  -19.000
801.243; 1851.550; -454.000; -344.000
801.498; 9425.175; -814.000; -739.000
801.754;  581.700; -289.000; -163.000
802.009;   87.850; -257.000; -335.000
802.264;  -13.250; -967.000;-1033.000
802.520;   32.425;  222.000;   -3.000
802.775;  -35.875; -524.000; -359.000
803.030;   54.725;  395.000;  356.000
803.285; -109.900; -840.000; -903.000
803.540;  -79.475; -686.000; -699.000
803.795;  -41.625; -648.000; -583.000
804.051;  -47.550; -279.000; -346.000
804.306;   12.100;  168.000;  128.000
804.561;  125.200;  451.000;  362.000
804.816;  107.250;  714.000;  861.000
805.071;    0.550; -185.000; -280.000
805.325;  173.325; -257.000; -427.000
805.580;  -90.250; -841.000; -877.000
805.835;  -32.550; -204.000; -297.000
806.090;  -81.875; -760.000; -676.000
806.345;  -16.175; -344.000; -264.000
806.600;  -22.675; -549.000; -632.000
806.854;  -23.600; -408.000; -538.000
807.109;  -17.900; -493.000; -577.000
807.364;    6.950; -407.000; -328.000
807.618;    6.225; -415.000; -381.000
807.873;   34.925; -470.000; -494.000
808.128;   82.050; -257.000; -518.000
808.382;  100.675; -224.000; -332.000
808.637;   73.900; -440.000; -511.000
808.891;  163.925; -257.000; -180.000
809.146;   97.475; -902.000; -794.000
809.400;  242.250; -848.000; -923.000
809.654;  321.375; -779.000; -551.000
809.909;  472.175; -841.000; -927.000
810.163; 5414.550; -813.000; -651.000
810.418;16575.800; -940.000; -861.000
810.672; 1101.025; -685.000; -690.000
810.926;  722.525; -993.000; -973.000
811.180; 1391.475; -439.000; -372.000
811.434;31362.200;  240.000;  135.000
811.689;15106.275; -231.000; -365.000
811.943;  702.525; -936.000; -953.000
812.197;  360.050; -893.000; -671.000
812.451;  150.925; -379.000; -514.000
812.705;  -17.300; -809.000; -619.000
812.959;  -12.075; -263.000; -388.000
813.213;   -4.750; -283.000; -209.000
813.467;   61.775;  470.000;  253.000
813.721; -115.775; -764.000; -792.000
813.975; -108.700; -826.000; -877.000
814.229;   26.900;  430.000;  353.000
814.482;  -64.425; -517.000; -566.000
814.736; -123.275; -766.000; -744.000
814.990; -133.900; -779.000; -872.000
815.244;  -44.875; -228.000; -285.000
815.497;  -81.150; -636.000; -601.000
815.751;  -35.825; -141.000;   82.000
816.005;  -92.675; -470.000; -586.000
816.258;  -78.275; -510.000; -363.000
816.512; -106.575; -693.000; -610.000
816.766;   -1.350;  121.000;  157.000
817.019;   28.475;  148.000;  149.000
817.273; -112.475;-1000.000; -802.000
817.526;  -32.800; -206.000; -173.000
817.779;  -78.225;-1049.000; -960.000
818.033;  -65.300; -693.000; -807.000
818.286; -128.400; -725.000; -792.000
818.540;  -97.125; -403.000; -403.000
818.793;  -80.150; -402.000; -489.000
819.046; -103.575; -582.000; -520.000
819.299;  -37.475; -157.000; -166.000
819.553; -119.300; -552.000; -592.000
819.806; -168.100;-1016.000; -838.000
820.059;  -64.250; -334.000; -354.000
820.312;   10.600;  152.000;  185.000
820.565;  -13.500;  110.000;  -27.000
820.818;  -45.325;  -59.000; -173.000
821.071; -158.275;-1041.000; -957.000
821.324; -124.200; -536.000; -540.000
821.577;  -97.450; -457.000; -483.000
821.830;  -61.400; -270.000; -172.000
822.083; -134.600; -733.000; -288.000
822.336;  -59.700; -261.000; -167.000
822.589; -134.400; -805.000; -688.000
822.842; -135.825; -875.000; -770.000
823.094; -162.350;-1076.000;-1114.000
823.347; -128.175; -925.000; -729.000
823.600;    0.325;  402.000;  187.000
823.853;  -44.225; -311.000; -267.000
824.105;  -68.200; -331.000; -575.000
824.358;  -99.425; -617.000; -716.000
824.611;   22.425;  234.000;   40.000
824.863;  -59.125; -612.000; -591.000
825.116;   34.550;  -33.000;   27.000
825.368;   62.950; -366.000; -372.000
825.621;  139.175; -186.000; -240.000
825.873;   92.125; -704.000; -737.000
826.126;  504.300; -669.000; -641.000
826.378;11166.050; -389.000; -505.000
826.630; 3379.275; -890.000; -898.000
826.883;   44.025; -754.000; -693.000
827.135;   55.925; -279.000; -270.000
827.387; -109.100; -893.000; -839.000
827.639;  -32.750;  -86.000;   32.000
827.892; -130.025; -742.000; -582.000
828.144; -142.100; -848.000; -804.000
828.396;  -43.500;  104.000;  -80.000
828.648;  -94.450; -440.000; -333.000
828.900; -147.800; -702.000; -795.000
829.152; -125.350; -684.000; -683.000
829.404;  -65.950; -215.000; -267.000
829.656;  -12.475;  321.000;  214.000
829.908;  -13.975;  393.000;  229.000
830.160; -163.650;-1064.000;-1047.000
830.412;  -93.000; -481.000; -430.000
830.664; -109.275; -557.000; -665.000
830.916;  -91.100; -268.000; -206.000
831.167; -181.650;-1073.000; -951.000
831.419; -109.300; -623.000; -566.000
831.671; -154.750; -764.000; -809.000
831.923;  -94.950; -311.000; -447.000
832.174;  -74.700; -273.000; -331.000
832.426; -106.300; -493.000; -582.000
832.678; -179.975;-1043.000;-1091.000
832.929; -167.000; -947.000; -935.000
833.181;  -73.125; -575.000; -677.000
833.432;  -62.525;  -59.000; -186.000
833.684;  -15.400;  112.000;  -27.000
833.935; -121.275; -610.000; -566.000
834.187; -113.875; -829.000; -823.000
834.438;  -51.225;  -58.000;  -25.000
834.689;  -74.050; -255.000; -123.000
834.941;  -73.225; -343.000; -244.000
835.192; -116.025; -590.000; -533.000
835.443; -111.950; -419.000; -506.000
835.695;  -21.650;  138.000;  -16.000
835.946;  -91.450; -608.000; -378.000
836.197; -107.100; -599.000; -622.000
836.448;  -95.175; -528.000; -395.000
836.699;  -63.150; -253.000; -341.000
836.950;   -4.450;   72.000;    7.000
837.201; -154.300;-1003.000; -987.000
837.452;  -60.225; -356.000; -170.000
837.703; -120.200; -791.000; -737.000
837.954;  -42.025; -205.000; -365.000
838.205;  -79.025;-1029.000;-1008.000
838.456;  143.075; -196.000; -282.000
838.707;   -2.675; -423.000; -519.000
838.958;  -11.175; -634.000; -647.000
839.209;  233.650;   18.000;   40.000
839.460;  111.475; -439.000; -201.000
839.710;  146.650; -135.000; -297.000
839.961;  385.500;  730.000;  612.000
840.212;  326.475; -382.000; -497.000
840.462; 1051.375; -328.000; -277.000
840.713;17040.250; -571.000; -536.000
840.964; 8248.975;  -62.000; -143.000
841.214;  503.625; -384.000; -624.000
841.465;  533.000; -214.000; -141.000
841.715;  470.450; -417.000; -380.000
841.966;  575.400; -746.000; -685.000
842.216; 7072.700; -330.000; -431.000
842.466;32020.725; -169.000; -313.000
842.717; 2192.875; -964.000; -952.000
842.967;  281.900; -635.000; -641.000
843.217;  247.550;   20.000;   28.000
843.468;   51.650; -104.000; -132.000
843.718;  -36.150; -718.000; -726.000
843.968;  -88.200; -837.000; -765.000
844.218;   -5.450; -315.000; -262.000
844.469;  -50.925; -577.000; -561.000
844.719; -101.375; -537.000; -682.000
844.969;  -89.275; -550.000; -580.000
845.219; -140.575; -814.000; -862.000
845.469;  -75.775; -392.000; -342.000
845.719; -141.400; -792.000; -884.000
845.969;  -18.000;  119.000;  174.000
846.219; -113.200; -738.000; -720.000
846.469;    3.025;  464.000;  432.000
846.718;  -47.550; -115.000;   31.000
846.968; -130.775; -827.000; -827.000
847.218;  -60.775; -224.000; -371.000
847.468;   -7.600; -586.000; -555.000
847.718; -149.900; -827.000; -798.000
847.967; -138.750; -826.000; -915.000
848.217;  -99.125; -449.000; -569.000
848.467;  -77.725; -405.000; -376.000
848.716; -123.275; -708.000; -725.000
848.966;  -14.900; -372.000; -358.000
849.215;  -65.150; -428.000; -419.000
849.465; -105.425; -785.000; -615.000
849.714; -142.250;-1132.000;-1150.000
849.964;  -60.950; -551.000; -613.000
850.213;  -28.625; -393.000; -355.000
850.463;   80.350;  137.000;  340.000
850.712;    7.700; -542.000; -567.000
850.961;   10.375; -739.000; -678.000
851.211;   93.575; -513.000; -504.000
851.460;  161.500; -635.000; -650.000
851.709;  540.675;  -25.000;   18.000
851.958; 9477.500; -912.000; -750.000
852.208;13923.550; -859.000; -879.000
852.457;  546.000; -181.000;  -13.000
852.706;   68.600; -791.000; -823.000
852.955;   14.725; -507.000; -528.000
853.204;  -56.775; -521.000; -461.000
853.453;  -80.200; -418.000; -458.000
853.702; -133.225; -660.000; -750.000
853.951; -107.700; -532.000; -520.000
854.200; -115.375; -613.000; -562.000
854.449; -131.550; -695.000; -661.000
854.698;  -97.725; -340.000; -279.000
854.946;  -68.075; -181.000; -284.000
855.195; -163.600; -843.000; -868.000
855.444;  -95.725; -395.000; -420.000
855.693; -122.550; -345.000; -432.000
855.941; -109.475; -387.000; -516.000
856.190;  -70.150; -256.000; -382.000
856.439; -134.825; -652.000; -703.000
856.687;  -61.575;  -99.000;  -72.000
856.936; -120.175; -621.000; -323.000
857.184; -186.050;-1067.000;-1020.000
857.433; -111.200; -423.000; -512.000
857.681; -158.550; -989.000; -953.000
857.930;  -92.850; -282.000; -433.000
858.178; -168.850; -856.000; -929.000
858.427; -157.950; -802.000; -781.000
858.675; -115.975; -377.000; -544.000
858.923; -114.825; -527.000; -819.000
859.172; -191.050;-1094.000;-1070.000
859.420;  -93.700; -339.000; -239.000
859.668; -140.325; -624.000; -628.000
859.916;  -40.700;  109.000;  115.000
860.164; -121.975; -699.000; -603.000
860.413;  176.775; -878.000; -696.000
860.661;  193.200; -709.000; -577.000
860.909;  -89.175; -339.000; -325.000
861.157;  -86.775; -277.000; -444.000
861.405; -138.400; -534.000; -670.000
861.653;    3.375;  310.000;  310.000
861.901;  114.400; -543.000; -613.000
862.149;   -5.400; -801.000; -824.000
862.396;  -89.950; -297.000; -187.000
862.644;  -98.775; -368.000; -347.000
862.892;  -49.900;   98.000;  138.000
863.140; -121.625; -549.000; -530.000
863.388; -157.275; -815.000; -759.000
863.635; -135.050; -642.000; -601.000
863.883;  -25.125;  231.000;  190.000
864.131;  -94.125; -288.000; -357.000
864.378; -143.700; -675.000; -540.000
864.626; -103.950; -347.000; -415.000
864.873; -127.350; -556.000; -505.000
865.121; -149.900; -714.000; -799.000
865.368;  -45.225; -173.000;   75.000
865.616;  -47.575;  -33.000;  -40.000
865.863;  -66.425; -462.000; -506.000
866.111;  -94.650; -795.000; -824.000
866.358;   46.525; -426.000; -420.000
866.605; 2456.150;  -64.000; -804.000
866.853; 3021.325; -621.000; -537.000
867.100;    0.300; -728.000; -775.000
867.347;  -89.300; -672.000; -611.000
867.594;  -98.100; -740.000; -714.000
867.841;   77.800;   97.000;   17.000
868.089; -152.925; -746.000; -698.000
868.336;  -98.525; -477.000; -420.000
868.583; -150.925; -637.000; -741.000
868.830;  -62.425; -131.000; -170.000
869.077; -159.550; -859.000; -787.000
869.324; -128.875; -502.000; -458.000
869.571; -131.100; -398.000; -430.000
869.818; -128.825; -485.000; -439.000
870.065; -102.775; -439.000; -513.000
870.311; -110.800; -456.000; -542.000
870.558; -103.650; -332.000; -311.000
870.805;  -90.400; -320.000; -384.000
871.052; -132.725; -494.000; -369.000
871.298;  -53.700; -204.000; -131.000
871.545;  -74.225; -151.000; -185.000
871.792; -102.575; -173.000; -222.000
872.038;  -80.525;   43.000; -126.000
872.285; -122.250; -496.000; -387.000
872.532; -109.925; -357.000; -387.000
872.778;    0.525;  556.000;  403.000
873.025;  -93.375; -384.000; -359.000
873.271;    3.475;  501.000;  578.000
873.517;  -45.025; -133.000; -209.000
873.764;  -45.100; -193.000;  -80.000
874.010;  -72.025; -143.000; -230.000
874.257;  -58.825;  123.000;   90.000
874.503; -126.225; -579.000; -479.000
874.749;  -80.075;   31.000;  275.000
874.995;  -80.075;  -80.000;  -20.000
875.242; -129.400; -540.000; -478.000
875.488; -110.200; -414.000; -439.000
875.734;  -65.475; -106.000; -234.000
875.980;  109.375; -872.000;-1032.000
876.226;  318.450; -157.000; -255.000
876.472;   -6.475;  343.000;  237.000
876.718;  -49.775;  184.000;  158.000
876.964;  -50.525;   56.000;   55.000
877.210; -143.175; -547.000; -677.000
877.456; -131.925; -630.000; -557.000
877.702; -180.400; -821.000; -832.000
877.948; -124.950; -377.000; -497.000
878.193;    3.375;  361.000;  255.000
878.439; -106.925; -487.000; -472.000
878.685; -103.275; -272.000; -343.000
878.931; -139.000; -618.000; -676.000
879.176;  -97.900; -201.000; -201.000
879.422; -185.800; -933.000; -820.000
879.668;   41.475;   10.000;   79.000
879.913;  113.325;   53.000;  137.000
880.159;  -75.475; -112.000;  -17.000
880.404;  -71.900; -152.000; -162.000
880.650;  -44.600;   91.000;  141.000
880.895; -170.975; -670.000; -710.000
881.141; -137.225; -454.000; -428.000
881.386; -145.625; -503.000; -658.000
881.631;  -90.825; -311.000; -166.000
881.877;  -38.100;  112.000;  -13.000
882.122; -137.525; -684.000; -600.000
882.367;  -94.575; -136.000; -186.000
882.612;  -82.975;  -80.000; -176.000
882.858; -180.500; -877.000; -823.000
883.103;  -94.550; -297.000; -267.000
883.348; -153.725; -759.000; -852.000
883.593; -151.725; -677.000; -602.000
883.838;  -54.725; -311.000;  -24.000
884.083;   18.600;  353.000;  288.000
884.328; -100.675; -564.000; -545.000
884.573;  -65.700; -196.000; -143.000
884.818;  124.275; -694.000; -531.000
885.063;  174.900; -348.000; -315.000
885.308;  -83.975; -475.000; -398.000
885.553;  -31.600;  245.000;  325.000
885.797; -122.975; -545.000; -615.000
886.042;  -55.750;    8.000;   58.000
886.287;  -97.500; -253.000; -211.000
886.532;  -45.600;   26.000;  204.000
886.776; -116.775; -407.000; -525.000
887.021; -149.425; -621.000; -574.000
887.265; -155.475; -685.000; -689.000
887.510; -138.475; -557.000; -496.000
887.755;  -96.050; -194.000; -164.000
887.999; -143.650; -552.000; -575.000
888.244;  -61.125;  -58.000;  161.000
888.488;   -8.050;  371.000;  393.000
888.732; -131.200; -368.000; -520.000
888.977; -125.300; -622.000; -567.000
889.221; -148.725; -683.000; -659.000
889.465; -137.250; -422.000; -566.000
889.710;  -84.600;  -56.000; -299.000
889.954;  -17.800;  579.000;  467.000
890.198; -147.725; -584.000; -707.000
890.442; -170.800; -716.000; -712.000
890.687; -179.575; -800.000; -753.000
890.931; -100.750; -273.000; -210.000
891.175; -137.925; -502.000; -500.000
891.419;  -81.300; -105.000; -110.000
891.663;  -94.550; -239.000; -112.000
891.907; -167.150; -801.000; -545.000
892.151; -180.325; -920.000; -815.000
892.395; -106.300; -274.000; -387.000
892.638;  -46.225;  408.000;  291.000
892.882; -179.575; -780.000; -867.000
893.126;   21.625;  758.000;  558.000
893.370;  -87.550; -167.000; -168.000
893.614; -157.500; -714.000; -715.000
893.857; -114.175; -183.000; -197.000
894.101; -148.400; -527.000; -631.000
894.345;  -70.350;  300.000;  150.000
894.588;   18.375;  569.000;  380.000
894.832;  -92.425; -178.000;  -84.000
895.075;  -91.500;   15.000;  -92.000
895.319; -127.050; -552.000; -420.000
895.563; -108.275; -413.000; -353.000
895.806; -157.675; -628.000; -741.000
896.049;  -93.775; -576.000; -368.000
896.293;   69.300;  527.000;  405.000
896.536;  -87.975; -465.000; -468.000
896.779;  -70.100; -149.000;   -1.000
897.023; -142.200; -751.000; -714.000
897.266;  -51.100;  325.000;  269.000
897.509; -176.225; -900.000; -901.000
897.752;  -64.725;  149.000;  171.000
897.996; -201.325; -972.000; -864.000
898.239;  -52.275;  168.000;  102.000
898.482; -143.975; -431.000; -453.000
898.725;  -51.150;  101.000;   53.000
898.968; -149.475; -609.000; -744.000
899.211; -114.925; -513.000; -361.000
899.454; -122.350; -633.000; -539.000
899.697;  -76.525;   90.000;  -43.000
899.940; -162.900; -761.000; -757.000
900.182; -123.200; -335.000; -405.000
900.425;  -93.750; -150.000; -298.000
900.668;  -42.500;  491.000;  350.000
900.911;  -99.550; -292.000; -345.000
901.154;  -66.550;  141.000;   -3.000
901.396; -135.875; -407.000; -412.000
901.639; -143.250; -430.000; -496.000
901.882; -188.000; -790.000; -809.000
902.124;  -99.100;  -29.000; -143.000
902.367; -114.650; -315.000; -361.000
902.609; -142.800; -476.000; -453.000
902.852;  -89.925; -108.000; -260.000
903.094; -140.200; -458.000; -337.000
903.337;  -63.525;  -26.000;   53.000
903.579; -122.675; -228.000; -441.000
903.821; -161.000; -597.000; -744.000
904.064;  -68.150;   85.000;  127.000
904.306;  -76.600; -126.000; -166.000
904.548; -122.875; -152.000; -366.000
904.790; -109.950; -195.000; -340.000
905.033; -149.325; -625.000; -577.000
905.275; -123.125; -513.000; -524.000
905.517;   28.175;  468.000;  256.000
905.759;  -80.425; -667.000; -761.000
906.001; -111.075; -322.000; -369.000
906.243;  -68.300; -162.000; -224.000
906.485;   63.325; -265.000; -207.000
906.727;   91.825; -499.000; -542.000
906.969;  -47.325;  -30.000; -135.000
907.211;   69.400; -316.000; -382.000
907.453;  218.800; -188.000; -237.000
907.695;    6.500; -158.000; -385.000
907.936;   37.275;  818.000;  706.000
908.178;  -49.975;   92.000; -135.000
908.420;  -69.925; -111.000; -162.000
908.662; -144.225; -633.000; -682.000
908.903;  -88.025; -208.000; -123.000
909.145;  -70.850; -240.000; -305.000
909.386;    1.800;  315.000;  280.000
909.628;   38.175;  363.000;  397.000
909.870;  -10.050;   29.000;  264.000
910.111;  -92.000; -809.000; -949.000
910.353;   12.400; -123.000; -161.000
910.594;    1.350; -574.000; -606.000
910.835;   78.800; -265.000; -326.000
911.077;  147.200; -503.000; -604.000
911.318;  296.725; -505.000; -471.000
911.559;  445.175; -577.000; -880.000
911.801; 1298.625; -284.000; -280.000
912.042; 9513.550;  -50.000; -159.000
912.283;27915.100;  404.000;  371.000
912.524; 5111.625; -396.000; -457.000
912.765;  524.650; -193.000;   79.000
913.006;  259.575; -307.000; -338.000
913.247;   64.500; -270.000; -290.000
913.488;  -12.025;  -43.000;   30.000
913.729;  -89.650; -373.000; -373.000
913.970;  -72.400;  -96.000; -292.000
914.211;  -67.175; -160.000; -198.000
914.452;  -52.925; -118.000;  -11.000
914.693;    0.850;  510.000;  592.000
914.934;   -1.500;  510.000;  440.000
915.175;  -61.925;   53.000;  -95.000
915.415;  -83.100; -137.000;   27.000
915.656;  -53.350;  -28.000;  192.000
915.897; -100.900; -252.000;  -82.000
916.137;  -77.825;   74.000;   -9.000
916.378; -140.400; -573.000; -517.000
916.619;  -89.350; -159.000;  -63.000
916.859;  -36.975;  303.000;  330.000
917.100;  119.500; 1655.000; 1070.000
917.340;   42.375;  930.000;  728.000
917.581;   42.050;  965.000;  789.000
917.821;  -46.350; -171.000;  143.000
918.061;   -4.975; -199.000;  -72.000
918.302;  -43.225; -152.000; -211.000
918.542;  -27.800;  -22.000;    3.000
918.782;   15.775;  369.000;  377.000
919.023;  119.650;  360.000;  427.000
919.263; 1608.000; 8131.000;  202.000
919.503; 1062.825; -137.000;  -54.000
919.743;  560.075;  390.000;  266.000
919.983;  252.575; -134.000;  -26.000
920.223;   72.225;  135.000;   14.000
920.463;  153.125;  631.000;  554.000
920.703;  151.100;   84.000;   39.000
920.943;  173.375; -110.000;   90.000
921.183;  261.075; -414.000; -405.000
921.423;  544.600;  307.000;  546.000
921.663;  769.500; -174.000; -257.000
921.903; 1602.625;  237.000;  173.000
922.143; 8559.600;  372.000;  389.000
922.383;35071.975;  158.000;  115.000
922.622;14078.375; -120.000;  -15.000
922.862; 1458.900;  796.000;  785.000
923.102;  528.750;  -51.000;   33.000
923.341;  220.125;   59.000;   74.000
923.581;   89.725;  450.000;  360.000
923.821;   35.025;  301.000;  398.000
924.060;   -9.500;  351.000;  193.000
924.300;  -58.900;  -16.000; -128.000
924.539;  -24.800;  584.000;  473.000
924.779;   23.075;  812.000;  597.000
925.018;  -50.375;  247.000;  353.000
925.257;  -18.000;  595.000;  666.000
925.497;  -29.350;  447.000;  412.000
925.736;  -66.475;  -35.000;  102.000
925.975;    7.925;  687.000;  669.000
926.214;   26.825;  907.000;  850.000
926.454;   17.150;  706.000;  757.000
926.693;  -36.775;  419.000;  543.000
926.932;   26.125; 1021.000;  825.000
927.171;   59.375; 1107.000; 1044.000
927.410;   60.800; 1144.000;  967.000
927.649;   18.250;  924.000;  742.000
927.888;   -9.000;  590.000;  564.000
928.127;   -1.275;  680.000;  678.000
928.366;   19.675;  842.000;  826.000
928.605;   37.975;  831.000;  737.000
928.844;  215.025; 1451.000; 1393.000
929.083;  556.550;  770.000;  613.000
929.321;  338.925; 1335.000; 1359.000
929.560;   79.900; 1158.000; 1122.000
929.799;  -17.925;  574.000;  475.000
930.038;   90.450; 1025.000; 1394.000
930.276;  -60.675;  334.000;  397.000
930.515;   -6.725;  827.000;  681.000
930.753;  -26.375;  614.000;  589.000
930.992;  -25.475;  664.000;  717.000
931.230;  -10.775;  847.000;  847.000
931.469;  168.600; 2162.000;  892.000
931.707;   77.275;  840.000;  751.000
931.946;   47.825; 1278.000; 1344.000
932.184;   53.850; 1437.000; 1175.000
932.423;   31.350; 1265.000;  963.000
932.661;   83.325; 1296.000; 1428.000
932.899;   10.050;  987.000;  821.000
933.137;   -0.425;  754.000;  564.000
933.376;  128.000; 1664.000; 1335.000
933.614;  154.125; 1759.000; 1196.000
933.852;   63.250; 1357.000; 1171.000
934.090;  125.450; 1722.000; 1747.000
934.328;  109.200; 1252.000; 1457.000
934.566;   91.100; 1431.000; 1110.000
934.804;  150.100; 1263.000; 1309.000
935.042;  514.675; 1861.000; 1850.000
935.280; 2040.150; 2088.000; 2063.000
935.518; 2175.675; 2113.000; 2007.000
935.756;  444.775; 2481.000; 2316.000
935.994;  182.525; 1808.000; 1751.000
936.231;  337.925; 2890.000; 2950.000
936.469;  196.800; 2367.000; 2378.000
936.707;  161.450; 2220.000; 2167.000
936.945;  218.000; 2825.000; 2882.000
937.182;  193.875; 2679.000; 2741.000
937.420;  296.150; 3602.000; 3031.000
937.657;  384.900; 3365.000; 3478.000
937.895;  346.050; 3331.000; 3488.000
938.133;  302.475; 3540.000; 3528.000
938.370;  339.575; 3896.000; 4191.000
938.607;  387.700; 4488.000; 4205.000
938.845;  538.275; 5587.000; 5549.000
939.082;  478.450; 5387.000; 5177.000
939.320;  521.950; 5799.000; 5728.000
939.557;  617.350; 6549.000; 6491.000
939.794;  700.500; 7285.000; 7097.000
940.031;  887.325; 8421.000; 8368.000
940.269; 1071.675; 9552.000; 9107.000
940.506; 1108.075;10901.000;10507.000

