
Integration time [ms]: 200.000
Averaging Nr. [scans]: 10
Smoothing Nr. [pixels]: 0
Data measured with spectrometer [name]: 2101013U2
Wave   ;Sample   ;Dark     ;Reference
[nm]   ;[counts] ;[counts] ;[counts] 

394.013;  -90.616; -450.257; -315.536
394.305; -132.016; -461.258; -419.536
394.596; -178.826; -676.269; -527.514
394.887; -199.125; -796.268; -654.518
395.178;   12.878;  145.736;   11.476
395.470;  -64.821; -210.263; -356.526
395.761;   98.777;  305.734;  394.479
396.052; -117.438; -545.284; -306.489
396.343; -169.332; -557.276; -454.503
396.634;  -65.235; -200.279; -290.497
396.926; -166.425; -618.268; -565.517
397.217;  -14.831;   11.725;  -17.504
397.508;  -90.430; -366.273; -154.507
397.799; -175.535; -555.279; -571.497
398.090; -281.135; -973.280; -902.495
398.381;   16.655;   11.708;  -11.473
398.672; -212.445; -585.292; -742.473
398.963; -104.434; -348.279; -373.498
399.254;   25.156;   54.709; -209.475
399.545; -286.424;-1017.266; -883.520
399.836;  -88.833; -407.277; -343.501
400.127;  -25.848; -205.295; -209.468
400.418;  -87.430; -423.274; -392.506
400.709;  -72.536; -359.281; -333.493
401.000;  -67.844; -268.291; -309.476
401.290;   92.746;  225.698;  115.545
401.581;  -25.940; -166.286; -228.485
401.872; -133.350; -542.298; -486.462
402.163;  -55.548; -313.296; -252.467
402.454;  -33.644; -123.291; -163.475
402.744; -233.749; -844.297; -813.465
403.035;  -70.746; -226.293;  -86.471
403.326;  -91.245; -366.292; -384.474
403.617;   75.149;  204.701;  165.539
403.907; -156.638; -593.283; -679.490
404.198; -145.858; -545.307; -599.446
404.489; -195.137; -618.283; -588.491
404.779; -177.053; -618.302; -660.456
405.070;  -31.155;  -67.304; -174.451
405.360;  -57.846; -259.293; -238.472
405.651;   46.448;  125.699;   98.542
405.942;   63.460;  209.714;  127.516
406.232; -138.439; -432.285; -413.487
406.523;  213.653;  641.706;  758.530
406.813; -153.440; -579.286; -644.484
407.104;  114.155;  261.708;  144.527
407.394; -229.051; -604.299; -591.462
407.685;   82.861;  336.715;  222.513
407.975; -115.237; -400.283; -382.490
408.265;  -12.843; -134.289; -190.478
408.556; -140.945; -472.291; -459.475
408.846;  143.553;  474.706;  429.530
409.137;  -30.042;   -1.288; -216.480
409.427;  -87.739; -193.285; -271.487
409.717; -178.629; -776.273; -692.508
410.007;   -2.040;    4.715; -170.486
410.298; -130.747; -360.295; -342.469
410.588; -116.739; -495.285; -510.486
410.878; -241.941; -792.287; -873.482
411.168; -123.750; -481.298; -478.463
411.459; -104.338; -295.283; -242.489
411.749; -126.245; -609.292; -507.474
412.039; -215.942; -755.289; -386.480
412.329;   69.067;   40.722;  132.501
412.619;  -56.840;  -62.286; -148.485
412.909;  185.657;  639.711;  594.521
413.199;  -59.535; -130.280; -251.495
413.490;  155.656;  521.710;  352.523
413.780; -268.335;-1013.279; -913.496
414.070;   37.569;  -46.276;  235.497
414.360; -170.634; -729.278; -666.498
414.650; -202.741; -726.288; -688.482
414.940; -116.835; -538.280; -441.496
415.230;   53.258;   50.712;   74.519
415.520;   31.174;  155.730;   66.486
415.809;  -26.536; -305.281; -125.493
416.099;  -74.432; -388.277; -229.501
416.389;  139.470;  435.726;  236.494
416.679;   19.580;   91.738;   85.473
416.969; -126.241; -527.287; -503.483
417.259;   85.666;  341.721;  171.503
417.549;  140.664;  522.718;  318.508
417.838;  -52.425; -205.268; -147.518
418.128;  198.357;  650.710;  492.522
418.418; -164.829; -491.272; -579.509
418.708;   30.470;    9.726;  -48.506
418.997; -139.031; -474.275; -480.505
419.287; -239.930; -733.273; -790.507
419.577;  -65.238; -160.283; -123.489
419.866; -113.033; -588.277; -498.501
420.156;  -53.427; -242.270;  -55.513
420.446;   -0.821; -112.263;  -26.526
420.735; -151.527; -376.271; -446.512
421.025;  618.866; 1830.722;  315.502
421.314;  -67.827; -203.271; -226.512
421.604;   31.375;   89.732;  233.484
421.893; -190.728; -705.271; -602.511
422.183; -146.221; -487.263; -461.526
422.472;  -31.328;  -36.271; -107.511
422.762; -116.023; -416.266; -379.521
423.051; -236.131; -916.276; -916.503
423.341; -116.129; -491.273; -439.507
423.630;  -46.622; -121.265;   15.477
423.919;  -13.031;   58.725;   49.495
424.209;  -36.020;  -31.263;   56.473
424.498;   15.775;   68.732;  161.483
424.787; -178.924; -535.267; -601.518
425.077;    6.177;   34.735;   29.478
425.366; -233.420; -734.262; -744.528
425.655;  227.571;  639.727;  259.493
425.945; -107.108; -313.247; -268.554
426.234;    0.082;  117.741;  300.467
426.523;  -85.917;  -86.259; -350.534
426.812;   72.077;  107.734;  159.480
427.101;  -22.526; -127.269; -323.515
427.390;  -27.426;  -55.270;  -86.514
427.680; -167.215; -624.257; -411.538
427.969;  -64.414; -330.255; -301.540
428.258; -186.416; -385.257; -477.536
428.547;   77.672;  449.728;  397.490
428.836; -154.913; -421.253; -398.543
429.125;  -74.017; -199.259;  -72.534
429.414; -103.511; -330.251; -294.548
429.703;  -63.711; -231.251; -213.548
429.992; -270.610; -938.250; -828.549
430.281; -141.422; -397.264; -331.524
430.570;  -23.711;  -21.252;   32.454
430.859;   84.883;  279.741;  352.466
431.148;  186.892;  636.752;  631.446
431.437;   64.088;  391.748;  367.454
431.725; -162.816; -544.257; -481.536
432.014; -252.612; -845.253; -756.545
432.303;  -61.101; -149.239; -105.569
432.592; -110.021; -460.263; -178.525
432.881; -226.908; -601.248; -437.554
433.169;  -55.314; -343.255;  -61.540
433.458;  132.203;  445.765;  540.424
433.747; -128.219; -397.261; -289.529
434.036; -129.903; -275.242; -280.564
434.324; -135.409; -395.249; -379.551
434.613;   17.396;   40.757;  159.437
434.902;   92.198;  333.760;  439.433
435.190;   21.299;   75.761;  295.431
435.479;  -59.905;  -52.245;   83.441
435.767; -157.605; -411.244; -427.561
436.056; -131.703; -340.242; -294.563
436.345; -142.801; -372.240; -223.568
436.633;   60.190;   60.750;  383.450
436.922;   65.799;  208.760;  414.432
437.210;  -93.998; -194.236;    1.426
437.499; -216.898; -583.235; -432.576
437.787; -112.498; -339.236;  -10.574
438.075;  -16.700;   56.761;  162.430
438.364;  -17.400;  -44.238;  250.429
438.652; -128.990; -286.226; -138.592
438.941;  -33.493;    3.770;  269.415
439.229; -201.712; -665.252; -466.545
439.517;  -97.897; -160.234;  -85.577
439.806; -181.588; -501.225; -290.595
440.094;   98.004;  377.766;  650.421
440.382; -190.596; -653.233; -302.580
440.670;  -92.698; -361.235; -285.576
440.959; -167.587; -347.223; -170.599
441.247;  -65.792; -151.229; -109.587
441.535;  -83.697; -266.235;   31.423
441.823; -150.796; -497.234; -305.578
442.111;   61.408;  173.771;  327.412
442.400; -169.505; -628.245; -335.559
442.688;  -59.496; -111.234; -620.579
442.976; -250.078; -786.213; -450.617
443.264; -128.088; -324.224; -364.597
443.552;  -59.690; -258.226;   51.408
443.840;  111.703;  602.765;  876.423
444.128;   77.204;  265.767;  269.420
444.416; -175.492; -694.228; -312.588
444.704; -126.984; -465.219;  -92.605
444.992;  -43.690;   -0.226;  240.407
445.280; -112.293; -517.230;  -94.585
445.568; -213.278; -694.212; -396.618
445.856;  -60.986; -174.221;  357.398
446.143;  -77.684;  -54.220;   -7.604
446.431;   29.409;  -25.228;  625.411
446.719;  139.518;  489.783;  675.391
447.007;  136.606;  481.769;  705.416
447.295;  120.213;  597.777;  871.402
447.583; -113.093; -464.229;  -34.587
447.870; -152.586; -434.221; -202.601
448.158;  -41.893; -104.230;  129.415
448.446; -247.184; -800.219; -338.604
448.733;  -56.088;   13.776;  269.403
449.021;  -55.278;   60.788;  341.382
449.309;  -19.977; -296.210;  208.379
449.596;   15.617;  128.783;   59.392
449.884; -184.286; -571.222; -325.600
450.172; -236.391; -756.227; -406.590
450.459;  137.620;  645.786;  780.387
450.747; -160.783; -411.218; -147.608
451.034;  163.209;  493.772;  889.411
451.322; -160.880; -413.214; -170.614
451.609;   52.712;  292.777;  508.403
451.897; -178.471; -550.203; -183.634
452.184; -210.187; -622.223; -400.598
452.472;  -31.775;   97.792;  269.375
452.759;  154.016;  512.781;  864.395
453.047; -161.678; -407.212; -125.617
453.334; -175.183; -732.219; -216.606
453.621; -192.580; -438.214; -161.615
453.909;    4.729;   13.796;  384.368
454.196; -103.367; -299.199; -123.641
454.483;   32.631;  317.798;  540.364
454.771;  -72.674; -215.208;  196.374
455.058;  -66.174; -316.207;  102.374
455.345;   12.638;   71.807;  344.347
455.632;  -41.074; -128.207;  235.373
455.919;  -27.865;  -82.196;  182.354
456.207; -245.267; -774.198; -450.642
456.494; -158.568; -475.200;  -66.639
456.781; -132.670; -399.202; -198.635
457.068;  -84.273; -253.206;  -29.628
457.355; -192.673; -698.206; -401.629
457.642; -174.672; -552.205; -290.630
457.929; -215.763; -778.194; -417.651
458.216; -199.078; -575.212; -354.617
458.503;  -53.562; -173.193;  -19.652
458.790; -276.475; -864.208; -630.625
459.077;  -38.569;  -77.202;  110.364
459.364; -146.463; -350.195; -210.649
459.651;  -17.873;  -46.206;  220.372
459.938; -274.775; -864.209; -665.623
460.225;   -0.069;  132.799;  276.363
460.512; -260.165; -836.197; -688.645
460.799;  -18.283;  -32.218;  320.392
461.086; -144.168; -370.200; -251.640
461.372; -147.667; -509.198; -279.642
461.659;  -12.365; -165.196;  108.354
461.946; -117.062; -445.193;  -54.651
462.233;  200.332;  842.800;  888.361
462.519; -230.168; -814.201; -464.639
462.806; -244.265; -768.197; -497.645
463.093; -134.660; -445.191;  -66.656
463.380; -300.356; -920.186; -824.664
463.666;  -42.365; -259.197;  -18.646
463.953; -117.164; -406.195; -243.648
464.239;  -87.164; -173.195;  -77.648
464.526;  102.037;  413.806;  743.350
464.813; -161.159; -565.190; -304.658
465.099;  104.338;  606.807;  607.348
465.386;  216.638;  903.807;  921.348
465.672; -212.065; -694.197; -522.645
465.959; -195.058; -598.188; -520.662
466.245; -131.962; -468.193; -359.652
466.532;  -41.864; -109.195;   63.352
466.818; -115.656; -357.186; -216.664
467.104; -161.153; -488.182; -415.672
467.391; -155.259; -628.189; -459.658
467.677;  -51.956; -289.186;    9.335
467.964; -206.858; -682.189; -471.660
468.250;  -85.756; -331.186; -160.665
468.536;  -46.359;   90.811;  180.341
468.822; -213.455; -821.184; -574.668
469.109;  121.655;  351.827;  471.311
469.395;  178.139;  729.808;  787.346
469.681;  -10.559;   46.811;  156.341
469.967; -193.558; -699.188; -382.660
470.254; -121.657; -494.188; -306.662
470.540; -162.865; -601.196; -476.646
470.826; -172.552; -488.181; -397.675
471.112;  -20.454;  288.816;  113.331
471.398;  -71.454; -253.183;  -58.670
471.684; -157.049; -626.177; -447.680
471.970; -312.051; -918.180; -981.675
472.256; -146.261; -521.192; -441.654
472.542; -146.344; -499.171; -434.691
472.828; -216.653; -743.182; -607.672
473.114; -128.340; -380.166; -283.700
473.400; -163.047; -504.175; -293.684
473.686; -137.539; -452.166; -400.701
473.972;  -49.746; -230.174; -131.687
474.258; -252.645; -925.173; -843.689
474.544;  -33.550; -183.178;   -2.679
474.830;  -25.547;  -65.175;   45.316
475.116;  -34.659; -123.190; -196.658
475.401; -168.551; -558.180; -467.676
475.687; -207.151; -725.180; -718.676
475.973; -223.852; -673.181; -770.673
476.259;  196.153;  736.825;  764.315
476.544; -151.948; -539.176; -437.682
476.830; -138.344; -398.172; -322.690
477.116; -138.348; -430.177; -336.682
477.401;  147.349;  346.820;  358.324
477.687; -120.747; -289.175; -405.684
477.973;   14.448;   21.819;   28.326
478.258; -169.737; -448.163; -348.706
478.544;   -8.855;   21.815;   61.334
478.829; -248.443; -818.171; -738.692
479.115; -157.244; -749.172; -651.690
479.401; -119.646; -444.174; -449.686
479.686;  -54.151; -253.180;  -74.676
479.972; -253.849; -886.178; -776.680
480.257;  -65.040; -258.166;  -65.700
480.542; -172.943; -614.170; -469.693
480.828;  327.153; 1288.824; 1392.317
481.113; -173.748; -464.176; -426.683
481.399; -117.435; -236.161; -202.711
481.684; -191.740; -620.166; -462.700
481.969;  -12.434; -158.159;  -73.713
482.255; -152.542; -439.169; -285.695
482.540; -166.549; -569.178; -441.680
482.825; -152.157; -395.187; -404.663
483.110;  -55.542;  -85.169; -105.696
483.396; -242.231; -840.157; -652.718
483.681;  158.054;  543.826;  730.313
483.966; -230.534; -696.160; -700.712
484.251; -119.246; -404.174; -310.687
484.536; -158.039; -356.165; -378.703
484.822;  -63.546; -205.173; -218.687
485.107; -189.628; -599.152; -502.726
485.392;  148.062;  662.836;  541.296
485.677;    8.859;  354.832;  163.302
485.962;   69.868;  160.843;  270.283
486.247;  -26.936;  -14.162;   -8.707
486.532;  -81.239; -178.166; -325.701
486.817;   75.065;  381.839;  431.291
487.102; -181.229; -453.154; -514.722
487.387; -206.831; -637.156; -652.718
487.672;  -45.338; -154.164;  -38.705
487.957; -104.235; -394.160; -286.711
488.241;  -58.726; -290.150; -314.729
488.526; -103.028; -280.152; -148.726
488.811; -261.049; -881.177; -818.680
489.096; -213.829; -666.154; -702.723
489.381;    2.172;    3.847;  162.275
489.666; -130.635; -428.161; -510.710
489.950;  166.971;  558.846;  627.277
490.235; -179.127; -480.151; -458.728
490.520; -203.635; -756.161; -723.710
490.804; -260.231; -827.156; -736.719
491.089; -132.225; -469.149; -299.732
491.374;  -57.338; -132.164;  -75.704
491.658; -237.124; -817.147; -717.735
491.943; -204.727; -657.152; -609.727
492.227;  -55.930; -178.155;  -38.721
492.512; -119.332; -294.157; -341.717
492.797; -210.925; -713.149; -716.731
493.081; -229.923; -588.147; -598.735
493.366; -232.535; -751.161; -635.711
493.650;  188.882;  831.859;  917.254
493.935; -165.624; -648.147; -447.734
494.219; -216.120; -778.142; -687.743
494.503; -198.926; -585.150; -487.730
494.788;  -19.433;   46.842;   74.285
495.072;   83.374;  184.850;  434.271
495.356; -123.024; -463.148; -343.733
495.641; -243.423; -812.146; -736.736
495.925; -285.131; -976.156; -903.719
496.209; -141.025; -599.149; -451.732
496.494; -209.619; -763.142; -544.744
496.778;  -91.229; -364.154; -360.722
497.062; -224.731; -819.156; -627.719
497.346; -196.935; -869.160; -640.711
497.631;  109.176;  580.852;  560.266
497.915;   -8.722;  -64.145;  175.261
498.199; -126.831; -341.157; -277.718
498.483; -154.228; -562.152; -508.725
498.767;   64.274;  301.850;  300.271
499.051;  -52.425; -126.149; -100.732
499.335; -221.325; -693.149; -739.731
499.619; -163.809; -381.129; -423.767
499.903;  -82.130; -272.155;  -65.721
500.187; -177.729; -588.153; -316.724
500.471; -263.927; -796.152; -595.727
500.755;  -51.235;   62.839;  -96.710
501.039; -107.930; -270.155; -357.721
501.323;   35.682;  -21.141;  264.254
501.607; -169.837; -447.163; -503.706
501.891; -183.831; -607.156; -512.718
502.174; -227.621; -726.144; -585.741
502.458;    3.773;   89.849;  370.273
502.742;  -87.916; -180.138; -191.751
503.026; -114.924; -412.147; -254.734
503.310; -121.434; -437.159; -375.713
503.593; -125.924; -464.147; -325.735
503.877;  -79.912; -232.133; -156.760
504.161;  -56.229;    2.847;  -50.724
504.444; -256.832; -841.158; -710.716
504.728; -158.638; -487.164; -522.704
505.012;  -85.326; -257.150;  -76.729
505.295; -116.835; -417.161; -212.711
505.579;  -72.431; -256.156; -496.719
505.862; -127.722; -555.145; -333.738
506.146; -235.433; -681.159; -758.714
506.429;  123.567;  568.841;  461.286
506.713; -225.227; -732.151; -667.728
506.996;   44.670;   90.846;  295.278
507.280; -188.538; -633.165; -474.703
507.563;  -98.830; -469.155; -261.721
507.847; -157.129; -423.153; -112.724
508.130; -176.735; -665.161; -456.711
508.413; -206.440; -758.167; -577.700
508.697;  -31.040; -151.167;   12.300
508.980; -147.429; -422.153; -312.724
509.263; -164.930; -466.155; -450.720
509.547;  -57.726; -124.150;   82.271
509.830;   -9.035; -172.160;  140.289
510.113;  -33.131;  128.844;  298.281
510.396; -145.028; -530.152; -300.725
510.680; -269.622; -818.145; -812.738
510.963;   36.871;  184.846;  180.277
511.246; -182.026; -493.150; -357.730
511.529; -102.821; -482.145;  -83.739
511.812;  -72.112; -250.134;   10.241
512.095; -179.427; -740.151; -396.728
512.378; -112.923; -317.147; -245.736
512.661; -216.815; -703.137; -623.753
512.944; -235.419; -750.142; -637.744
513.227;  -91.715; -170.137; -171.752
513.510; -187.621; -479.144; -671.741
513.793; -169.618; -485.140; -435.747
514.076;  -61.707;  -43.127;  -39.771
514.359;  -64.225; -294.149; -135.732
514.642; -200.919; -442.142; -567.744
514.925;  140.682;  581.860;  561.253
515.208; -168.613; -498.134; -443.758
515.491;  -95.311; -276.133; -182.761
515.773; -182.020; -410.143; -337.742
516.056;   51.586;  249.864;  409.246
516.339; -259.114; -754.136; -652.755
516.622; -182.726; -518.150; -488.730
516.904;  208.680;  882.857;  975.257
517.187; -215.815; -730.138; -523.752
517.470; -194.720; -568.143; -510.743
517.752; -183.414; -624.136; -470.756
518.035; -229.917; -708.139; -725.749
518.318; -268.814; -799.136; -744.755
518.600; -144.011; -300.132; -325.762
518.883;   61.081;  310.858;   88.256
519.165; -176.116; -585.138; -426.751
519.448;  -49.011;  -61.132;  -19.762
519.730; -226.106; -573.126; -415.773
520.013;  163.588;  588.867;  664.240
520.295;  -69.512;  -94.134;  -15.759
520.578; -109.810; -335.131; -305.764
520.860;  -61.811; -254.132;   56.238
521.143; -244.814; -763.135; -584.756
521.425; -119.505; -251.125; -279.775
521.707; -176.807; -622.127; -380.771
521.990;  -53.407; -199.127;  167.229
522.272;  -26.018; -116.140;   -4.748
522.554; -110.120; -237.143; -157.742
522.836;  -36.512;  -24.134;   99.241
523.119; -151.624; -496.148; -189.734
523.401; -131.909; -448.130; -314.766
523.683; -229.715; -865.137; -693.753
523.965;   34.884;  408.862;  260.248
524.247;  -32.003;   54.878;  170.220
524.529; -180.512; -451.134; -367.759
524.812;  -20.509;   -3.130;  191.234
525.094; -234.416; -773.138; -631.751
525.376;  -75.604; -143.124;   78.223
525.658; -158.414; -441.136; -339.754
525.940; -296.710; -805.131; -671.764
526.222;  -72.314; -188.136;  -88.755
526.504;  -92.810; -190.131;   32.237
526.786; -276.312; -960.133; -647.760
527.068;  -94.903; -124.123;  -67.778
527.349; -258.115; -865.137; -774.754
527.631;  -71.211; -137.132;   22.238
527.913; -214.807; -664.127; -450.771
528.195; -258.705; -761.125; -639.774
528.477;  -43.713;  -93.134;  -30.758
528.759; -220.809; -648.130; -522.766
529.040; -185.103; -569.123; -293.778
529.322;  -89.305; -235.125;  -10.774
529.604;  -38.609;  -47.130;   93.233
529.886; -169.306; -546.126; -302.773
530.167;   22.290;  232.870;  192.235
530.449;  -17.223;    1.853;   63.265
530.731; -176.403; -572.122; -459.779
531.012; -194.101; -513.120; -216.784
531.294;  -62.997; -118.116;  -43.792
531.575;   61.395;  290.875;  538.225
531.857; -178.313; -548.135; -266.757
532.138;  -90.818; -113.141;   40.254
532.420;   32.887;  294.865;  403.244
532.701; -279.112; -722.133; -751.760
532.983;   56.389;  232.867;  182.239
533.264;  -50.106; -243.126;  175.228
533.546; -163.114; -491.136; -508.755
533.827;  -58.212;  173.867;   -1.759
534.109; -138.713; -352.135;  -80.757
534.390; -240.111; -725.132; -582.762
534.671;  -79.514; -270.135;  -82.756
534.953; -272.303; -751.123; -611.779
535.234; -153.798; -426.117; -255.789
535.515; -270.700; -891.119; -735.785
535.796; -137.607; -431.128; -193.770
536.078; -323.504;-1050.124; -904.777
536.359;  -61.203;  -22.123;    3.221
536.640; -170.505; -480.125; -197.774
536.921;   45.692;  225.871;  143.232
537.202;  -70.116;  -87.138;  -16.751
537.483;   73.590;  251.869;  377.236
537.764;  -53.710;   17.870;   98.235
538.045; -153.213; -543.134; -371.758
538.326; -210.108; -596.129; -447.768
538.607; -222.706; -686.127; -476.771
538.888;  -61.102;   98.879;    5.218
539.169; -203.402; -704.122; -535.781
539.450;   -4.708;  236.871;   16.233
539.731; -111.401; -361.121; -182.783
540.012;  -30.501;  199.880;  412.216
540.293;  -37.804;   82.876;  158.224
540.574; -286.695; -895.113; -717.796
540.855;   64.299;  435.879;  377.218
541.136;  -22.102;   47.878;  139.220
541.416; -119.109; -161.130; -220.766
541.697; -173.710; -274.131; -170.763
541.978; -139.113; -270.135; -315.757
542.259; -130.607; -211.127; -236.771
542.539; -111.898; -191.116; -186.790
542.820;   64.795;  461.875;  480.225
543.101;  -87.622;  -52.145;  -77.738
543.381; -289.207; -638.127; -591.771
543.662;  -40.907;  159.873; -254.771
543.942; -316.507; -751.127; -830.770
544.223;  -10.902;  193.878;  161.219
544.504; -119.404; -275.124; -182.777
544.784; -207.606; -592.126; -408.773
545.065; -162.997;  104.884; -254.791
545.345;  -41.700;  227.881;   14.215
545.626;  -47.095;  -14.113; -108.796
545.906;  -10.310;   77.869;   98.235
546.186; -117.406;   92.874;  -95.773
546.467;  -59.504;   99.877;  -95.778
546.747;   31.402;  264.884;  327.210
547.027;  -17.604;   91.876;  111.223
547.308; -191.407; -376.127; -530.770
547.588;   40.792;  299.871;  371.232
547.868;   53.691;  458.870;  588.235
548.149;  127.803;  609.885;  593.207
548.429; -129.207; -347.127; -299.771
548.709; -225.401; -645.120; -461.784
548.989;  -25.199;   84.882;   88.213
549.269; -108.011;   10.868;  139.239
549.550;  -52.003;  215.877;  117.222
549.830; -238.893; -758.111; -556.799
550.110; -203.793; -468.110; -320.801
550.390;  -96.503; -128.122;  -56.779
550.670; -312.196; -868.114; -783.795
550.950; -179.101; -509.121; -471.782
551.230;   90.798;  549.879;  460.218
551.510; -141.102; -381.121; -326.782
551.790;  -78.792; -173.109; -127.803
552.070;  267.896;  940.877; 1181.223
552.350; -160.600; -492.119; -377.786
552.630;   -4.402;   -2.121;   77.219
552.909;    2.403;  181.884;   73.209
553.189;  -44.211;  -49.132;   33.237
553.469; -236.000; -703.119; -514.786
553.749; -167.406; -469.127; -357.772
554.029;  -37.198;   33.883;  -24.790
554.308;  -85.196; -154.115;  -37.794
554.588; -127.107; -196.128; -204.770
554.868; -115.901; -366.121;  -47.782
555.147;  -91.296; -114.115;  -46.793
555.427; -148.197; -260.116; -250.792
555.707; -120.497; -284.115; -200.793
555.986; -235.893; -719.111; -538.800
556.266;  -46.298;   23.884;   72.210
556.546; -258.502; -888.121; -675.782
556.825; -262.996; -657.114; -556.794
557.105;  -73.307; -125.128;   17.230
557.384;  -12.997;  122.884;  187.209
557.664; -216.697; -717.116; -508.792
557.943; -193.801; -557.121; -411.782
558.222; -139.699; -345.118; -344.788
558.502;  -84.996; -116.115;  -76.793
558.781;   49.603;  194.885;  499.208
559.061; -122.199; -232.118; -227.788
559.340;   31.202;  302.883;  353.211
559.619;  -43.498;   93.884;  148.210
559.899; -158.598; -239.117; -266.789
560.178; -250.496; -778.115; -593.793
560.457; -230.198; -623.117; -562.790
560.736; -194.193; -472.111; -482.800
561.015; -191.308; -500.128; -502.769
561.295;  -62.390;  180.893;  215.193
561.574;  -42.097;  119.885;  116.207
561.853;    1.108;  274.891;  303.197
562.132;  -56.796;  -45.114;  182.206
562.411;   93.598;  396.879;  553.219
562.690; -198.397; -592.115; -458.792
562.969;  105.806;  472.888;  630.203
563.248;  730.198; 2966.878; 2487.219
563.527; -163.793; -290.111; -408.800
563.806; -222.707; -650.127; -521.771
564.085; -119.589; -297.105; -206.810
564.364; -195.298; -594.117; -405.790
564.643; -152.802; -276.121; -223.781
564.922;   38.408;  221.890;  397.198
565.201; -234.592; -640.109; -700.803
565.479; -106.997; -297.115; -219.792
565.758; -289.807; -810.128; -712.770
566.037;  -81.392; -155.109; -100.803
566.316;  -95.997; -286.116;  -28.791
566.595;  -61.297;  -17.115;  -12.793
566.873;   78.107; -166.111;  -79.801
567.152; -187.594; -490.113; -590.797
567.431;  -68.498; -113.116;    6.210
567.709; -130.890; -344.107; -212.807
567.988; -304.896; -810.114; -769.794
568.266;  -94.397; -160.115;  -68.793
568.545; -190.984; -644.100; -514.819
568.824;   21.903;  160.885;  356.208
569.102; -139.496; -351.114; -235.794
569.381; -198.597; -492.116; -407.792
569.659; -224.095; -553.113; -553.796
569.938; -237.502; -743.122; -465.780
570.216; -135.891; -225.109; -225.804
570.494; -221.695; -632.114; -572.795
570.773;    0.398;  202.879;  114.218
571.051; -117.403; -373.123; -357.778
571.330;  -94.395; -221.113; -174.796
571.608;  -87.782; -181.098; -173.823
571.886; -272.494; -671.111; -581.799
572.164; -227.601; -739.121; -621.782
572.443; -190.488; -562.105; -512.811
572.721; -167.898; -399.117; -289.790
572.999; -127.599; -280.117; -168.788
573.277;   96.411;  379.894;  620.191
573.555;  -60.289;   94.894;   37.190
573.834; -108.199;  -86.117; -114.788
574.112;  130.210;  880.893;  811.193
574.390;  -63.093; -143.111;  -96.801
574.668; -103.394;  -91.112;  -61.797
574.946;  -93.789; -165.106; -187.810
575.224;  -60.992;   71.891;  -16.803
575.502;  -94.397; -200.116; -204.791
575.780; -279.694; -767.112; -829.798
576.058;  226.807; 1589.889; 1004.200
576.336; -130.392; -210.110; -129.801
576.614; -183.394; -511.112; -340.798
576.891; -271.396; -711.115; -823.794
577.169; -117.291; -158.108; -285.805
577.447;   20.210;  169.893;  202.193
577.725;  158.006;  629.888;  854.201
578.003; -146.994;  -71.112; -371.798
578.280;  -89.387; -208.104; -242.812
578.558; -186.596; -450.115; -422.793
578.836;  -91.595; -210.114; -145.795
579.114; -255.094; -630.112; -670.797
579.391;  -15.898;   -6.117;  -18.789
579.669; -279.496; -595.114; -704.794
579.947; -118.990; -326.107; -127.806
580.224; -235.690; -692.107; -524.806
580.502;  -35.390;  127.893;   76.193
580.779;  -69.498;  -42.117;   75.210
581.057; -191.791; -584.109; -470.804
581.334; -264.586; -726.102; -695.815
581.612;   51.411;   54.895;  511.190
581.889;  -83.985;  -83.101; -129.818
582.167; -111.583; -298.099; -190.821
582.444; -262.685; -845.102; -814.817
582.721;  157.515;  657.899;  715.183
582.999;  -92.284; -326.100; -167.821
583.276; -258.303; -812.123; -713.779
583.553; -145.086; -364.102; -294.816
583.831; -223.788; -607.104; -631.812
584.108;    2.009;  349.892;  174.195
584.385;  -88.586; -122.102;  -98.815
584.662; -264.493; -651.111; -828.801
584.940;    5.807;  204.889;  204.199
585.217; -111.195;  -73.113; -303.796
585.494;  -24.292;   71.890;  118.198
585.771; -175.191; -250.109; -354.804
586.048;  -59.895; -196.113;  -76.796
586.325; -260.493; -721.110; -773.801
586.602;    6.713;  230.896;  213.188
586.879; -222.584; -499.100; -580.820
587.156; -106.888; -156.105; -331.810
587.433; -263.285; -701.102; -667.817
587.710;  -19.094;  152.888;  234.202
587.987; -176.488; -264.105; -236.811
588.264;   72.206;  315.888;  387.202
588.541;  -93.387;  -61.104;   26.187
588.818;  -30.691;   72.892;  171.196
589.095; -100.988; -163.104; -174.812
589.371; -166.191; -459.109; -414.804
589.648; -206.090; -581.107; -437.807
589.925; -201.495; -517.114; -621.795
590.202; -282.594; -741.112; -607.798
590.478;  -47.088; -166.105;  -73.811
590.755; -117.390; -241.108; -132.806
591.032; -206.992; -741.110; -699.802
591.308; -286.279; -732.094; -790.831
591.585; -185.992; -573.110; -560.802
591.862; -355.685;-1056.102; -950.817
592.138; -146.291; -475.108; -474.805
592.415; -210.887; -486.104; -495.813
592.691;  102.113;  460.896;  518.188
592.968; -151.782; -208.098; -123.824
593.244; -229.398; -695.116; -595.790
593.521; -113.085; -105.102;  -42.817
593.797; -296.303; -810.122; -720.780
594.074; -241.281; -611.096; -588.826
594.350;  191.720;  828.905;  729.172
594.626; -152.393; -303.111; -283.801
594.903; -205.385; -643.101; -645.817
595.179;   27.713;  243.896;  418.187
595.455; -107.590; -136.107; -150.807
595.731;  -95.687;  -19.103;  -38.814
596.008; -162.693; -464.111; -434.800
596.284; -112.684; -187.100; -242.820
596.560; -157.978; -501.093; -493.833
596.836; -108.188; -173.105;  -70.810
597.112; -163.191; -582.108; -437.805
597.388;  -91.481;  -49.097;  -48.826
597.665;   87.205;  437.887;  530.203
597.941; -234.175; -572.089; -658.839
598.217;  -97.592; -323.110; -293.802
598.493; -114.591;   61.891; -204.804
598.769;  -91.184; -175.100;  -50.819
599.045; -215.590; -490.108; -562.806
599.321; -136.084; -193.100; -261.820
599.597; -163.491; -355.109; -476.804
599.872;   74.113;  409.896;  429.187
600.148;  -71.581;  -61.097; -172.826
600.424;   45.810;   91.893;  202.193
600.700; -138.390; -170.107; -280.807
600.976; -162.282; -442.097; -464.825
601.252; -143.292; -226.109; -272.803
601.527; -293.387; -833.104; -840.813
601.803; -161.188; -453.105; -404.812
602.079;  -83.384; -124.100; -118.819
602.354; -211.577; -620.092; -531.835
602.630; -112.295; -140.113; -482.796
602.906; -277.185; -910.101; -863.818
603.181; -222.300; -627.119; -534.786
603.457;  -88.181;   98.903; -278.826
603.733; -229.801; -605.120; -626.783
604.008;  -92.689; -245.106; -164.810
604.284; -174.285; -636.101; -580.817
604.559;  -91.894;   -3.112;  -42.799
604.835; -145.388; -163.105; -225.810
605.110; -259.883; -732.099; -892.821
605.385;   74.922;  224.907;  267.167
605.661; -254.580; -625.095; -729.829
605.936; -237.090; -664.108; -737.806
606.211;  -74.986;  -17.103; -170.815
606.487; -112.296; -329.114; -376.794
606.762; -266.400; -791.119; -745.786
607.037; -161.488; -501.105; -433.810
607.313; -244.980; -589.096; -574.828
607.588;  -99.589; -375.106; -137.810
607.863;  -47.585;  -28.101; -143.818
608.138;  154.108;  513.890;  516.198
608.413; -213.483; -576.099; -592.822
608.688; -138.091; -203.108; -267.805
608.964; -152.289; -509.106; -218.809
609.239;  -96.689; -107.105; -212.810
609.514;   21.812;  281.895;  240.188
609.789; -252.787; -187.104; -716.812
610.064; -223.280; -435.096; -609.827
610.339; -265.291; -855.109; -799.804
610.614; -117.384; -131.100; -315.820
610.889;   11.712;  215.895;  107.188
611.163; -191.288; -407.104; -591.812
611.438; -106.596;   81.886; -167.794
611.713; -194.885; -467.101; -499.817
611.988;  -96.785; -144.101; -328.818
612.263; -289.386; -771.102; -717.815
612.538;  103.705;  385.887;  251.204
612.812; -279.384; -832.100; -911.820
613.087; -120.882; -358.098; -338.823
613.362; -210.990; -497.107; -557.807
613.637;   30.814;  261.897;  138.186
613.911; -122.177; -256.092; -345.835
614.186; -134.090; -249.107; -292.807
614.460; -280.368; -842.081; -758.854
614.735;  -46.273;  -55.087;  -17.843
615.010;  -70.674;   43.912;  -82.841
615.284;   54.809;  360.892;  246.195
615.559; -277.977; -792.092; -955.835
615.833;  -64.483;  -76.099;  -87.822
616.108; -131.676; -225.090; -390.837
616.382;   79.927;  274.913;  402.156
616.656; -115.276; -241.090; -232.837
616.931; -255.383; -785.099; -700.822
617.205; -306.287; -973.104; -979.813
617.480;  -54.005;  -91.125;    6.225
617.754; -165.105; -396.125; -128.774
618.028; -142.108; -369.129; -382.768
618.302;    3.709;   73.892;  -25.805
618.577; -192.586; -371.103; -518.815
618.851; -185.092; -399.109; -600.803
619.125; -169.512; -335.134; -378.759
619.399; -119.587; -244.104; -374.813
619.673; -131.597; -330.115; -515.792
619.947; -171.995; -333.114; -448.795
620.222; -110.093; -198.110; -204.801
620.496;  -67.301;  -47.121;  -96.782
620.770;  -73.302; -187.122;  -93.781
621.044;   37.112;  323.895;  346.190
621.318; -210.801; -653.120; -614.783
621.592; -145.601; -430.121; -409.783
621.866; -185.994; -476.112; -572.799
622.140; -122.597; -207.116; -356.791
622.413;   16.907;  138.889;  112.200
622.687; -211.285; -746.101; -492.817
622.961;  -32.491; -130.108; -143.805
623.235; -230.493; -633.111; -661.800
623.509; -272.688; -816.105; -848.811
623.783;  -51.990;  -12.107;   48.193
624.056; -131.801; -254.120; -280.783
624.330;   22.606;   63.888;   -3.797
624.604;  -79.498; -271.116; -355.790
624.877;  -14.492;  180.890;   26.198
625.151; -108.396; -249.114; -238.794
625.425;  -93.487; -150.103; -283.814
625.698; -126.100; -367.119; -374.785
625.972; -271.392; -799.110; -765.802
626.245;  132.502;  685.884;  484.210
626.519; -121.401; -426.120; -340.784
626.792;  -98.890; -192.107; -380.807
627.066; -217.103; -485.122; -662.779
627.339; -242.492; -736.110; -663.802
627.613;   60.999;  351.880;  148.216
627.886;   44.508;  187.891; -612.803
628.160;  -98.101;  312.880; -161.783
628.433; -218.705; -695.125; -703.775
628.706; -210.801; -517.120; -615.784
628.979;   28.496;  296.876;  117.223
629.253; -319.100; -785.119; -833.786
629.526;  -99.006; -334.126; -253.772
629.799; -224.603; -641.123; -479.778
630.072; -188.308; -497.128; -516.769
630.346; -365.198;-1115.116;-1080.790
630.619; -190.690; -467.107; -545.808
630.892;   97.607;  709.889;  593.200
631.165;  177.213;  790.896;  679.187
631.438; -351.894;-1092.112;-1055.798
631.711;   43.197;  453.877;  257.221
631.984; -210.098; -523.117; -624.789
632.257; -169.798; -636.117; -681.789
632.530; -142.600; -412.119; -433.785
632.803;   45.904; -109.115;    7.207
633.076; -155.104; -360.123; -422.777
633.349;   26.493;  173.872;  121.231
633.622; -111.000; -187.119; -240.785
633.895; -270.201; -903.120; -823.783
634.167; -185.706; -496.126; -525.773
634.440;   -5.897;  -19.116; -137.792
634.713;  -38.200;  -22.119; -120.786
634.986;   94.392;  593.871;  453.233
635.258; -196.896; -507.115; -597.793
635.531;  182.401;  742.882; -343.788
635.804; -155.198; -303.117; -318.789
636.077; -235.197; -830.116; -852.791
636.349; -224.697; -586.115; -474.793
636.622;  518.494; 1695.874; 1392.228
636.894; -172.001; -474.120; -909.784
637.167; -277.207; -836.127; -789.771
637.439;  -62.907; -278.128; -213.770
637.712; -128.206; -312.126; -293.772
637.984; -236.997; -635.116; -707.791
638.257;  126.896;  515.877;  488.222
638.529; -327.105; -881.125; -924.776
638.802; -149.008; -508.128; -449.769
639.074; -328.402; -927.122; -952.781
639.346; -316.913; -942.135; -930.757
639.619;  -27.019;  -79.142; -319.744
639.891; -108.103;  -83.122; -168.779
640.163; -237.703; -689.122; -756.780
640.435;   25.698;  273.878;  103.220
640.708;  -54.702;  -72.122; -132.780
640.980; -153.702; -366.122; -362.781
641.252;  -30.502;  -25.121;  -71.781
641.524;  136.998;  580.879;  573.219
641.796; -313.902;-1094.121; -907.782
642.068; -109.101; -191.121; -300.782
642.340; -177.201; -486.121; -566.783
642.613;   44.899;  294.880;  323.217
642.885; -278.701; -787.120; -878.783
643.157; -224.701; -810.120; -658.784
643.428;   36.699;  170.880;  218.216
643.700; -119.200; -498.120; -425.784
643.972;  -82.700;  -16.119; -133.785
644.244; -172.000; -474.119; -559.785
644.516; -120.400; -250.119; -114.786
644.788;  156.000;  662.881;  548.214
645.060;  -55.200;  -12.119; -124.786
645.332; -196.799; -525.118; -535.787
645.603;   77.701;  479.882;  342.213
645.875; -136.899; -334.118; -369.787
646.147;  324.901; 1487.882; 1242.212
646.418; -309.699; -931.117; -918.788
646.690; -242.698; -714.117; -715.789
646.962; -128.798; -413.117; -451.789
647.233;   11.902;   15.883;   11.211
647.505; -185.098; -595.117; -475.790
647.776;   52.702;  328.884;  229.210
648.048;  -82.398; -248.116; -418.790
648.320; -243.497; -752.116; -679.791
648.591; -305.397;-1055.116; -958.791
648.862; -182.097; -505.116; -577.792
649.134;   22.303;  115.885;  198.208
649.405; -221.497; -661.115; -618.792
649.677; -198.097; -475.115; -598.793
649.948; -127.496; -181.115; -296.793
650.219;  -19.496;  -37.115; -147.793
650.491; -165.296; -431.114; -520.794
650.762; -238.896; -705.114; -731.794
651.033; -177.296; -437.114; -424.795
651.304; -265.795; -743.114; -728.795
651.576; -231.795; -680.114; -645.795
651.847;  -83.695; -250.113; -140.796
652.118;  -25.795;  -32.113; -189.796
652.389; -199.995; -639.113; -722.796
652.660;  -37.695; -147.113;  -89.797
652.931; -287.894; -897.112; -871.797
653.202; -163.294; -382.112; -541.798
653.473; -174.794; -633.112; -533.798
653.744; -207.994; -595.112; -590.798
654.015; -132.494; -356.112; -303.799
654.286; -222.694; -642.111; -663.799
654.557; -207.693; -586.111; -521.799
654.828; -347.793;-1114.111;-1088.800
655.099; -149.193; -404.111; -291.800
655.370; -195.193; -427.111; -543.801
655.641; -233.193; -656.110; -714.801
655.911; -204.893; -618.110; -638.801
656.182;   98.408;  437.890;  387.198
656.453;  180.908;  830.890;  746.198
656.724; -121.592; -466.110; -426.802
656.994; -200.092; -553.109; -568.803
657.265; -254.692; -862.109; -873.803
657.536; -165.391; -500.109; -377.804
657.806; -192.991; -561.109; -593.804
658.077; -285.491; -866.109; -950.804
658.347; -165.991; -523.108; -598.805
658.618; -238.091; -646.108; -694.805
658.888;  -57.491;  -41.108;  112.195
659.159; -164.790; -432.108; -548.806
659.429; -109.690; -292.108; -349.806
659.700; -165.790; -435.107; -390.807
659.970; -142.390; -370.107; -359.807
660.241; -288.590; -754.107; -921.807
660.511;  -45.090; -147.107; -174.808
660.781; -237.189; -793.106; -748.808
661.052; -101.489; -222.106; -381.808
661.322;  -51.789;   21.894;   -9.809
661.592;   43.211;  257.894;  148.191
661.862; -141.789; -369.106; -382.810
662.133; -175.989; -551.105; -502.810
662.403; -264.588; -770.105; -676.810
662.673;  -68.288; -256.105; -213.811
662.943; -227.588; -612.105; -551.811
663.213;  -38.188;  -85.105;  -81.811
663.483; -188.088; -593.104; -568.812
663.753;  -55.487; -194.104; -152.812
664.023;  -22.087;   68.896;  -32.813
664.293; -102.587; -319.104; -126.813
664.563; -217.587; -694.104; -648.813
664.833; -231.587; -743.103; -608.814
665.103; -282.287; -730.103; -793.814
665.373; -259.386; -766.103; -806.814
665.643; -325.386; -863.103; -918.815
665.913; -201.786; -534.103; -714.815
666.182; -257.386; -685.102; -719.816
666.452;  -72.886;  -22.102;  -89.816
666.722; -272.686; -724.102; -784.816
666.992; -295.685; -948.102; -921.817
667.261; -305.385; -824.102; -808.817
667.531;  -23.585;  134.899;   45.183
667.801; -137.785; -440.101; -412.818
668.070;  165.615;  714.899;  697.182
668.340; -289.484; -883.101; -840.819
668.609;  130.916;  588.900;  301.181
668.879; -199.484; -490.100; -558.819
669.149; -168.784; -539.100; -516.820
669.418; -245.684; -698.100; -726.820
669.688; -160.484; -482.100; -666.820
669.957; -204.583; -423.099; -546.821
670.226; -114.883; -268.099; -331.821
670.496; -207.383; -431.099; -635.822
670.765; -152.283; -418.099; -501.822
671.034; -282.383; -872.099; -828.822
671.304;   25.217;   55.902; -111.823
671.573; -365.882;-1085.098; -957.823
671.842; -122.282; -380.098; -294.823
672.112; -225.482; -692.098; -586.824
672.381;  -84.082; -239.098; -214.824
672.650; -311.382;-1005.097;-1021.825
672.919; -209.082; -631.097; -507.825
673.188; -254.781; -681.097; -878.825
673.457; -336.281;-1101.097;-1143.826
673.726; -205.781; -579.096; -646.826
673.995; -171.781; -533.096; -479.826
674.265; -141.781; -263.096; -333.827
674.534;  -76.680; -183.096; -235.827
674.802; -202.180; -618.096; -703.828
675.071; -268.080; -886.095; -801.828
675.340; -190.680; -464.095; -339.828
675.609;    7.820;  103.905;   82.171
675.878; -277.280; -949.095; -893.829
676.147;  -40.979;  -26.095;   -8.829
676.416;  -97.779; -210.094; -294.830
676.685;  298.521; 1000.906; -622.830
676.953; -192.779; -603.094; -452.831
677.222; -105.579; -193.094; -273.831
677.491;  -75.679;  -24.094; -127.831
677.759;  -35.678;   11.907;  172.168
678.028; -120.978; -279.093; -222.832
678.297;   -9.578;   71.907;  197.168
678.565; -298.378; -898.093; -944.833
678.834; -110.378; -311.093; -268.833
679.102; -146.378; -411.092; -391.834
679.371; -294.277; -898.092; -727.834
679.639; -270.377; -797.092; -786.834
679.908; -229.777; -794.092; -724.835
680.176; -304.577; -895.091; -941.835
680.445; -126.077; -346.091; -352.835
680.713;  -33.676;  -58.091;  -23.836
680.982; -217.676; -523.091; -525.836
681.250; -219.276; -578.091; -507.837
681.518; -193.376; -534.090; -751.837
681.787; -109.876; -204.090; -167.837
682.055; -163.476; -490.090; -422.838
682.323; -310.275; -993.090; -992.838
682.591;  -85.175; -216.090; -538.838
682.859;  -60.875;    9.911;  -35.839
683.128;   26.425;  232.911;  497.161
683.396; -347.075;-1102.089;-1122.840
683.664;  -70.675; -241.089;   21.160
683.932;   -7.874;  144.911;  -76.840
684.200; -161.274; -576.088; -320.841
684.468;  -54.774;  -73.088; -124.841
684.736;  -63.974; -214.088; -175.841
685.004; -330.274;-1024.088; -982.842
685.272; -239.273; -880.088; -774.842
685.540; -192.273; -499.087; -557.843
685.808; -227.773; -651.087; -682.843
686.076; -314.173; -894.087; -969.843
686.343; -223.073; -601.087; -815.844
686.611;  -67.573; -195.087; -224.844
686.879; -169.672; -530.086; -553.844
687.147; -185.672; -483.086; -480.845
687.414;  -78.872;  -12.086; -169.845
687.682; -234.272; -658.086; -757.846
687.950;   47.028;  259.915;  263.154
688.217; -258.172; -792.085; -760.846
688.485; -190.071; -632.085; -636.847
688.753;  -66.671;  -11.085; -102.847
689.020; -272.271; -820.085; -851.847
689.288; -279.171; -853.084; -787.848
689.555; -114.171; -195.084; -148.848
689.823; -116.571; -241.084; -345.849
690.090; -174.570; -546.084; -651.849
690.358; -304.970; -877.084; -897.849
690.625;   14.930;  120.917;   45.150
690.892; -181.070; -403.083; -369.850
691.160;  -20.070;   72.917;  -35.850
691.427;  -12.769;  141.917;  130.149
691.694; -307.269; -855.083; -929.851
691.962; -342.769;-1177.082;-1060.852
692.229;   12.631;  127.918;   56.148
692.496;  -60.669;  130.918;  -49.852
692.763;  -78.469; -164.082; -201.853
693.031; -244.068; -739.082; -716.853
693.298; -198.868; -509.081; -368.853
693.565;  -83.268; -155.081; -163.854
693.832;  -18.268;   -5.081;   -9.854
694.099; -236.168; -643.081; -642.855
694.366; -287.768; -882.081; -896.855
694.633; -291.567; -920.080; -633.855
694.900; 1322.133; 4367.920; -114.856
695.167; -102.367; -214.080; -380.856
695.434; -207.867; -646.080; -623.856
695.701;   -1.767;  121.921;  -61.857
695.968; -139.967; -365.079; -361.857
696.234; -192.666; -415.079; -646.858
696.501; -176.666; -776.079; -614.858
696.768; -224.166; -554.079; -617.858
697.035; -208.266; -632.078; -667.859
697.302; -192.766; -448.078; -552.859
697.568; -137.565; -458.078; -497.859
697.835; -227.965; -683.078; -624.860
698.102; -157.365; -498.078; -407.860
698.368;   37.135;  384.923;  396.139
698.635; -158.265;  -47.077; -424.861
698.901; -126.765; -240.077; -348.861
699.168; -151.564; -534.077; -456.862
699.435;  -63.464;  -72.077;  -13.862
699.701; -328.164; -868.076; -764.862
699.968; -132.364;  144.924; -441.863
700.234; -259.064; -783.076; -822.863
700.500; -168.564; -448.076; -539.864
700.767;  -10.863;   -1.075;   26.136
701.033; -326.463;-1015.075; -963.864
701.299; -143.463; -450.075; -483.865
701.566;  194.637;  950.925;  763.135
701.832;   15.037;  -31.075;  -76.865
702.098; -337.862;-1054.074;-1034.866
702.365; -345.062;-1098.074;-1030.866
702.631; -370.862;-1038.074;-1063.867
702.897; -241.162; -765.074; -676.867
703.163;   21.038;  348.926;  254.133
703.429; -105.362; -256.073; -273.868
703.695; -248.561; -796.073; -792.868
703.961;  -55.761; -214.073; -210.868
704.227; -238.761; -630.073; -725.869
704.493;  163.339;  613.927;  510.131
704.759; -211.261; -565.072; -540.870
705.025;  -56.261; -203.072; -194.870
705.291; -203.060; -666.072; -562.870
705.557;  220.240;  719.928;   34.129
705.823; -260.260; -742.072; -694.871
706.089; -126.360; -307.071; -326.871
706.355; -115.860; -315.071; -244.872
706.620; -259.460; -776.071; -729.872
706.886; -142.859; -309.071; -362.873
707.152; -300.659; -818.070; -973.873
707.418; -385.959;-1153.070;-1186.873
707.683; -173.859; -550.070; -530.874
707.949; -211.459; -547.070; -578.874
708.215;  -56.658; -129.070; -207.874
708.480; -154.358; -520.069; -420.875
708.746;   -0.258;   68.931;   28.125
709.011; -202.758; -578.069; -612.876
709.277; -163.258; -538.069; -543.876
709.542; -141.658; -428.069; -387.876
709.808;  -47.557;  -59.068;   89.123
710.073; -231.057; -577.068; -695.877
710.339; -113.057; -242.068; -228.877
710.604; -296.357; -780.068; -845.878
710.869; -135.857; -277.068; -366.878
711.135; -216.657; -715.067; -628.879
711.400; -188.656; -507.067; -608.879
711.665; -196.256; -404.067; -479.879
711.931; -233.256; -661.067; -677.880
712.196; -308.756; -876.067; -954.880
712.461; -183.556; -402.066; -490.880
712.726; -250.356; -727.066; -771.881
712.991; -232.755; -647.066; -664.881
713.256; -136.755; -350.066; -332.882
713.521; -145.155; -417.065; -381.882
713.787; -191.255; -454.065; -472.882
714.052; -119.455; -214.065; -400.883
714.317; -371.554;-1045.065; -981.883
714.581; -128.154; -374.065; -268.883
714.846; -285.554; -822.064; -888.884
715.111;   74.346;  261.936;  257.116
715.376; -112.854;  -86.064; -223.885
715.641; -115.954; -365.064; -367.885
715.906; -182.853;   15.936; -551.885
716.171;    9.647;  221.937;  209.114
716.436;  -23.253;  -78.063; -104.886
716.700; -227.153; -818.063; -692.886
716.965; -266.453; -794.063; -807.887
717.230; -156.653; -339.063; -392.887
717.494;  -59.852;  -40.062; -134.888
717.759; -209.152; -784.062; -640.888
718.024;   12.248;  269.938;  250.112
718.288;  172.948;  685.938;  395.111
718.553; -312.152; -803.062; -977.889
718.817; -276.551; -883.061; -899.889
719.082;  -74.051; -115.061; -125.890
719.346; -283.551;-1000.061; -947.890
719.611;  -84.751; -300.061; -255.891
719.875; -172.851; -568.060; -537.891
720.140; -183.051; -453.060; -603.891
720.404;  -70.850; -136.060; -249.892
720.668; -147.950; -475.060; -411.892
720.933;   49.550;  146.940;  137.108
721.197; -228.950; -667.059; -600.893
721.461; -269.150; -851.059; -826.893
721.725;  -20.450;  -21.059; -250.894
721.990; -105.049; -284.059; -204.894
722.254;  -40.549;  -26.059; -108.894
722.518; -140.649; -286.058; -442.895
722.782; -219.549; -743.058; -594.895
723.046;  136.651;  614.942;  570.105
723.310;   41.051;  374.942;  210.104
723.574; -197.648; -654.058; -614.896
723.838; -235.548; -576.057; -642.897
724.102;  -57.348; -226.057; -239.897
724.366; -327.848;-1032.057; -978.897
724.630; -194.948; -749.057; -571.898
724.894; -218.047; -722.057; -514.898
725.158;  -31.347;   38.944; -295.898
725.422; -132.047; -394.056; -327.899
725.685; -164.547; -441.056; -349.899
725.949; -215.147; -566.056; -519.900
726.213; -244.647; -732.056; -811.900
726.477; -325.746;-1020.055; -933.900
726.740;  -83.546; -274.055; -104.901
727.004; -169.746; -384.055; -510.901
727.268; -161.346; -442.055; -400.901
727.531; -300.046; -961.055; -775.902
727.795; -227.246; -713.054; -673.902
728.059; -198.645; -552.054; -557.903
728.322; -221.545; -841.054; -669.903
728.586; -209.745; -692.054; -701.903
728.849; -232.145; -695.053; -756.904
729.112; -304.545; -812.053; -912.904
729.376; -286.045; -959.053; -905.904
729.639; -181.644; -536.053; -536.905
729.903; -252.744; -733.053; -699.905
730.166; -140.044; -437.052; -399.906
730.429; -105.144; -317.052; -468.906
730.693; -198.344; -355.052; -894.906
730.956;  182.757;  810.948;  651.093
731.219;  -83.343; -310.052; -103.907
731.482; -285.043;-1003.051; -894.907
731.745; -301.443; -794.051; -935.908
732.009;   10.857;  -30.051;   50.092
732.272; -236.643; -904.051; -771.909
732.535; -121.742; -300.051; -310.909
732.798; -376.942;-1083.050;-1166.909
733.061; -184.542; -430.050; -456.910
733.324;  -31.142;   31.950; -180.910
733.587;   99.958;  290.950;  365.090
733.850; -209.742; -973.049;-1050.911
734.113;  -11.641;   33.951;   32.089
734.376; -123.941; -328.049; -447.912
734.639;  289.159; 1188.951; 1011.088
734.901;  -92.241; -180.049; -402.912
735.164; -265.641; -883.048; -837.913
735.427;  -93.741; -166.048; -355.913
735.690;  -70.140; -205.048; -234.913
735.952; -315.040; -923.048; -925.914
736.215; -323.840;-1113.048;-1009.914
736.478; -275.040; -771.047; -774.915
736.740;  -88.540;   33.953;  129.085
737.003; -232.239; -658.047; -672.915
737.266;  227.561;  -94.047;   46.084
737.528; -253.839; -682.047; -660.916
737.791; -133.539; -316.046; -327.916
738.053;   73.161;  465.954;  649.083
738.316;  -63.039; -162.046; -136.917
738.578; -280.038; -770.046; -736.918
738.841; -128.238; -382.046; -446.918
739.103; -267.638; -875.045; -777.918
739.365;  -25.638;   79.955;  -69.919
739.628; -271.438; -884.045; -805.919
739.890; -185.438; -758.045; -710.919
740.152; -249.737; -692.044; -754.920
740.414; -161.237; -408.044; -359.920
740.677; -250.237; -785.044; -634.921
740.939; -213.237; -587.044; -487.921
741.201; -171.537; -432.044; -572.921
741.463; -196.236; -689.043; -745.922
741.725;  -76.636;  -21.043; -199.922
741.987;   23.164;  220.957;  116.078
742.249; -282.936; -751.043; -859.923
742.511; -223.836; -703.043; -794.923
742.773; -194.836; -546.042; -546.924
743.035;  141.865;  796.958;  533.076
743.297; -328.535; -963.042;-1013.924
743.559;  -78.435; -278.042; -262.925
743.821; -245.035; -735.042; -744.925
744.083; -103.735;  -44.041; -149.925
744.345; -285.335; -869.041; -892.926
744.607;    2.066;   75.959;  122.074
744.868; -243.234; -490.041; -554.927
745.130; -309.134; -994.041;-1008.927
745.392;  -18.634;   -1.040;  -44.927
745.653; -127.934; -411.040; -378.928
745.915;  208.466;  896.960;  631.072
746.177;  -60.333;   35.960;  -43.928
746.438; -197.233; -428.040; -543.929
746.700; -279.633; -947.039; -988.929
746.961; -240.933; -659.039; -740.930
747.223;  -53.533; -190.039;  -74.930
747.484; -158.232; -391.039; -471.930
747.746;  -42.232;  -23.038; -106.931
748.007; -248.132; -647.038; -689.931
748.269; -135.932; -468.038; -440.931
748.530; -226.632; -852.038; -638.932
748.791; -154.332; -354.038; -420.932
749.053;   24.469;  286.963;  163.067
749.314; -107.331; -236.037; -169.933
749.575; -316.731; -945.037; -905.933
749.836;  -52.531; -217.037;   86.066
750.098;  -54.731;  -60.037;  -21.934
750.359;   86.769;  414.964;  555.066
750.620;  -72.930; -121.036; -220.935
750.881; -196.330; -585.036; -513.935
751.142; -307.930; -950.036; -938.936
751.403; -186.230; -789.036; -705.936
751.664; -345.830;-1034.035; -999.936
751.925;  -75.630; -175.035; -262.937
752.186; -134.129; -298.035; -278.937
752.447; -157.229; -590.035; -445.937
752.708; -209.429; -532.035; -648.938
752.969; -204.629; -566.034; -576.938
753.230; -264.229; -777.034; -672.939
753.491; -240.828; -650.034; -631.939
753.751;   -6.028;  109.966;   19.061
754.012;   77.572;  258.967;  181.060
754.273; -119.628; -174.033;  -71.940
754.534; -178.128; -487.033; -580.940
754.794; -312.228; -926.033; -911.941
755.055;  246.573; 1051.967;  881.059
755.316; -216.827; -700.032; -566.942
755.576; -174.727; -606.032; -576.942
755.837; -218.027; -527.032; -695.942
756.097; -181.627; -530.032; -564.943
756.358; -261.627; -725.032; -770.943
756.618; -232.326; -705.031; -641.943
756.879; -138.926; -254.031; -349.944
757.139; -347.226;-1098.031;-1116.944
757.400; -206.926; -538.031; -553.945
757.660; -122.826; -365.031; -401.945
757.920; -104.125; -266.030; -228.945
758.181; -104.525; -468.030; -351.946
758.441; -289.425; -870.030; -809.946
758.701; -108.425; -308.030; -215.946
758.961; -134.825; -220.030; -278.947
759.222; -179.725; -574.029; -502.947
759.482; -257.224; -683.029; -723.948
759.742; -229.324; -706.029; -547.948
760.002;  -65.024;  -83.029; -143.948
760.262;  -32.824;   50.972;  182.051
760.522; -200.024; -498.028; -574.949
760.782; -222.924; -738.028; -612.949
761.042; -180.723; -618.028; -573.950
761.302;  -42.223;   55.972;  -18.950
761.562;  -96.623; -164.027; -154.951
761.822; -211.923; -710.027; -551.951
762.082; -381.123;-1104.027;-1093.951
762.342; -129.223; -328.027; -403.952
762.601; -219.122; -567.027; -506.952
762.861; -104.922; -281.026; -207.952
763.121; -143.422; -406.026; -411.953
763.381; -174.022; -499.026; -485.953
763.640;  -79.122; -139.026; -307.954
763.900;  -97.121; -242.026; -203.954
764.160; -141.421; -458.025; -491.954
764.419; -229.621; -726.025; -782.955
764.679; -288.321; -795.025; -726.955
764.939;  -77.621; -124.025; -210.955
765.198; -246.021; -608.025; -563.956
765.458; -220.220; -710.024; -612.956
765.717; -214.720; -454.024; -590.957
765.976; -136.720; -428.024; -411.957
766.236; -203.120; -475.024; -610.957
766.495;  -14.820;  260.977;   73.042
766.755; -362.920;-1090.023; -987.958
767.014; -186.519; -594.023; -665.958
767.273; -161.319; -373.023; -397.959
767.533; -125.719; -228.023; -307.959
767.792;  -73.719; -151.022; -188.960
768.051; -110.119; -228.022; -276.960
768.310; -213.219; -546.022; -650.960
768.569;  -48.518; -161.022;    4.039
768.828; -100.618; -285.022; -363.961
769.088; -341.818;-1050.021; -942.961
769.347; -243.618; -755.021; -599.962
769.606; -281.818; -876.021; -857.962
769.865; -334.817;-1016.021;-1033.963
770.124; -113.617; -411.021; -336.963
770.383; -306.817; -778.020; -910.963
770.641; -177.517; -398.020; -400.964
770.900; -324.217; -953.020; -846.964
771.159; -292.417; -851.020; -951.964
771.418; -332.716; -917.020; -779.965
771.677;  -78.416; -224.019; -293.965
771.936; -275.316; -794.019; -865.966
772.194; -287.016; -465.019; -437.966
772.453; -154.016; -213.019; -391.966
772.712;   82.284;  416.982;  329.033
772.970;  -20.915;   32.982;   63.033
773.229;    7.285;  -22.018;  102.033
773.488; -303.215; -814.018; -770.968
773.746;   87.285;  296.982;  335.032
774.005;  -21.315;  190.983;  -22.969
774.263;  -13.714;  243.983;  177.031
774.522; -233.714; -422.017; -548.969
774.780; -177.714; -484.017; -417.970
775.039; -217.314; -551.017; -531.970
775.297;  -41.514; -135.016; -351.970
775.555; -236.014; -489.016; -612.971
775.814; -241.513; -618.016; -570.971
776.072; -254.613; -749.016; -740.971
776.330; -188.013; -630.016; -520.972
776.589; -242.213; -703.015; -721.972
776.847; -262.513; -645.015; -624.973
777.105; -342.613;-1016.015;-1032.973
777.363; -178.112; -459.015; -454.973
777.621; -271.912; -660.015; -717.974
777.879;  -18.412;  -42.014;   32.026
778.138; -207.812; -554.014; -717.974
778.396; -197.912; -585.014; -526.975
778.654; -353.712;-1015.014; -970.975
778.912;  -89.211; -269.014; -371.976
779.170; -272.511; -880.013; -803.976
779.427; -293.311; -922.013; -897.976
779.685; -317.011; -880.013; -832.977
779.943; -222.411; -654.013; -593.977
780.201; -305.610; -964.012; -883.978
780.459; -207.510; -651.012; -610.978
780.717; -167.010; -440.012; -390.978
780.974; -154.310; -449.012; -490.979
781.232; -176.310; -358.012; -338.979
781.490; -200.310; -551.011; -472.979
781.747; -194.709; -555.011; -476.980
782.005;   86.291;  462.989;  254.020
782.263; -315.909; -542.011;-1004.981
782.520; -123.809; -326.011; -501.981
782.778; -352.809;-1013.010;-1051.981
783.035; -333.809; -962.010; -938.982
783.293;  -79.408; -248.010; -206.982
783.550;  -68.908; -134.010; -198.982
783.808; -254.108; -764.010; -776.983
784.065; -305.108; -745.009; -874.983
784.322;  -81.908;   25.991;  -86.984
784.580; -265.708; -915.009; -771.984
784.837; -198.807; -392.009; -466.984
785.094; -271.907; -783.009; -762.985
785.352; -170.207; -304.008; -404.985
785.609; -296.607; -934.008; -839.985
785.866; -155.507; -345.008; -401.986
786.123; -247.206; -639.008; -583.986
786.380; -244.206; -665.008; -604.987
786.637; -106.006; -225.007; -380.987
786.895; -229.206; -456.007; -543.987
787.152;  -55.606; -135.007; -267.988
787.409;  -64.206; -123.007; -225.988
787.666; -154.705; -299.006; -378.988
787.923; -214.005; -616.006; -695.989
788.179; -188.405; -551.006; -584.989
788.436; -220.105; -585.006; -585.990
788.693;  -84.405;  -92.006;  -87.990
788.950;  -77.005; -125.005; -112.990
789.207; -159.204; -381.005; -372.991
789.464; -108.104; -161.005; -301.991
789.720;  -20.804;  150.995;  110.009
789.977; -347.204;-1003.005; -671.992
790.234;  -24.304;   44.996;  -66.992
790.490; -312.903; -884.004;-1031.993
790.747;    6.497;  -85.004;   22.007
791.004; -180.503; -426.004; -348.993
791.260; -169.303; -430.004; -560.994
791.517; -261.603; -843.003; -788.994
791.773; -130.103; -379.003; -342.994
792.030; -254.002; -596.003; -660.995
792.286; -218.002; -686.003; -636.995
792.543;  -95.802;  -74.002; -159.995
792.799; -166.702; -584.002; -382.996
793.055; -419.402;-1179.002;-1210.996
793.312; -257.602; -827.002; -816.997
793.568; -266.801; -746.002; -599.997
793.824;  -76.701; -226.001; -284.997
794.081; -151.001; -447.001; -508.998
794.337; -190.901; -664.001; -561.998
794.593; -114.801; -319.001; -271.999
794.849; -254.601; -746.001; -772.999
795.105; -132.300; -270.000; -261.999
795.361; -134.900; -490.000; -457.000
795.617; -308.600; -875.000; -945.000
795.873; -174.100; -360.000; -407.000
796.129; -179.900; -368.000; -306.000
796.385;  -55.200; -124.000; -156.000
796.641;   50.600;  412.000;  550.000
796.897; -211.900; -666.000; -635.000
797.153;  100.100;  453.000;  357.000
797.409; -296.300; -785.000; -868.000
797.665; -235.900; -625.000; -732.000
797.921; -238.700; -775.000; -762.000
798.176; -269.700; -744.000; -747.000
798.432; -269.800; -824.000; -596.000
798.688; -373.400;-1174.000;-1078.000
798.943;  -97.900; -165.000; -147.000
799.199; -306.300;-1005.000; -959.000
799.455;  122.400;  369.000;  316.000
799.710; -301.800; -813.000; -380.000
799.966; -117.800; -162.000; -160.000
800.221; -233.700; -638.000; -721.000
800.477; -261.300; -743.000; -710.000
800.732; -312.000; -773.000; -800.000
800.988;    4.800;  205.000;  -19.000
801.243; -152.600; -454.000; -344.000
801.498; -275.500; -814.000; -739.000
801.754; -130.200; -289.000; -163.000
802.009; -111.700; -257.000; -335.000
802.264; -345.100; -967.000;-1033.000
802.520;  -45.900;  222.000;   -3.000
802.775; -187.700; -524.000; -359.000
803.030;   52.000;  395.000;  356.000
803.285; -319.800; -840.000; -903.000
803.540; -225.700; -686.000; -699.000
803.795; -205.800; -648.000; -583.000
804.051; -117.200; -279.000; -346.000
804.306;   -8.100;  168.000;  128.000
804.561;   75.100;  451.000;  362.000
804.816;  205.300;  714.000;  861.000
805.071; -120.300; -185.000; -280.000
805.325; -143.500; -257.000; -427.000
805.580; -304.800; -841.000; -877.000
805.835; -122.500; -204.000; -297.000
806.090; -260.000; -760.000; -676.000
806.345; -159.800; -344.000; -264.000
806.600; -215.600; -549.000; -632.000
806.854; -199.300; -408.000; -538.000
807.109; -139.800; -493.000; -577.000
807.364; -153.800; -407.000; -328.000
807.618; -198.600; -415.000; -381.000
807.873; -243.400; -470.000; -494.000
808.128;  -98.400; -257.000; -518.000
808.382; -149.800; -224.000; -332.000
808.637; -173.600; -440.000; -511.000
808.891;  -93.100; -257.000; -180.000
809.146; -309.700; -902.000; -794.000
809.400; -309.600; -848.000; -923.000
809.654; -219.500; -779.000; -551.000
809.909; -323.000; -841.000; -927.000
810.163; -246.200; -813.000; -651.000
810.418; -341.100; -940.000; -861.000
810.672; -228.700; -685.000; -690.000
810.926; -344.400; -993.000; -973.000
811.180; -156.600; -439.000; -372.000
811.434;   33.400;  240.000;  135.000
811.689; -127.800; -231.000; -365.000
811.943; -339.800; -936.000; -953.000
812.197; -233.000; -893.000; -671.000
812.451; -210.700; -379.000; -514.000
812.705; -302.300; -809.000; -619.000
812.959; -218.800; -263.000; -388.000
813.213; -102.200; -283.000; -209.000
813.467;   98.400;  470.000;  253.000
813.721; -259.700; -764.000; -792.000
813.975; -284.800; -826.000; -877.000
814.229;   23.100;  430.000;  353.000
814.482; -237.700; -517.000; -566.000
814.736; -268.400; -766.000; -744.000
814.990; -304.600; -779.000; -872.000
815.244; -110.100; -228.000; -285.000
815.497; -223.900; -636.000; -601.000
815.751;  -55.700; -141.000;   82.000
816.005; -196.800; -470.000; -586.000
816.258; -171.000; -510.000; -363.000
816.512; -247.800; -693.000; -610.000
816.766;  -23.600;  121.000;  157.000
817.019;    9.700;  148.000;  149.000
817.273; -301.300;-1000.000; -802.000
817.526; -119.800; -206.000; -173.000
817.779; -337.700;-1049.000; -960.000
818.033; -286.500; -693.000; -807.000
818.286; -257.200; -725.000; -792.000
818.540; -210.000; -403.000; -403.000
818.793; -167.800; -402.000; -489.000
819.046; -235.300; -582.000; -520.000
819.299;  -51.000; -157.000; -166.000
819.553; -205.200; -552.000; -592.000
819.806; -322.200;-1016.000; -838.000
820.059; -108.200; -334.000; -354.000
820.312;   -7.900;  152.000;  185.000
820.565;  -41.100;  110.000;  -27.000
820.818;  -49.100;  -59.000; -173.000
821.071; -325.500;-1041.000; -957.000
821.324; -216.800; -536.000; -540.000
821.577; -217.100; -457.000; -483.000
821.830; -121.200; -270.000; -172.000
822.083; -276.500; -733.000; -288.000
822.336; -110.900; -261.000; -167.000
822.589; -266.700; -805.000; -688.000
822.842; -270.400; -875.000; -770.000
823.094; -382.400;-1076.000;-1114.000
823.347; -272.500; -925.000; -729.000
823.600;   16.600;  402.000;  187.000
823.853; -128.300; -311.000; -267.000
824.105; -200.300; -331.000; -575.000
824.358; -269.200; -617.000; -716.000
824.611;  -18.900;  234.000;   40.000
824.863; -207.100; -612.000; -591.000
825.116;  -55.000;  -33.000;   27.000
825.368; -159.400; -366.000; -372.000
825.621; -117.000; -186.000; -240.000
825.873; -262.000; -704.000; -737.000
826.126; -265.300; -669.000; -641.000
826.378; -147.200; -389.000; -505.000
826.630; -315.200; -890.000; -898.000
826.883; -283.400; -754.000; -693.000
827.135; -159.000; -279.000; -270.000
827.387; -307.400; -893.000; -839.000
827.639;  -90.900;  -86.000;   32.000
827.892; -265.700; -742.000; -582.000
828.144; -315.700; -848.000; -804.000
828.396;  -56.800;  104.000;  -80.000
828.648; -183.300; -440.000; -333.000
828.900; -278.700; -702.000; -795.000
829.152; -293.200; -684.000; -683.000
829.404; -128.800; -215.000; -267.000
829.656;  -11.200;  321.000;  214.000
829.908;    9.900;  393.000;  229.000
830.160; -354.800;-1064.000;-1047.000
830.412; -180.700; -481.000; -430.000
830.664; -257.000; -557.000; -665.000
830.916; -107.400; -268.000; -206.000
831.167; -350.100;-1073.000; -951.000
831.419; -207.500; -623.000; -566.000
831.671; -311.700; -764.000; -809.000
831.923; -156.500; -311.000; -447.000
832.174; -144.400; -273.000; -331.000
832.426; -214.600; -493.000; -582.000
832.678; -384.600;-1043.000;-1091.000
832.929; -304.300; -947.000; -935.000
833.181; -249.900; -575.000; -677.000
833.432; -100.600;  -59.000; -186.000
833.684;  -15.300;  112.000;  -27.000
833.935; -220.800; -610.000; -566.000
834.187; -235.600; -829.000; -823.000
834.438;  -69.700;  -58.000;  -25.000
834.689; -103.200; -255.000; -123.000
834.941;  -74.400; -343.000; -244.000
835.192; -210.700; -590.000; -533.000
835.443; -213.600; -419.000; -506.000
835.695;  -30.200;  138.000;  -16.000
835.946; -164.600; -608.000; -378.000
836.197; -228.100; -599.000; -622.000
836.448; -196.900; -528.000; -395.000
836.699; -130.600; -253.000; -341.000
836.950;  -38.600;   72.000;    7.000
837.201; -351.300;-1003.000; -987.000
837.452; -142.900; -356.000; -170.000
837.703; -324.900; -791.000; -737.000
837.954; -136.800; -205.000; -365.000
838.205; -354.500;-1029.000;-1008.000
838.456; -115.200; -196.000; -282.000
838.707; -207.500; -423.000; -519.000
838.958; -224.900; -634.000; -647.000
839.209;  -64.000;   18.000;   40.000
839.460; -123.600; -439.000; -201.000
839.710; -140.800; -135.000; -297.000
839.961;  112.700;  730.000;  612.000
840.212; -206.600; -382.000; -497.000
840.462; -154.300; -328.000; -277.000
840.713; -224.800; -571.000; -536.000
840.964;  -87.900;  -62.000; -143.000
841.214; -223.000; -384.000; -624.000
841.465;  -80.600; -214.000; -141.000
841.715; -161.300; -417.000; -380.000
841.966; -241.800; -746.000; -685.000
842.216; -172.000; -330.000; -431.000
842.466;  -95.000; -169.000; -313.000
842.717; -342.200; -964.000; -952.000
842.967; -232.800; -635.000; -641.000
843.217;  -61.900;   20.000;   28.000
843.468;  -60.200; -104.000; -132.000
843.718; -248.800; -718.000; -726.000
843.968; -302.800; -837.000; -765.000
844.218; -125.500; -315.000; -262.000
844.469; -199.300; -577.000; -561.000
844.719; -258.000; -537.000; -682.000
844.969; -191.800; -550.000; -580.000
845.219; -315.100; -814.000; -862.000
845.469; -173.800; -392.000; -342.000
845.719; -306.000; -792.000; -884.000
845.969;  -19.600;  119.000;  174.000
846.219; -260.700; -738.000; -720.000
846.469;   58.200;  464.000;  432.000
846.718; -111.700; -115.000;   31.000
846.968; -274.900; -827.000; -827.000
847.218;  -96.200; -224.000; -371.000
847.468; -209.100; -586.000; -555.000
847.718; -289.800; -827.000; -798.000
847.967; -274.200; -826.000; -915.000
848.217; -228.800; -449.000; -569.000
848.467; -156.100; -405.000; -376.000
848.716; -271.900; -708.000; -725.000
848.966; -164.900; -372.000; -358.000
849.215; -178.400; -428.000; -419.000
849.465; -257.800; -785.000; -615.000
849.714; -385.700;-1132.000;-1150.000
849.964; -211.800; -551.000; -613.000
850.213; -170.800; -393.000; -355.000
850.463;   58.200;  137.000;  340.000
850.712; -223.800; -542.000; -567.000
850.961; -269.100; -739.000; -678.000
851.211; -199.400; -513.000; -504.000
851.460; -226.000; -635.000; -650.000
851.709;  -59.500;  -25.000;   18.000
851.958; -279.700; -912.000; -750.000
852.208; -318.900; -859.000; -879.000
852.457;  -66.300; -181.000;  -13.000
852.706; -300.600; -791.000; -823.000
852.955; -199.700; -507.000; -528.000
853.204; -243.500; -521.000; -461.000
853.453; -179.900; -418.000; -458.000
853.702; -300.500; -660.000; -750.000
853.951; -204.600; -532.000; -520.000
854.200; -261.900; -613.000; -562.000
854.449; -241.400; -695.000; -661.000
854.698; -152.500; -340.000; -279.000
854.946;  -99.000; -181.000; -284.000
855.195; -269.200; -843.000; -868.000
855.444; -126.700; -395.000; -420.000
855.693; -246.400; -345.000; -432.000
855.941; -197.600; -387.000; -516.000
856.190; -102.600; -256.000; -382.000
856.439; -238.000; -652.000; -703.000
856.687;  -92.000;  -99.000;  -72.000
856.936; -201.300; -621.000; -323.000
857.184; -335.200;-1067.000;-1020.000
857.433; -143.600; -423.000; -512.000
857.681; -350.500; -989.000; -953.000
857.930; -137.900; -282.000; -433.000
858.178; -320.500; -856.000; -929.000
858.427; -267.500; -802.000; -781.000
858.675; -214.600; -377.000; -544.000
858.923; -163.400; -527.000; -819.000
859.172; -359.600;-1094.000;-1070.000
859.420; -123.200; -339.000; -239.000
859.668; -266.400; -624.000; -628.000
859.916;    7.000;  109.000;  115.000
860.164; -261.900; -699.000; -603.000
860.413; -266.200; -878.000; -696.000
860.661; -253.000; -709.000; -577.000
860.909; -141.900; -339.000; -325.000
861.157; -186.000; -277.000; -444.000
861.405; -230.500; -534.000; -670.000
861.653;   22.500;  310.000;  310.000
861.901; -214.300; -543.000; -613.000
862.149; -320.200; -801.000; -824.000
862.396; -147.000; -297.000; -187.000
862.644; -178.000; -368.000; -347.000
862.892;  -39.500;   98.000;  138.000
863.140; -224.400; -549.000; -530.000
863.388; -293.000; -815.000; -759.000
863.635; -242.900; -642.000; -601.000
863.883;   -4.700;  231.000;  190.000
864.131; -190.500; -288.000; -357.000
864.378; -262.600; -675.000; -540.000
864.626; -209.100; -347.000; -415.000
864.873; -205.100; -556.000; -505.000
865.121; -262.800; -714.000; -799.000
865.368;  -66.700; -173.000;   75.000
865.616; -108.500;  -33.000;  -40.000
865.863; -184.300; -462.000; -506.000
866.111; -306.400; -795.000; -824.000
866.358; -147.100; -426.000; -420.000
866.605;  -84.800;  -64.000; -804.000
866.853; -215.400; -621.000; -537.000
867.100; -273.400; -728.000; -775.000
867.347; -272.800; -672.000; -611.000
867.594; -280.500; -740.000; -714.000
867.841;  -37.600;   97.000;   17.000
868.089; -305.700; -746.000; -698.000
868.336; -186.600; -477.000; -420.000
868.583; -237.800; -637.000; -741.000
868.830;  -53.900; -131.000; -170.000
869.077; -324.600; -859.000; -787.000
869.324; -196.000; -502.000; -458.000
869.571; -220.500; -398.000; -430.000
869.818; -188.800; -485.000; -439.000
870.065; -236.400; -439.000; -513.000
870.311; -182.300; -456.000; -542.000
870.558; -168.600; -332.000; -311.000
870.805; -122.700; -320.000; -384.000
871.052; -187.800; -494.000; -369.000
871.298;  -77.800; -204.000; -131.000
871.545; -112.300; -151.000; -185.000
871.792; -137.300; -173.000; -222.000
872.038;  -89.100;   43.000; -126.000
872.285; -192.700; -496.000; -387.000
872.532; -162.500; -357.000; -387.000
872.778;  106.900;  556.000;  403.000
873.025; -163.100; -384.000; -359.000
873.271;  128.900;  501.000;  578.000
873.517; -103.700; -133.000; -209.000
873.764;  -87.600; -193.000;  -80.000
874.010; -115.400; -143.000; -230.000
874.257;  -29.900;  123.000;   90.000
874.503; -239.000; -579.000; -479.000
874.749;  -81.100;   31.000;  275.000
874.995; -122.800;  -80.000;  -20.000
875.242; -198.300; -540.000; -478.000
875.488; -190.800; -414.000; -439.000
875.734;  -74.700; -106.000; -234.000
875.980; -345.800; -872.000;-1032.000
876.226; -124.000; -157.000; -255.000
876.472;  -17.300;  343.000;  237.000
876.718;  -13.500;  184.000;  158.000
876.964;  -35.200;   56.000;   55.000
877.210; -253.800; -547.000; -677.000
877.456; -228.100; -630.000; -557.000
877.702; -313.100; -821.000; -832.000
877.948; -168.400; -377.000; -497.000
878.193;   52.700;  361.000;  255.000
878.439; -238.800; -487.000; -472.000
878.685; -140.500; -272.000; -343.000
878.931; -238.600; -618.000; -676.000
879.176; -122.800; -201.000; -201.000
879.422; -333.900; -933.000; -820.000
879.668;  -41.100;   10.000;   79.000
879.913;  -52.000;   53.000;  137.000
880.159;  -82.400; -112.000;  -17.000
880.404; -114.300; -152.000; -162.000
880.650;  -48.800;   91.000;  141.000
880.895; -315.700; -670.000; -710.000
881.141; -208.400; -454.000; -428.000
881.386; -240.100; -503.000; -658.000
881.631; -143.100; -311.000; -166.000
881.877;  -59.200;  112.000;  -13.000
882.122; -241.200; -684.000; -600.000
882.367; -124.800; -136.000; -186.000
882.612; -103.800;  -80.000; -176.000
882.858; -339.000; -877.000; -823.000
883.103; -136.200; -297.000; -267.000
883.348; -295.200; -759.000; -852.000
883.593; -253.900; -677.000; -602.000
883.838; -132.100; -311.000;  -24.000
884.083;   16.200;  353.000;  288.000
884.328; -174.100; -564.000; -545.000
884.573; -113.700; -196.000; -143.000
884.818; -253.200; -694.000; -531.000
885.063; -167.400; -348.000; -315.000
885.308; -208.800; -475.000; -398.000
885.553;   13.400;  245.000;  325.000
885.797; -228.000; -545.000; -615.000
886.042;  -32.300;    8.000;   58.000
886.287; -110.700; -253.000; -211.000
886.532;  -62.200;   26.000;  204.000
886.776; -169.300; -407.000; -525.000
887.021; -247.900; -621.000; -574.000
887.265; -281.000; -685.000; -689.000
887.510; -214.600; -557.000; -496.000
887.755; -137.700; -194.000; -164.000
887.999; -224.500; -552.000; -575.000
888.244;  -61.800;  -58.000;  161.000
888.488;   33.300;  371.000;  393.000
888.732; -214.600; -368.000; -520.000
888.977; -224.000; -622.000; -567.000
889.221; -318.100; -683.000; -659.000
889.465; -239.700; -422.000; -566.000
889.710; -135.200;  -56.000; -299.000
889.954;   80.300;  579.000;  467.000
890.198; -271.800; -584.000; -707.000
890.442; -254.800; -716.000; -712.000
890.687; -267.100; -800.000; -753.000
890.931; -126.300; -273.000; -210.000
891.175; -236.200; -502.000; -500.000
891.419;  -97.000; -105.000; -110.000
891.663; -149.700; -239.000; -112.000
891.907; -278.900; -801.000; -545.000
892.151; -344.000; -920.000; -815.000
892.395; -136.900; -274.000; -387.000
892.638;   24.600;  408.000;  291.000
892.882; -307.000; -780.000; -867.000
893.126;   84.800;  758.000;  558.000
893.370; -126.200; -167.000; -168.000
893.614; -244.400; -714.000; -715.000
893.857; -156.500; -183.000; -197.000
894.101; -233.300; -527.000; -631.000
894.345;  -43.500;  300.000;  150.000
894.588;   90.400;  569.000;  380.000
894.832; -115.200; -178.000;  -84.000
895.075; -123.600;   15.000;  -92.000
895.319; -204.300; -552.000; -420.000
895.563; -189.900; -413.000; -353.000
895.806; -236.300; -628.000; -741.000
896.049; -221.200; -576.000; -368.000
896.293;   70.000;  527.000;  405.000
896.536; -222.400; -465.000; -468.000
896.779; -111.400; -149.000;   -1.000
897.023; -263.400; -751.000; -714.000
897.266;  -18.600;  325.000;  269.000
897.509; -320.800; -900.000; -901.000
897.752;  -41.900;  149.000;  171.000
897.996; -332.500; -972.000; -864.000
898.239;  -37.500;  168.000;  102.000
898.482; -218.100; -431.000; -453.000
898.725;  -88.300;  101.000;   53.000
898.968; -309.000; -609.000; -744.000
899.211; -216.400; -513.000; -361.000
899.454; -273.100; -633.000; -539.000
899.697;  -66.800;   90.000;  -43.000
899.940; -315.500; -761.000; -757.000
900.182; -149.200; -335.000; -405.000
900.425; -134.700; -150.000; -298.000
900.668;   27.800;  491.000;  350.000
900.911; -182.100; -292.000; -345.000
901.154;  -68.000;  141.000;   -3.000
901.396; -240.700; -407.000; -412.000
901.639; -229.600; -430.000; -496.000
901.882; -352.100; -790.000; -809.000
902.124; -103.500;  -29.000; -143.000
902.367; -176.000; -315.000; -361.000
902.609; -229.500; -476.000; -453.000
902.852; -115.200; -108.000; -260.000
903.094; -202.400; -458.000; -337.000
903.337;  -45.700;  -26.000;   53.000
903.579; -132.200; -228.000; -441.000
903.821; -286.800; -597.000; -744.000
904.064;  -26.700;   85.000;  127.000
904.306; -150.500; -126.000; -166.000
904.548; -177.000; -152.000; -366.000
904.790; -162.600; -195.000; -340.000
905.033; -207.500; -625.000; -577.000
905.275; -235.100; -513.000; -524.000
905.517;   23.400;  468.000;  256.000
905.759; -321.300; -667.000; -761.000
906.001; -175.200; -322.000; -369.000
906.243; -183.100; -162.000; -224.000
906.485; -157.600; -265.000; -207.000
906.727; -263.100; -499.000; -542.000
906.969; -129.400;  -30.000; -135.000
907.211; -184.300; -316.000; -382.000
907.453; -129.500; -188.000; -237.000
907.695; -157.400; -158.000; -385.000
907.936;  112.100;  818.000;  706.000
908.178; -119.500;   92.000; -135.000
908.420; -103.500; -111.000; -162.000
908.662; -296.400; -633.000; -682.000
908.903; -153.500; -208.000; -123.000
909.145; -144.400; -240.000; -305.000
909.386;    8.100;  315.000;  280.000
909.628;   16.700;  363.000;  397.000
909.870;  -47.300;   29.000;  264.000
910.111; -353.100; -809.000; -949.000
910.353; -131.300; -123.000; -161.000
910.594; -279.900; -574.000; -606.000
910.835; -167.500; -265.000; -326.000
911.077; -271.000; -503.000; -604.000
911.318; -248.200; -505.000; -471.000
911.559; -337.700; -577.000; -880.000
911.801; -183.200; -284.000; -280.000
912.042; -106.500;  -50.000; -159.000
912.283;   54.600;  404.000;  371.000
912.524; -196.700; -396.000; -457.000
912.765; -116.900; -193.000;   79.000
913.006; -188.200; -307.000; -338.000
913.247; -202.300; -270.000; -290.000
913.488; -124.200;  -43.000;   30.000
913.729; -218.000; -373.000; -373.000
913.970; -121.700;  -96.000; -292.000
914.211; -147.900; -160.000; -198.000
914.452; -182.500; -118.000;  -11.000
914.693;   57.600;  510.000;  592.000
914.934;   50.400;  510.000;  440.000
915.175;  -83.400;   53.000;  -95.000
915.415; -145.400; -137.000;   27.000
915.656;  -98.100;  -28.000;  192.000
915.897; -136.200; -252.000;  -82.000
916.137; -129.700;   74.000;   -9.000
916.378; -255.700; -573.000; -517.000
916.619; -158.600; -159.000;  -63.000
916.859;  -37.600;  303.000;  330.000
917.100;  312.900; 1655.000; 1070.000
917.340;  126.500;  930.000;  728.000
917.581;   89.200;  965.000;  789.000
917.821; -212.100; -171.000;  143.000
918.061; -131.300; -199.000;  -72.000
918.302; -141.200; -152.000; -211.000
918.542; -113.900;  -22.000;    3.000
918.782;   -8.700;  369.000;  377.000
919.023;   58.900;  360.000;  427.000
919.263; 2107.400; 8131.000;  202.000
919.503; -152.200; -137.000;  -54.000
919.743;  -15.900;  390.000;  266.000
919.983; -110.400; -134.000;  -26.000
920.223; -120.900;  135.000;   14.000
920.463;   29.800;  631.000;  554.000
920.703;  -96.400;   84.000;   39.000
920.943; -119.400; -110.000;   90.000
921.183; -233.800; -414.000; -405.000
921.423;   -3.600;  307.000;  546.000
921.663; -214.800; -174.000; -257.000
921.903;  -50.900;  237.000;  173.000
922.143;  -29.700;  372.000;  389.000
922.383;  -81.900;  158.000;  115.000
922.622; -145.700; -120.000;  -15.000
922.862;  129.500;  796.000;  785.000
923.102; -140.400;  -51.000;   33.000
923.341;  -95.100;   59.000;   74.000
923.581;  -48.600;  450.000;  360.000
923.821;  -14.300;  301.000;  398.000
924.060;  -51.000;  351.000;  193.000
924.300; -139.800;  -16.000; -128.000
924.539;  -31.900;  584.000;  473.000
924.779;   73.000;  812.000;  597.000
925.018;  -81.600;  247.000;  353.000
925.257;   44.500;  595.000;  666.000
925.497;  -59.100;  447.000;  412.000
925.736;  -73.600;  -35.000;  102.000
925.975;   37.200;  687.000;  669.000
926.214;  130.800;  907.000;  850.000
926.454;   86.400;  706.000;  757.000
926.693;  -39.900;  419.000;  543.000
926.932;  130.800; 1021.000;  825.000
927.171;  209.800; 1107.000; 1044.000
927.410;  177.500; 1144.000;  967.000
927.649;   98.200;  924.000;  742.000
927.888;   26.800;  590.000;  564.000
928.127;   68.900;  680.000;  678.000
928.366;  108.700;  842.000;  826.000
928.605;   87.300;  831.000;  737.000
928.844;  222.900; 1451.000; 1393.000
929.083;   17.200;  770.000;  613.000
929.321;  230.100; 1335.000; 1359.000
929.560;  195.700; 1158.000; 1122.000
929.799;  -49.000;  574.000;  475.000
930.038;  272.900; 1025.000; 1394.000
930.276;  -43.400;  334.000;  397.000
930.515;   65.900;  827.000;  681.000
930.753;   30.900;  614.000;  589.000
930.992;   40.500;  664.000;  717.000
931.230;   66.100;  847.000;  847.000
931.469;  389.200; 2162.000;  892.000
931.707;  187.200;  840.000;  751.000
931.946;  191.600; 1278.000; 1344.000
932.184;  189.400; 1437.000; 1175.000
932.423;  153.500; 1265.000;  963.000
932.661;  187.400; 1296.000; 1428.000
932.899;   85.500;  987.000;  821.000
933.137;  -23.600;  754.000;  564.000
933.376;  230.100; 1664.000; 1335.000
933.614;  269.300; 1759.000; 1196.000
933.852;  133.000; 1357.000; 1171.000
934.090;  324.400; 1722.000; 1747.000
934.328;  214.400; 1252.000; 1457.000
934.566;  127.000; 1431.000; 1110.000
934.804;  172.300; 1263.000; 1309.000
935.042;  235.600; 1861.000; 1850.000
935.280;  370.500; 2088.000; 2063.000
935.518;  359.700; 2113.000; 2007.000
935.756;  462.800; 2481.000; 2316.000
935.994;  196.000; 1808.000; 1751.000
936.231;  570.200; 2890.000; 2950.000
936.469;  394.800; 2367.000; 2378.000
936.707;  385.800; 2220.000; 2167.000
936.945;  511.300; 2825.000; 2882.000
937.182;  489.000; 2679.000; 2741.000
937.420;  624.200; 3602.000; 3031.000
937.657;  721.200; 3365.000; 3478.000
937.895;  648.800; 3331.000; 3488.000
938.133;  689.800; 3540.000; 3528.000
938.370;  784.900; 3896.000; 4191.000
938.607;  872.800; 4488.000; 4205.000
938.845; 1187.800; 5587.000; 5549.000
939.082; 1037.300; 5387.000; 5177.000
939.320; 1130.700; 5799.000; 5728.000
939.557; 1377.400; 6549.000; 6491.000
939.794; 1561.000; 7285.000; 7097.000
940.031; 1754.400; 8421.000; 8368.000
940.269; 1987.600; 9552.000; 9107.000
940.506; 2270.000;10901.000;10507.000

