
Integration time [ms]: 200.000
Averaging Nr. [scans]: 10
Smoothing Nr. [pixels]: 0
Data measured with spectrometer [name]: 2101013U2
Wave   ;Sample   ;Dark     ;Reference
[nm]   ;[counts] ;[counts] ;[counts] 

394.013;   15.735; -450.257; -315.536
394.305;  126.133; -461.258; -419.536
394.596;  735.767; -676.269; -527.514
394.887; 1893.677; -796.268; -654.518
395.178;  779.097;  145.736;   11.476
395.470;   51.904; -210.263; -356.526
395.761;  277.087;  305.734;  394.479
396.052;  298.185; -545.284; -306.489
396.343;  237.631; -557.276; -454.503
396.634;   73.910; -200.279; -290.497
396.926;   -2.024; -618.268; -565.517
397.217;   95.533;   11.725;  -17.504
397.508;   12.144; -366.273; -154.507
397.799;  -45.290; -555.279; -571.497
398.090; -127.893; -973.280; -902.495
398.381;  109.336;   11.708;  -11.473
398.672;  -99.763; -585.292; -742.473
398.963;  -16.286; -348.279; -373.498
399.254;  102.743;   54.709; -209.475
399.545; -205.415;-1017.266; -883.520
399.836;  -20.777; -407.277; -343.501
400.127;   23.121; -205.295; -209.468
400.418;  -32.660; -423.274; -392.506
400.709;    7.998; -359.281; -333.493
401.000;  -15.954; -268.291; -309.476
401.290;  140.080;  225.698;  115.545
401.581;    6.074; -166.286; -228.485
401.872;  -60.197; -542.298; -486.462
402.163;   17.416; -313.296; -252.467
402.454;   39.543; -123.291; -163.475
402.744; -100.590; -844.297; -813.465
403.035;  296.231; -226.293;  -86.471
403.326;  381.539; -366.292; -384.474
403.617;  359.799;  204.701;  165.539
403.907;   92.089; -593.283; -679.490
404.198; 1581.850; -545.307; -599.446
404.489; 4382.692; -618.283; -588.491
404.779; 1497.382; -618.302; -660.456
405.070;  163.168;  -67.304; -174.451
405.360;  200.932; -259.293; -238.472
405.651;  280.589;  125.699;   98.542
405.942;  189.571;  209.714;  127.516
406.232;  130.980; -432.285; -413.487
406.523;  537.127;  641.706;  758.530
406.813;  -52.528; -579.286; -644.484
407.104;  354.336;  261.708;  144.527
407.394;   37.700; -604.299; -591.462
407.685;  148.280;  336.715;  222.513
407.975;   -9.209; -400.283; -382.490
408.265;   71.953; -134.289; -190.478
408.556;  -28.659; -472.291; -459.475
408.846;  246.828;  474.706;  429.530
409.137;   55.258;   -1.288; -216.480
409.427;   -7.020; -193.285; -271.487
409.717;  -63.054; -776.273; -692.508
410.007;  143.776;    4.715; -170.486
410.298;    9.023; -360.295; -342.469
410.588;  -42.022; -495.285; -510.486
410.878; -135.135; -792.287; -873.482
411.168;   -3.296; -481.298; -478.463
411.459;   23.588; -295.283; -242.489
411.749;  -54.759; -609.292; -507.474
412.039;  -76.543; -755.289; -386.480
412.329;  226.719;   40.722;  132.501
412.619;  128.473;  -62.286; -148.485
412.909;  405.455;  639.711;  594.521
413.199;  221.607; -130.280; -251.495
413.490;  370.748;  521.710;  352.523
413.780;  -93.691;-1013.279; -913.496
414.070;  277.431;  -46.276;  235.497
414.360;  159.116; -729.278; -666.498
414.650;  193.163; -726.288; -688.482
414.940;  267.809; -538.280; -441.496
415.230;  652.461;   50.712;   74.519
415.520; 4158.066;  155.730;   66.486
415.809;16584.798; -305.281; -125.493
416.099;13249.725; -388.277; -229.501
416.389; 3564.139;  435.726;  236.494
416.679; 2165.907;   91.738;   85.473
416.969;  310.468; -527.287; -503.483
417.259;  462.810;  341.721;  171.503
417.549;  521.697;  522.718;  318.508
417.838; 1063.977; -205.268; -147.518
418.128; 3859.152;  650.710;  492.522
418.418; 3087.850; -491.272; -579.509
418.708; 2131.339;    9.726;  -48.506
418.997; 7723.336; -474.275; -480.505
419.287; 8210.643; -733.273; -790.507
419.577; 7501.587; -160.283; -123.489
419.866;25114.724; -588.277; -498.501
420.156;26565.563; -242.270;  -55.513
420.446; 4945.902; -112.263;  -26.526
420.735;  540.059; -376.271; -446.512
421.025; 1001.116; 1830.722;  315.502
421.314;  499.158; -203.271; -226.512
421.604; 1156.072;   89.732;  233.484
421.893;  535.956; -705.271; -602.511
422.183;   57.102; -487.263; -461.526
422.472;  247.557;  -36.271; -107.511
422.762;  270.589; -416.266; -379.521
423.051;   20.931; -916.276; -916.503
423.341;  152.845; -491.273; -439.507
423.630;  285.093; -121.265;   15.477
423.919;  274.736;   58.725;   49.495
424.209;  248.206;  -31.263;   56.473
424.498;  364.475;   68.732;  161.483
424.787;  629.879; -535.267; -601.518
425.077; 2215.892;   34.735;   29.478
425.366; 3212.909; -734.262; -744.528
425.655; 6752.445;  639.727;  259.493
425.945;14219.393; -313.247; -268.554
426.234; 8228.324;  117.741;  300.467
426.523; 3296.327;  -86.259; -350.534
426.812; 4806.686;  107.734;  159.480
427.101; 6978.270; -127.269; -323.515
427.390; 8905.466;  -55.270;  -86.514
427.680; 2015.740; -624.257; -411.538
427.969;  327.347; -330.255; -301.540
428.258;  157.835; -385.257; -477.536
428.547;  466.953;  449.728;  397.490
428.836;  811.758; -421.253; -398.543
429.125; 1342.529; -199.259;  -72.534
429.414;  568.972; -330.251; -294.548
429.703; 2113.472; -231.251; -213.548
429.992; 6150.175; -938.250; -828.549
430.281; 4073.297; -397.264; -331.524
430.570;  442.166;  -21.252;   32.454
430.859;  473.927;  279.741;  352.466
431.148;  462.590;  636.752;  631.446
431.437;  332.266;  391.748;  367.454
431.725;   35.436; -544.257; -481.536
432.014;  -67.438; -845.253; -756.545
432.303;  230.339; -149.239; -105.569
432.592;  370.702; -460.263; -178.525
432.881;  594.891; -601.248; -437.554
433.169; 4000.148; -343.255;  -61.540
433.458; 8440.361;  445.765;  540.424
433.747; 3554.313; -397.261; -289.529
434.036;  574.924; -275.242; -280.564
434.324; 1300.783; -395.249; -379.551
434.613; 2440.620;   40.757;  159.437
434.902;  930.733;  333.760;  439.433
435.190;  462.939;   75.761;  295.431
435.479;  221.108;  -52.245;   83.441
435.767;    0.613; -411.244; -427.561
436.056;   85.921; -340.242; -294.563
436.345;  205.735; -372.240; -223.568
436.633;  310.180;   60.750;  383.450
436.922;  255.636;  208.760;  414.432
437.210;  390.855; -194.236;    1.426
437.499; 1412.760; -583.235; -432.576
437.787; 1630.755; -339.236;  -10.574
438.075;  420.242;   56.761;  162.430
438.364;  579.644;  -44.238;  250.429
438.652;  259.412; -286.226; -138.592
438.941;  112.589;    3.770;  269.415
439.229; -108.236; -665.252; -466.545
439.517;  -14.834; -160.234;  -85.577
439.806;  -77.678; -501.225; -290.595
440.094;  193.171;  377.766;  650.421
440.382;   34.873; -653.233; -302.580
440.670;   63.960; -361.235; -285.576
440.959;  -85.367; -347.223; -170.599
441.247;   -3.904; -151.229; -109.587
441.535;   39.265; -266.235;   31.423
441.823;  -88.831; -497.234; -305.578
442.111;  144.299;  173.771;  327.412
442.400;  274.407; -628.245; -335.559
442.688; 1032.370; -111.234; -620.579
442.976;  660.190; -786.213; -450.617
443.264;  -39.873; -324.224; -364.597
443.552;   54.813; -258.226;   51.408
443.840;  218.264;  602.765;  876.423
444.128;  170.772;  265.767;  269.420
444.416; -119.000; -694.228; -312.588
444.704;  -48.747; -465.219;  -92.605
444.992;   54.814;   -0.226;  240.407
445.280;  -32.411; -517.230;  -94.585
445.568;  -95.307; -694.212; -396.618
445.856;  269.742; -174.221;  357.398
446.143;  541.950;  -54.220;   -7.604
446.431;  522.803;  -25.228;  625.411
446.719;  295.965;  489.783;  675.391
447.007;  223.785;  481.769;  705.416
447.295;  242.632;  597.777;  871.402
447.583;   16.694; -464.229;  -34.587
447.870;   -2.060; -434.221; -202.601
448.158;  228.488; -104.230;  129.415
448.446;  112.651; -800.219; -338.604
448.733;   96.927;   13.776;  269.403
449.021;  203.892;   60.788;  341.382
449.309;  147.402; -296.210;  208.379
449.596;  170.463;  128.783;   59.392
449.884;   -6.064; -571.222; -325.600
450.172;  -56.994; -756.227; -406.590
450.459;  357.680;  645.786;  780.387
450.747; 1370.662; -411.218; -147.608
451.034; 4828.004;  493.772;  889.411
451.322; 3962.282; -413.214; -170.614
451.609;  403.928;  292.777;  508.403
451.897;  240.743; -550.203; -183.634
452.184; 1005.832; -622.223; -400.598
452.472; 1151.616;   97.792;  269.375
452.759;  323.751;  512.781;  864.395
453.047;   -9.909; -407.212; -125.617
453.334;  -30.144; -732.219; -216.606
453.621;  -42.117; -438.214; -161.615
453.909;   84.038;   13.796;  384.368
454.196;   30.267; -299.199; -123.641
454.483;  200.152;  317.798;  540.364
454.771;   64.618; -215.208;  196.374
455.058;    4.020; -316.207;  102.374
455.345;  109.903;   71.807;  344.347
455.632;   21.322; -128.207;  235.373
455.919;   68.482;  -82.196;  182.354
456.207; -180.630; -774.198; -450.642
456.494;  -85.541; -475.200;  -66.639
456.781; -113.951; -399.202; -198.635
457.068;   10.427; -253.206;  -29.628
457.355; -114.573; -698.206; -401.629
457.642;  -88.069; -552.205; -290.630
457.929; -136.603; -778.194; -417.651
458.216;  -69.509; -575.212; -354.617
458.503;  151.500; -173.193;  -19.652
458.790;  -18.083; -864.208; -630.625
459.077;  197.152;  -77.202;  110.364
459.364;  468.393; -350.195; -210.649
459.651; 1092.725;  -46.206;  220.372
459.938;  351.010; -864.209; -665.623
460.225;  146.754;  132.799;  276.363
460.512; -183.720; -836.197; -688.645
460.799;  102.161;  -32.218;  320.392
461.086;  -32.638; -370.200; -251.640
461.372;  -43.530; -509.198; -279.642
461.659;   69.283; -165.196;  108.354
461.946;   20.199; -445.193;  -54.651
462.233;  362.561;  842.800;  888.361
462.519;   34.959; -814.201; -464.639
462.806;  476.880; -768.197; -497.645
463.093;  488.913; -445.191;  -66.656
463.380; -200.060; -920.186; -824.664
463.666;   27.482; -259.197;  -18.646
463.953;   18.289; -406.195; -243.648
464.239;   93.589; -173.195;  -77.648
464.526;  357.096;  413.806;  743.350
464.813;  154.420; -565.190; -304.658
465.099;  302.800;  606.807;  607.348
465.386;  436.503;  903.807;  921.348
465.672; -106.920; -694.197; -522.645
465.959;  -91.268; -598.188; -520.662
466.245;  -52.297; -468.193; -359.652
466.532;   56.288; -109.195;   63.352
466.818;    9.139; -357.186; -216.664
467.104;  -89.035; -488.182; -415.672
467.391; -120.178; -628.189; -459.658
467.677;   -3.258; -289.186;    9.335
467.964; -101.974; -682.189; -471.660
468.250;   -2.057; -331.186; -160.665
468.536;   41.922;   90.811;  180.341
468.822; -158.349; -821.184; -574.668
469.109;  218.018;  351.827;  471.311
469.395;  276.009;  729.808;  787.346
469.681;  141.124;   46.811;  156.341
469.967;  635.727; -699.188; -382.660
470.254; 1620.032; -494.188; -306.662
470.540; 1026.582; -601.196; -476.646
470.826;   54.673; -488.181; -397.675
471.112;  250.253;  288.816;  113.331
471.398;   48.256; -253.183;  -58.670
471.684;  -75.609; -626.177; -447.680
471.970; -191.625; -918.180; -981.675
472.256;  -86.992; -521.192; -441.654
472.542;  -91.475; -499.171; -434.691
472.828; -124.237; -743.182; -607.672
473.114;  -61.247; -380.166; -283.700
473.400;  -70.198; -504.175; -293.684
473.686;  -59.543; -452.166; -400.701
473.972;    2.411; -230.174; -131.687
474.258; -195.582; -925.173; -843.689
474.544;  105.686; -183.178;   -2.679
474.830;  195.903;  -65.175;   45.316
475.116;  253.121; -123.190; -196.658
475.401;  353.477; -558.180; -467.676
475.687;   -6.524; -725.180; -718.676
475.973; -130.032; -673.181; -770.673
476.259;  304.604;  736.825;  764.315
476.544;  124.896; -539.176; -437.682
476.830;  457.722; -398.172; -322.690
477.116;  408.795; -430.177; -336.682
477.401;  187.576;  346.820;  358.324
477.687;  -76.498; -289.175; -405.684
477.973;   50.270;   21.819;   28.326
478.258;  -72.129; -448.163; -348.706
478.544;   30.947;   21.815;   61.334
478.829; -153.771; -818.171; -738.692
479.115; -151.978; -749.172; -651.690
479.401;  -68.092; -444.174; -449.686
479.686;   -0.524; -253.180;  -74.676
479.972; -175.711; -886.178; -776.680
480.257;  -20.646; -258.166;  -65.700
480.542; -114.869; -614.170; -469.693
480.828;  431.501; 1288.824; 1392.317
481.113; -108.201; -464.176; -426.683
481.399;  -61.914; -236.161; -202.711
481.684; -129.046; -620.166; -462.700
481.969;    4.095; -158.159;  -73.713
482.255;  -68.662; -439.169; -285.695
482.540;  -88.111; -569.178; -441.680
482.825;  -89.964; -395.187; -404.663
483.110;   24.140;  -85.169; -105.696
483.396;   -6.991; -840.157; -652.718
483.681;  433.311;  543.826;  730.313
483.966;  -35.009; -696.160; -700.712
484.251;  -50.689; -404.174; -310.687
484.536;  -62.839; -356.165; -378.703
484.822;  -73.087; -205.173; -218.687
485.107; -109.667; -599.152; -502.726
485.392;  236.064;  662.836;  541.296
485.677;   83.846;  354.832;  163.302
485.962;  101.007;  160.843;  270.283
486.247;   73.876;  -14.162;   -8.707
486.532;  -18.745; -178.166; -325.701
486.817;  196.182;  381.839;  431.291
487.102;  -28.278; -453.154; -514.722
487.387;  294.310; -637.156; -652.718
487.672;  695.568; -154.164;  -38.705
487.957;  457.387; -394.160; -286.711
488.241;   43.544; -290.150; -314.729
488.526;  408.934; -280.152; -148.726
488.811;  547.590; -881.177; -818.680
489.096;  389.724; -666.154; -702.723
489.381;  312.532;    3.847;  162.275
489.666;  104.586; -428.161; -510.710
489.950;  224.326;  558.846;  627.277
490.235; -134.759; -480.151; -458.728
490.520; -152.115; -756.161; -723.710
490.804; -203.989; -827.156; -736.719
491.089;  -87.446; -469.149; -299.732
491.374;    3.067; -132.164;  -75.704
491.658; -143.138; -817.147; -717.735
491.943;    4.137; -657.152; -609.727
492.227;  136.220; -178.155;  -38.721
492.512;  -29.393; -294.157; -341.717
492.797; -213.250; -713.149; -716.731
493.081; -160.736; -588.147; -598.735
493.366; -170.714; -751.161; -635.711
493.650;  261.498;  831.859;  917.254
493.935; -104.039; -648.147; -447.734
494.219; -147.610; -778.142; -687.743
494.503; -161.253; -585.150; -487.730
494.788;    5.901;   46.842;   74.285
495.072;  123.445;  184.850;  434.271
495.356;   33.457; -463.148; -343.733
495.641;  149.968; -812.146; -736.736
495.925;  104.514; -976.156; -903.719
496.209;  -73.046; -599.149; -451.732
496.494; -136.210; -763.142; -544.744
496.778;  -40.178; -364.154; -360.722
497.062; -198.286; -819.156; -627.719
497.346; -154.212; -869.160; -640.711
497.631;  204.459;  580.852;  560.266
497.915;   71.375;  -64.145;  175.261
498.199;    4.009; -341.157; -277.718
498.483;  -70.567; -562.152; -508.725
498.767;  164.246;  301.850;  300.271
499.051;  113.953; -126.149; -100.732
499.335; -122.149; -693.149; -739.731
499.619; -100.236; -381.129; -423.767
499.903;  -34.081; -272.155;  -65.721
500.187;  -81.773; -588.153; -316.724
500.471; -112.963; -796.152; -595.727
500.755;   62.985;   62.839;  -96.710
501.039;  -36.181; -270.155; -357.721
501.323;   73.299;  -21.141;  264.254
501.607;  -54.529; -447.163; -503.706
501.891; -109.290; -607.156; -512.718
502.174; -145.618; -726.144; -585.741
502.458;  116.239;   89.849;  370.273
502.742;  -12.085; -180.138; -191.751
503.026;  -28.339; -412.147; -254.734
503.310;   -2.606; -437.159; -375.713
503.593;    0.862; -464.147; -325.735
503.877;   29.741; -232.133; -156.760
504.161;  122.929;    2.847;  -50.724
504.444;  -89.197; -841.158; -710.716
504.728;  134.866; -487.164; -522.704
505.012;  415.744; -257.150;  -76.729
505.295;  259.586; -417.161; -212.711
505.579;  263.414; -256.156; -496.719
505.862;  347.772; -555.145; -333.738
506.146;  316.396; -681.159; -758.714
506.429;  352.096;  568.841;  461.286
506.713; -124.558; -732.151; -667.728
506.996;  245.622;   90.846;  295.278
507.280;   64.363; -633.165; -474.703
507.563;   59.918; -469.155; -261.721
507.847;  -55.672; -423.153; -112.724
508.130;  -66.214; -665.161; -456.711
508.413;  -30.749; -758.167; -577.700
508.697;  147.351; -151.167;   12.300
508.980;   21.528; -422.153; -312.724
509.263; -100.584; -466.155; -450.720
509.547;   17.644; -124.150;   82.271
509.830;    3.088; -172.160;  140.289
510.113;   89.214;  128.844;  298.281
510.396;  -81.368; -530.152; -300.725
510.680;  -43.727; -818.145; -812.738
510.963;  525.225;  184.846;  180.277
511.246;  279.249; -493.150; -357.730
511.529;  153.576; -482.145;  -83.739
511.812;  195.639; -250.134;   10.241
512.095;    1.740; -740.151; -396.728
512.378;    5.265; -317.147; -245.736
512.661; -127.680; -703.137; -623.753
512.944; -122.209; -750.142; -637.744
513.227;  -15.782; -170.137; -171.752
513.510;  -80.618; -479.144; -671.741
513.793;  -89.098; -485.140; -435.747
514.076;   79.477;  -43.127;  -39.771
514.359;   18.755; -294.149; -135.732
514.642;  -82.907; -442.142; -567.744
514.925;  567.701;  581.860;  561.253
515.208;  478.636; -498.134; -443.758
515.491;  382.345; -276.133; -182.761
515.773;  120.884; -410.143; -337.742
516.056; 1334.024;  249.864;  409.246
516.339; 1482.326; -754.136; -652.755
516.622; 1145.347; -518.150; -488.730
516.904; 1139.989;  882.857;  975.257
517.187;  267.217; -730.138; -523.752
517.470;  159.288; -568.143; -510.743
517.752;  163.728; -624.136; -470.756
518.035;   67.409; -708.139; -725.749
518.318;   11.326; -799.136; -744.755
518.600; 1357.047; -300.132; -325.762
518.883; 2009.293;  310.858;   88.256
519.165;  873.512; -585.138; -426.751
519.448;  264.747;  -61.132;  -19.762
519.730;   16.082; -573.126; -415.773
520.013;  320.943;  588.867;  664.240
520.295;  556.540;  -94.134;  -15.759
520.578; 1238.456; -335.131; -305.764
520.860; 1405.347; -254.132;   56.238
521.143;  592.330; -763.135; -584.756
521.425;  271.190; -251.125; -279.775
521.707;  347.877; -622.127; -380.771
521.990; 1105.778; -199.127;  167.229
522.272; 1216.603; -116.140;   -4.748
522.554;  544.885; -237.143; -157.742
522.836;  202.738;  -24.134;   99.241
523.119;   51.660; -496.148; -189.734
523.401;   22.160; -448.130; -314.766
523.683;  -89.780; -865.137; -693.753
523.965;  190.116;  408.862;  260.248
524.247;  165.404;   54.878;  170.220
524.529;   10.840; -451.134; -367.759
524.812;  219.861;   -3.130;  191.234
525.094;  358.315; -773.138; -631.751
525.376;  776.396; -143.124;   78.223
525.658;  409.325; -441.136; -339.754
525.940; -128.746; -805.131; -671.764
526.222;  -17.173; -188.136;  -88.755
526.504;   31.952; -190.131;   32.237
526.786;  -17.359; -960.133; -647.760
527.068;  157.600; -124.123;  -67.778
527.349;  -71.378; -865.137; -774.754
527.631;   68.847; -137.132;   22.238
527.913;  -51.423; -664.127; -450.771
528.195;  -55.014; -761.125; -639.774
528.477;  128.936;  -93.134;  -30.758
528.759;  -80.339; -648.130; -522.766
529.040;  -60.901; -569.123; -293.778
529.322;  -40.912; -235.125;  -10.774
529.604;   71.663;  -47.130;   93.233
529.886;  -27.318; -546.126; -302.773
530.167;   96.657;  232.870;  192.235
530.449;   46.265;    1.853;   63.265
530.731;  -97.296; -572.122; -459.779
531.012;  -43.083; -513.120; -216.784
531.294;   32.342; -118.116;  -43.792
531.575;  151.690;  290.875;  538.225
531.857;  -52.267; -548.135; -266.757
532.138;   80.798; -113.141;   40.254
532.420;  150.931;  294.865;  403.244
532.701;   -5.457; -722.133; -751.760
532.983;  263.445;  232.867;  182.239
533.264;   72.881; -243.126;  175.228
533.546; -103.873; -491.136; -508.755
533.827;   21.341;  173.867;   -1.759
534.109;  -48.967; -352.135;  -80.757
534.390; -129.350; -725.132; -582.762
534.671;  118.530; -270.135;  -82.756
534.953; -103.899; -751.123; -611.779
535.234;  -73.167; -426.117; -255.789
535.515; -235.878; -891.119; -735.785
535.796; -112.526; -431.128; -193.770
536.078; -288.004;-1050.124; -904.777
536.359;  -47.899;  -22.123;    3.221
536.640; -105.113; -480.125; -197.774
536.921;  140.266;  225.871;  143.232
537.202;  178.313;  -87.138;  -16.751
537.483;  326.155;  251.869;  377.236
537.764;  130.357;   17.870;   98.235
538.045; -142.264; -543.134; -371.758
538.326; -122.633; -596.129; -447.768
538.607; -103.022; -686.127; -476.771
538.888;   77.611;   98.879;    5.218
539.169;    4.108; -704.122; -535.781
539.450;  227.665;  236.871;   16.233
539.731;   62.714; -361.121; -182.783
540.012;   93.517;  199.880;  412.216
540.293;   39.093;   82.876;  158.224
540.574; -180.444; -895.113; -717.796
540.855;  342.913;  435.879;  377.218
541.136;  348.406;   47.878;  139.220
541.416;   86.362; -161.130; -220.766
541.697;   40.253; -274.131; -170.763
541.978;  510.032; -270.135; -315.757
542.259;  684.178; -211.127; -236.771
542.539;  307.338; -191.116; -186.790
542.820;  158.190;  461.875;  480.225
543.101;   28.674;  -52.145;  -77.738
543.381; -147.922; -638.127; -591.771
543.662;  154.976;  159.873; -254.771
543.942;  154.475; -751.127; -830.770
544.223;  629.907;  193.878;  161.219
544.504;  303.796; -275.124; -182.777
544.784;  225.082; -592.126; -408.773
545.065;  858.441;  104.884; -254.791
545.345; 1171.823;  227.881;   14.215
545.626;  740.155;  -14.113; -108.796
545.906;  515.157;   77.869;   98.235
546.186;  143.185;   92.874;  -95.773
546.467;   98.698;   99.877;  -95.778
546.747;  206.438;  264.884;  327.210
547.027;  207.895;   91.876;  111.223
547.308;   76.274; -376.127; -530.770
547.588;  273.768;  299.871;  371.232
547.868;  190.558;  458.870;  588.235
548.149;  220.046;  609.885;  593.207
548.429;    0.777; -347.127; -299.771
548.709;  -19.283; -645.120; -461.784
548.989;  244.329;   84.882;   88.213
549.269; 1207.846;   10.868;  139.239
549.550; 2786.000;  215.877;  117.222
549.830; 2352.967; -758.111; -556.799
550.110;  414.772; -468.110; -320.801
550.390;  454.104; -128.122;  -56.779
550.670;  486.053; -868.114; -783.795
550.950;  342.113; -509.121; -471.782
551.230;  204.310;  549.879;  460.218
551.510;  -95.488; -381.121; -326.782
551.790;  -22.123; -173.109; -127.803
552.070;  380.698;  940.877; 1181.223
552.350;  114.225; -492.119; -377.786
552.630;  331.509;   -2.121;   77.219
552.909;  214.641;  181.884;   73.209
553.189;  123.950;  -49.132;   33.237
553.469;  -25.775; -703.119; -514.786
553.749;   -4.121; -469.127; -357.772
554.029;   77.535;   33.883;  -24.790
554.308;   49.648; -154.115;  -37.794
554.588;  -27.026; -196.128; -204.770
554.868;  -28.987; -366.121;  -47.782
555.147;   64.946; -114.115;  -46.793
555.427;  299.843; -260.116; -250.792
555.707; 2218.545; -284.115; -200.793
555.986; 2573.169; -719.111; -538.800
556.266; 1495.237;   23.884;   72.210
556.546;  -82.588; -888.121; -675.782
556.825;  -27.249; -657.114; -556.794
557.105; 1038.672; -125.128;   17.230
557.384; 1242.440;  122.884;  187.209
557.664;  310.442; -717.116; -508.792
557.943;  -54.087; -557.121; -411.782
558.222;    6.131; -345.118; -344.788
558.502;  131.947; -116.115;  -76.793
558.781;  334.444;  194.885;  499.208
559.061;  159.331; -232.118; -227.788
559.340;  230.734;  302.883;  353.211
559.619;  404.337;   93.884;  148.210
559.899;  544.435; -239.117; -266.789
560.178;  413.147; -778.115; -593.793
560.457; 1744.336; -623.117; -562.790
560.736; 2416.170; -472.111; -482.800
561.015; 1613.971; -500.128; -502.769
561.295;  203.190;  180.893;  215.193
561.574;  222.945;  119.885;  116.207
561.853;  331.580;  274.891;  303.197
562.132;  271.349;  -45.114;  182.206
562.411;  332.409;  396.879;  553.219
562.690;  -35.556; -592.115; -458.792
562.969;  169.460;  472.888;  630.203
563.248;  877.807; 2966.878; 2487.219
563.527;   47.069; -290.111; -408.800
563.806;   83.177; -650.127; -521.771
564.085;  139.300; -297.105; -206.810
564.364;   55.437; -594.117; -405.790
564.643;  221.509; -276.121; -223.781
564.922; 1125.476;  221.890;  397.198
565.201;  909.278; -640.109; -700.803
565.479;  399.543; -297.115; -219.792
565.758;  -16.128; -810.128; -712.770
566.037;  220.479; -155.109; -100.803
566.316;   83.641; -286.116;  -28.791
566.595;   -0.655;  -17.115;  -12.793
566.873;  134.771; -166.111;  -79.801
567.152; -163.540; -490.113; -590.797
567.431;  -49.362; -113.116;    6.210
567.709;  -49.610; -344.107; -212.807
567.988;  -16.049; -810.114; -769.794
568.266;  281.545; -160.115;  -68.793
568.545;  122.030; -644.100; -514.819
568.824;  366.243;  160.885;  356.208
569.102;  209.351; -351.114; -235.794
569.381;   32.943; -492.116; -407.792
569.659; -167.543; -553.113; -553.796
569.938; -152.294; -743.122; -465.780
570.216;   23.680; -225.109; -225.804
570.494; -169.447; -632.114; -572.795
570.773;   59.712;  202.879;  114.218
571.051;  -54.701; -373.123; -357.778
571.330;    5.456; -221.113; -174.796
571.608;  -56.359; -181.098; -173.823
571.886; -180.834; -671.111; -581.799
572.164; -199.687; -739.121; -621.782
572.443; -123.598; -562.105; -512.811
572.721;  -99.264; -399.117; -289.790
572.999; -112.468; -280.117; -168.788
573.277;  164.398;  379.894;  620.191
573.555;  139.799;   94.894;   37.190
573.834;  735.732;  -86.117; -114.788
574.112; 1053.191;  880.893;  811.193
574.390;  267.670; -143.111;  -96.801
574.668;  -30.140;  -91.112;  -61.797
574.946;  -47.701; -165.106; -187.810
575.224;  -19.522;   71.891;  -16.803
575.502;  -92.861; -200.116; -204.791
575.780; -215.539; -767.112; -829.798
576.058;  274.770; 1589.889; 1004.200
576.336;  -73.227; -210.110; -129.801
576.614; -139.539; -511.112; -340.798
576.891; -142.552; -711.115; -823.794
577.169;  213.286; -158.108; -285.805
577.447;  369.391;  169.893;  202.193
577.725;  256.764;  629.888;  854.201
578.003;  -67.137;  -71.112; -371.798
578.280;   -5.892; -208.104; -242.812
578.558; -123.753; -450.115; -422.793
578.836;   36.153; -210.114; -145.795
579.114; -155.140; -630.112; -670.797
579.391;   38.133;   -6.117;  -18.789
579.669; -193.351; -595.114; -704.794
579.947;   32.189; -326.107; -127.806
580.224;   21.089; -692.107; -524.806
580.502;  165.891;  127.893;   76.193
580.779;  -36.463;  -42.117;   75.210
581.057; -157.319; -584.109; -470.804
581.334; -241.283; -726.102; -695.815
581.612;   75.500;   54.895;  511.190
581.889;  -51.274;  -83.101; -129.818
582.167;  -82.265; -298.099; -190.821
582.444; -214.478; -845.102; -814.817
582.721;  181.423;  657.899;  715.183
582.999;  -10.567; -326.100; -167.821
583.276;  144.202; -812.123; -713.779
583.553;  303.019; -364.102; -294.816
583.831;  -41.894; -607.104; -631.812
584.108;   80.684;  349.892;  174.195
584.385;  -72.483; -122.102;  -98.815
584.662; -197.029; -651.111; -828.801
584.940;   20.670;  204.889;  204.199
585.217; -105.343;  -73.113; -303.796
585.494;   32.076;   71.890;  118.198
585.771;   35.181; -250.109; -354.804
586.048;  219.657; -196.113;  -76.796
586.325;    6.373; -721.110; -773.801
586.602;  101.808;  230.896;  213.188
586.879; -130.469; -499.100; -580.820
587.156;   -9.400; -156.105; -331.810
587.433; -185.479; -701.102; -667.817
587.710;   46.262;  152.888;  234.202
587.987;  102.304; -264.105; -236.811
588.264;  509.763;  315.888;  387.202
588.541;  770.510;  -61.104;   26.187
588.818; 1517.883;   72.892;  171.196
589.095; 1271.607; -163.104; -174.812
589.371;  119.380; -459.109; -414.804
589.648; -102.109; -581.107; -437.807
589.925;  -91.147; -517.114; -621.795
590.202; -151.339; -741.112; -607.798
590.478;    1.105; -166.105;  -73.811
590.755;  104.386; -241.108; -132.806
591.032; 1362.574; -741.110; -699.802
591.308; 1765.767; -732.094; -790.831
591.585;  920.474; -573.110; -560.802
591.862; -153.578;-1056.102; -950.817
592.138;  -70.015; -475.108; -474.805
592.415;  -39.792; -486.104; -495.813
592.691;  971.007;  460.896;  518.188
592.968; 1045.543; -208.098; -123.824
593.244;  425.738; -695.116; -595.790
593.521;   -9.778; -105.102;  -42.817
593.797; -179.695; -810.122; -720.780
594.074;   73.451; -611.096; -588.826
594.350;  539.158;  828.905;  729.172
594.626;  100.071; -303.111; -283.801
594.903;  -90.577; -643.101; -645.817
595.179;  167.911;  243.896;  418.187
595.455;  -54.108; -136.107; -150.807
595.731;  -58.088;  -19.103;  -38.814
596.008; -102.333; -464.111; -434.800
596.284;  -31.567; -187.100; -242.820
596.560;  -92.328; -501.093; -493.833
596.836;   43.202; -173.105;  -70.810
597.112;   76.885; -582.108; -437.805
597.388;  105.150;  -49.097;  -48.826
597.665;  126.259;  437.887;  530.203
597.941; -209.409; -572.089; -658.839
598.217;  -78.324; -323.110; -293.802
598.493;   64.582;   61.891; -204.804
598.769;  213.229; -175.100;  -50.819
599.045;   49.187; -490.108; -562.806
599.321;  -35.368; -193.100; -261.820
599.597;  -12.518; -355.109; -476.804
599.872;  321.709;  409.896;  429.187
600.148;  172.750;  -61.097; -172.826
600.424;  185.090;   91.893;  202.193
600.700;   80.992; -170.107; -280.807
600.976;  -62.353; -442.097; -464.825
601.252;   54.279; -226.109; -272.803
601.527;  -86.190; -833.104; -840.813
601.803;   -5.595; -453.105; -404.812
602.079;   47.029; -124.100; -118.819
602.354;  185.678; -620.092; -531.835
602.630;  410.857; -140.113; -482.796
602.906; 1145.026; -910.101; -863.818
603.181; 3633.425; -627.119; -534.786
603.457; 3215.649;   98.903; -278.826
603.733;  319.014; -605.120; -626.783
604.008;  576.300; -245.106; -164.810
604.284; 1565.824; -636.101; -580.817
604.559; 1502.764;   -3.112;  -42.799
604.835;  227.901; -163.105; -225.810
605.110;   68.835; -732.099; -892.821
605.385;  463.873;  224.907;  267.167
605.661;  226.060; -625.095; -729.829
605.936;  494.087; -664.108; -737.806
606.211;  509.616;  -17.103; -170.815
606.487;   34.950; -329.114; -376.794
606.762; -174.475; -791.119; -745.786
607.037; -116.698; -501.105; -433.810
607.313; -159.844; -589.096; -574.828
607.588;  -55.001; -375.106; -137.810
607.863;   -4.474;  -28.101; -143.818
608.138;  216.275;  513.890;  516.198
608.413; -132.662; -576.099; -592.822
608.688;  -50.715; -203.108; -267.805
608.964;   49.496; -509.106; -218.809
609.239;  106.300; -107.105; -212.810
609.514;  172.405;  281.895;  240.188
609.789;  244.708; -187.104; -716.812
610.064;  362.355; -435.096; -609.827
610.339;  335.980; -855.109; -799.804
610.614;  581.832; -131.100; -315.820
610.889;  397.605;  215.895;  107.188
611.163;  -66.894; -407.104; -591.812
611.438;  -52.049;   81.886; -167.794
611.713; -125.176; -467.101; -499.817
611.988;  -10.275; -144.101; -328.818
612.263; -183.883; -771.102; -717.815
612.538;  212.957;  385.887;  251.204
612.812;  -61.967; -832.100; -911.820
613.087;  -24.459; -358.098; -338.823
613.362; -147.408; -497.107; -557.807
613.637;   65.414;  261.897;  138.186
613.911;  -82.822; -256.092; -345.835
614.186;   19.391; -249.107; -292.807
614.460;  166.739; -842.081; -758.854
614.735;  430.906;  -55.087;  -17.843
615.010;   62.199;   43.912;  -82.841
615.284;  194.985;  360.892;  246.195
615.559;   14.278; -792.092; -955.835
615.833;  129.037;  -76.099;  -87.822
616.108;  -85.615; -225.090; -390.837
616.382;  157.707;  274.913;  402.156
616.656;   31.886; -241.090; -232.837
616.931;  136.537; -785.099; -700.822
617.205;  424.610; -973.104; -979.813
617.480;  548.089;  -91.125;    6.225
617.754;   -2.013; -396.125; -128.774
618.028;  -91.732; -369.129; -382.768
618.302;   26.384;   73.892;  -25.805
618.577; -170.585; -371.103; -518.815
618.851; -146.622; -399.109; -600.803
619.125; -136.760; -335.134; -378.759
619.399;  -94.489; -244.104; -374.813
619.673; -126.857; -330.115; -515.792
619.947; -128.747; -333.114; -448.795
620.222;  -64.828; -198.110; -204.801
620.496;  -19.987;  -47.121;  -96.782
620.770;   -8.192; -187.122;  -93.781
621.044;  197.200;  323.895;  346.190
621.318;  320.915; -653.120; -614.783
621.592;  301.613; -430.121; -409.783
621.866;   73.865; -476.112; -572.799
622.140;  -27.061; -207.116; -356.791
622.413;   54.967;  138.889;  112.200
622.687; -145.276; -746.101; -492.817
622.961;  -19.816; -130.108; -143.805
623.235; -171.132; -633.111; -661.800
623.509; -236.595; -816.105; -848.811
623.783;   13.689;  -12.107;   48.193
624.056;  -73.085; -254.120; -280.783
624.330;   34.460;   63.888;   -3.797
624.604;   -7.563; -271.116; -355.790
624.877;   57.674;  180.890;   26.198
625.151;  -27.451; -249.114; -238.794
625.425;  -74.788; -150.103; -283.814
625.698; -143.879; -367.119; -374.785
625.972; -241.224; -799.110; -765.802
626.245;  146.038;  685.884;  484.210
626.519; -103.682; -426.120; -340.784
626.792;  -43.408; -192.107; -380.807
627.066; -188.397; -485.122; -662.779
627.339; -219.327; -736.110; -663.802
627.613;   72.017;  351.880;  148.216
627.886;   69.677;  187.891; -612.803
628.160;  -90.986;  312.880; -161.783
628.433; -232.409; -695.125; -703.775
628.706; -170.382; -517.120; -615.784
628.979;   54.695;  296.876;  117.223
629.253; -245.475; -785.119; -833.786
629.526;  162.181; -334.126; -253.772
629.799;   61.500; -641.123; -479.778
630.072;    7.569; -497.128; -516.769
630.346; -277.262;-1115.116;-1080.790
630.619;  159.592; -467.107; -545.808
630.892;  441.568;  709.889;  593.200
631.165;  361.711;  790.896;  679.187
631.438; -281.437;-1092.112;-1055.798
631.711;  124.402;  453.877;  257.221
631.984; -142.765; -523.117; -624.789
632.257; -196.967; -636.117; -681.789
632.530; -135.778; -412.119; -433.785
632.803;   41.748; -109.115;    7.207
633.076; -152.803; -360.123; -422.777
633.349;   31.772;  173.872;  121.231
633.622;  -81.679; -187.119; -240.785
633.895; -274.685; -903.120; -823.783
634.167; -146.418; -496.126; -525.773
634.440;  -30.858;  -19.116; -137.792
634.713;  -18.776;  -22.119; -120.786
634.986;  148.765;  593.871;  453.233
635.258; -183.453; -507.115; -597.793
635.531;  181.330;  742.882; -343.788
635.804;  -58.366; -303.117; -318.789
636.077; -216.360; -830.116; -852.791
636.349; -127.454; -586.115; -474.793
636.622;  583.280; 1695.874; 1392.228
636.894;   23.118; -474.120; -909.784
637.167;  -76.224; -836.127; -789.771
637.439;  -37.626; -278.128; -213.770
637.712;  -69.019; -312.126; -293.772
637.984; -183.960; -635.116; -707.791
638.257;  348.198;  515.877;  488.222
638.529;  123.591; -881.125; -924.776
638.802;   40.169; -508.128; -449.769
639.074; -259.393; -927.122; -952.781
639.346; -260.566; -942.135; -930.757
639.619;   -1.508;  -79.142; -319.744
639.891;  -31.997;  -83.122; -168.779
640.163; -178.996; -689.122; -756.780
640.435;   47.905;  273.878;  103.220
640.708;    0.106;  -72.122; -132.780
640.980;  -97.292; -366.122; -362.781
641.252;  130.609;  -25.121;  -71.781
641.524; 1175.810;  580.879;  573.219
641.796;  825.011;-1094.121; -907.782
642.068;  134.612; -191.121; -300.782
642.340; -151.986; -486.121; -566.783
642.613;   68.615;  294.880;  323.217
642.885; -251.484; -787.120; -878.783
643.157; -181.783; -810.120; -658.784
643.428;   76.518;  170.880;  218.216
643.700; -125.181; -498.120; -425.784
643.972;  -63.779;  -16.119; -133.785
644.244; -162.878; -474.119; -559.785
644.516;  -76.177; -250.119; -114.786
644.788;  163.724;  662.881;  548.214
645.060;  -20.975;  -12.119; -124.786
645.332; -168.173; -525.118; -535.787
645.603;  121.228;  479.882;  342.213
645.875; -120.471; -334.118; -369.787
646.147;  363.930; 1487.882; 1242.212
646.418; -240.569; -931.117; -918.788
646.690; -119.067; -714.117; -715.789
646.962;  -24.966; -413.117; -451.789
647.233;  -26.265;   15.883;   11.211
647.505; -187.764; -595.117; -475.790
647.776;  103.937;  328.884;  229.210
648.048;  -72.662; -248.116; -418.790
648.320; -216.960; -752.116; -679.791
648.591; -297.859;-1055.116; -958.791
648.862; -180.658; -505.116; -577.792
649.134;   46.343;  115.885;  198.208
649.405; -132.456; -661.115; -618.792
649.677; -168.954; -475.115; -598.793
649.948;  -53.153; -181.115; -296.793
650.219;   12.148;  -37.115; -147.793
650.491; -142.151; -431.114; -520.794
650.762; -224.750; -705.114; -731.794
651.033; -146.649; -437.114; -424.795
651.304; -221.047; -743.114; -728.795
651.576; -146.646; -680.114; -645.795
651.847;  -48.345; -250.113; -140.796
652.118;  -41.044;  -32.113; -189.796
652.389; -202.843; -639.113; -722.796
652.660;  -33.341; -147.113;  -89.797
652.931; -253.340; -897.112; -871.797
653.202; -166.439; -382.112; -541.798
653.473; -168.538; -633.112; -533.798
653.744;  -24.637; -595.112; -590.798
654.015;   -4.836; -356.112; -303.799
654.286; -175.134; -642.111; -663.799
654.557; -176.833; -586.111; -521.799
654.828; -316.932;-1114.111;-1088.800
655.099; -123.731; -404.111; -291.800
655.370; -156.730; -427.111; -543.801
655.641; -207.928; -656.110; -714.801
655.911; -209.427; -618.110; -638.801
656.182;  134.574;  437.890;  387.198
656.453;  241.675;  830.890;  746.198
656.724; -128.024; -466.110; -426.802
656.994; -177.123; -553.109; -568.803
657.265; -237.521; -862.109; -873.803
657.536; -143.620; -500.109; -377.804
657.806; -191.919; -561.109; -593.804
658.077; -248.518; -866.109; -950.804
658.347; -141.817; -523.108; -598.805
658.618; -215.115; -646.108; -694.805
658.888;  -41.514;  -41.108;  112.195
659.159; -124.913; -432.108; -548.806
659.429;  -90.812; -292.108; -349.806
659.700;  -77.611; -435.107; -390.807
659.970;  -58.009; -370.107; -359.807
660.241; -153.108; -754.107; -921.807
660.511;  231.993; -147.107; -174.808
660.781; -116.606; -793.106; -748.808
661.052;  -65.205; -222.106; -381.808
661.322;    3.396;   21.894;   -9.809
661.592;   57.398;  257.894;  148.191
661.862; -113.001; -369.106; -382.810
662.133; -172.900; -551.105; -502.810
662.403; -237.699; -770.105; -676.810
662.673; -102.598; -256.105; -213.811
662.943; -178.196; -612.105; -551.811
663.213;  -15.395;  -85.105;  -81.811
663.483; -148.494; -593.104; -568.812
663.753;  -57.193; -194.104; -152.812
664.023;  -28.892;   68.896;  -32.813
664.293;  -88.791; -319.104; -126.813
664.563; -205.889; -694.104; -648.813
664.833; -213.788; -743.103; -608.814
665.103; -234.587; -730.103; -793.814
665.373; -240.686; -766.103; -806.814
665.643; -246.385; -863.103; -918.815
665.913; -116.883; -534.103; -714.815
666.182;  -53.182; -685.102; -719.816
666.452;  106.219;  -22.102;  -89.816
666.722; -200.880; -724.102; -784.816
666.992; -296.679; -948.102; -921.817
667.261; -235.878; -824.102; -808.817
667.531;  133.024;  134.899;   45.183
667.801;  220.525; -440.101; -412.818
668.070;  283.726;  714.899;  697.182
668.340; -237.173; -883.101; -840.819
668.609;  177.228;  588.900;  301.181
668.879; -194.370; -490.100; -558.819
669.149; -133.869; -539.100; -516.820
669.418; -231.168; -698.100; -726.820
669.688; -142.167; -482.100; -666.820
669.957;  -80.166; -423.099; -546.821
670.226;  -90.265; -268.099; -331.821
670.496; -186.363; -431.099; -635.822
670.765; -148.062; -418.099; -501.822
671.034; -268.461; -872.099; -828.822
671.304;  -28.360;   55.902; -111.823
671.573; -296.259;-1085.098; -957.823
671.842;  -26.657; -380.098; -294.823
672.112; -145.156; -692.098; -586.824
672.381;  -40.555; -239.098; -214.824
672.650; -301.654;-1005.097;-1021.825
672.919; -185.253; -631.097; -507.825
673.188; -218.552; -681.097; -878.825
673.457; -349.250;-1101.097;-1143.826
673.726; -184.849; -579.096; -646.826
673.995; -124.348; -533.096; -479.826
674.265; -104.847; -263.096; -333.827
674.534;  -35.046; -183.096; -235.827
674.802; -120.944; -618.096; -703.828
675.071;  461.157; -886.095; -801.828
675.340; 1990.958; -464.095; -339.828
675.609;  761.659;  103.905;   82.171
675.878; -167.940; -949.095; -893.829
676.147;   17.762;  -26.095;   -8.829
676.416;   -3.437; -210.094; -294.830
676.685;  659.164; 1000.906; -622.830
676.953;  -81.435; -603.094; -452.831
677.222;  -32.534; -193.094; -273.831
677.491;  -50.833;  -24.094; -127.831
677.759;  -13.531;   11.907;  172.168
678.028;  -61.430; -279.093; -222.832
678.297;  -16.229;   71.907;  197.168
678.565; -280.428; -898.093; -944.833
678.834;  -73.427; -311.093; -268.833
679.102; -123.825; -411.092; -391.834
679.371; -265.924; -898.092; -727.834
679.639; -269.423; -797.092; -786.834
679.908; -223.122; -794.092; -724.835
680.176; -283.421; -895.091; -941.835
680.445; -125.720; -346.091; -352.835
680.713;    9.382;  -58.091;  -23.836
680.982; -152.517; -523.091; -525.836
681.250; -209.216; -578.091; -507.837
681.518; -182.315; -534.090; -751.837
681.787;  -60.714; -204.090; -167.837
682.055; -144.312; -490.090; -422.838
682.323; -303.711; -993.090; -992.838
682.591;  -42.610; -216.090; -538.838
682.859;   23.791;    9.911;  -35.839
683.128;   40.992;  232.911;  497.161
683.396; -330.407;-1102.089;-1122.840
683.664;  -59.605; -241.089;   21.160
683.932;   13.896;  144.911;  -76.840
684.200; -138.703; -576.088; -320.841
684.468;  -31.302;  -73.088; -124.841
684.736;  -39.701; -214.088; -175.841
685.004; -311.399;-1024.088; -982.842
685.272; -196.598; -880.088; -774.842
685.540; -154.597; -499.087; -557.843
685.808; -184.396; -651.087; -682.843
686.076; -253.695; -894.087; -969.843
686.343; -162.394; -601.087; -815.844
686.611;  -17.892; -195.087; -224.844
686.879;  199.609; -530.086; -553.844
687.147; 1752.510; -483.086; -480.845
687.414;  466.011;  -12.086; -169.845
687.682; -133.788; -658.086; -757.846
687.950;  243.614;  259.915;  263.154
688.217; -157.985; -792.085; -760.846
688.485; -122.984; -632.085; -636.847
688.753;  284.517;  -11.085; -102.847
689.020;  -90.782; -820.085; -851.847
689.288; -251.180; -853.084; -787.848
689.555;  -59.879; -195.084; -148.848
689.823;  -98.678; -241.084; -345.849
690.090; -172.577; -546.084; -651.849
690.358; -301.276; -877.084; -897.849
690.625;   13.125;  120.917;   45.150
690.892; -142.273; -403.083; -369.850
691.160;  -12.572;   72.917;  -35.850
691.427;   -5.271;  141.917;  130.149
691.694; -264.470; -855.083; -929.851
691.962; -290.269;-1177.082;-1060.852
692.229;   26.133;  127.918;   56.148
692.496;   45.534;  130.918;  -49.852
692.763;  -10.165; -164.082; -201.853
693.031; -184.864; -739.082; -716.853
693.298; -146.763; -509.081; -368.853
693.565;  156.038; -155.081; -163.854
693.832;  708.040;   -5.081;   -9.854
694.099;  -74.959; -643.081; -642.855
694.366; -224.258; -882.081; -896.855
694.633; -205.657; -920.080; -633.855
694.900; 1470.144; 4367.920; -114.856
695.167;  200.046; -214.080; -380.856
695.434;  -81.853; -646.080; -623.856
695.701;  154.948;  121.921;  -61.857
695.968;  183.149; -365.079; -361.857
696.234;  584.250; -415.079; -646.858
696.501; 6116.351; -776.079; -614.858
696.768; 2922.753; -554.079; -617.858
697.035;   46.454; -632.078; -667.859
697.302;  -78.345; -448.078; -552.859
697.568;  -80.844; -458.078; -497.859
697.835; -164.243; -683.078; -624.860
698.102; -100.241; -498.078; -407.860
698.368;  106.460;  384.923;  396.139
698.635;  -96.539;  -47.077; -424.861
698.901;  -64.938; -240.077; -348.861
699.168;  -71.537; -534.077; -456.862
699.435;   17.864;  -72.077;  -13.862
699.701; -240.734; -868.076; -764.862
699.968;  -94.933;  144.924; -441.863
700.234; -218.932; -783.076; -822.863
700.500; -132.831; -448.076; -539.864
700.767;   -7.730;   -1.075;   26.136
701.033; -291.228;-1015.075; -963.864
701.299; -105.827; -450.075; -483.865
701.566;  235.874;  950.925;  763.135
701.832;   19.675;  -31.075;  -76.865
702.098; -277.624;-1054.074;-1034.866
702.365; -267.223;-1098.074;-1030.866
702.631; -228.921;-1038.074;-1063.867
702.897;  720.380; -765.074; -676.867
703.163; 1297.781;  348.926;  254.133
703.429;   40.182; -256.073; -273.868
703.695; -167.217; -796.073; -792.868
703.961;    5.285; -214.073; -210.868
704.227; -175.214; -630.073; -725.869
704.493;  210.287;  613.927;  510.131
704.759; -153.412; -565.072; -540.870
705.025;   -2.411; -203.072; -194.870
705.291; -126.309; -666.072; -562.870
705.557;  281.792;  719.928;   34.129
705.823; -130.707; -742.072; -694.871
706.089;   15.994; -307.071; -326.871
706.355;  244.195; -315.071; -244.872
706.620; 3467.196; -776.071; -729.872
706.886; 4395.598; -309.071; -362.873
707.152;  232.599; -818.070; -973.873
707.418; -258.500;-1153.070;-1186.873
707.683; -113.099; -550.070; -530.874
707.949; -130.698; -547.070; -578.874
708.215;  -34.296; -129.070; -207.874
708.480; -107.095; -520.069; -420.875
708.746;   88.206;   68.931;   28.125
709.011; -157.493; -578.069; -612.876
709.277; -154.692; -538.069; -543.876
709.542; -100.091; -428.069; -387.876
709.808;   -1.889;  -59.068;   89.123
710.073; -172.888; -577.068; -695.877
710.339;  -42.687; -242.068; -228.877
710.604; -132.986; -780.068; -845.878
710.869;   95.615; -277.068; -366.878
711.135; -175.483; -715.067; -628.879
711.400; -141.582; -507.067; -608.879
711.665; -137.181; -404.067; -479.879
711.931; -194.880; -661.067; -677.880
712.196; -244.279; -876.067; -954.880
712.461;   -2.278; -402.066; -490.880
712.726; -117.476; -727.066; -771.881
712.991; -216.975; -647.066; -664.881
713.256;  -92.374; -350.066; -332.882
713.521; -146.873; -417.065; -381.882
713.787; -189.772; -454.065; -472.882
714.052; -105.170; -214.065; -400.883
714.317; -288.669;-1045.065; -981.883
714.581;  543.732; -374.065; -268.883
714.846;  578.333; -822.064; -888.884
715.111;  145.634;  261.936;  257.116
715.376;  -63.565;  -86.064; -223.885
715.641;  -58.163; -365.064; -367.885
715.906;   58.538;   15.936; -551.885
716.171;  144.239;  221.937;  209.114
716.436;   14.640;  -78.063; -104.886
716.700; -223.059; -818.063; -692.886
716.965; -203.457; -794.063; -807.887
717.230; -137.356; -339.063; -392.887
717.494;  -58.455;  -40.062; -134.888
717.759; -197.354; -784.062; -640.888
718.024;   43.447;  269.938;  250.112
718.288;  189.149;  685.938;  395.111
718.553; -282.050; -803.062; -977.889
718.817; -271.649; -883.061; -899.889
719.082;  -23.348; -115.061; -125.890
719.346; -288.347;-1000.061; -947.890
719.611;  -97.046; -300.061; -255.891
719.875; -167.744; -568.060; -537.891
720.140; -162.043; -453.060; -603.891
720.404;   10.358; -136.060; -249.892
720.668;  384.859; -475.060; -411.892
720.933;  196.760;  146.940;  137.108
721.197; -199.938; -667.059; -600.893
721.461; -273.237; -851.059; -826.893
721.725;    6.264;  -21.059; -250.894
721.990;  -73.335; -284.059; -204.894
722.254;  -21.434;  -26.059; -108.894
722.518; -109.933; -286.058; -442.895
722.782; -181.131; -743.058; -594.895
723.046;  195.070;  614.942;  570.105
723.310;   59.971;  374.942;  210.104
723.574; -180.028; -654.058; -614.896
723.838; -177.227; -576.057; -642.897
724.102;  -98.525; -226.057; -239.897
724.366; -252.324;-1032.057; -978.897
724.630; -225.023; -749.057; -571.898
724.894; -161.522; -722.057; -514.898
725.158;  -18.221;   38.944; -295.898
725.422;  -88.020; -394.056; -327.899
725.685; -152.718; -441.056; -349.899
725.949; -198.917; -566.056; -519.900
726.213; -216.716; -732.056; -811.900
726.477;  -90.415;-1020.055; -933.900
726.740;   70.286; -274.055; -104.901
727.004;  127.288; -384.055; -510.901
727.268; 1817.389; -442.055; -400.901
727.531;  289.290; -961.055; -775.902
727.795; -134.909; -713.054; -673.902
728.059; -151.008; -552.054; -557.903
728.322; -162.507; -841.054; -669.903
728.586; -133.405; -692.054; -701.903
728.849; -207.004; -695.053; -756.904
729.112; -244.103; -812.053; -912.904
729.376; -264.802; -959.053; -905.904
729.639; -148.301; -536.053; -536.905
729.903; -248.999; -733.053; -699.905
730.166;  -89.298; -437.052; -399.906
730.429;  -65.697; -317.052; -468.906
730.693; -153.596; -355.052; -894.906
730.956;  276.405;  810.948;  651.093
731.219;  334.806; -310.052; -103.907
731.482;  -93.892;-1003.051; -894.907
731.745; -177.291; -794.051; -935.908
732.009;   39.010;  -30.051;   50.092
732.272; -209.689; -904.051; -771.909
732.535;  -85.488; -300.051; -310.909
732.798; -319.986;-1083.050;-1166.909
733.061; -130.085; -430.050; -456.910
733.324;  -46.984;   31.950; -180.910
733.587;  127.717;  290.950;  365.090
733.850; -168.982; -973.049;-1050.911
734.113;   56.920;   33.951;   32.089
734.376;  -93.479; -328.049; -447.912
734.639;  346.922; 1188.951; 1011.088
734.901;  -13.377; -180.049; -402.912
735.164;  176.724; -883.048; -837.913
735.427;  662.325; -166.048; -355.913
735.690;   42.027; -205.048; -234.913
735.952; -212.472; -923.048; -925.914
736.215; -238.071;-1113.048;-1009.914
736.478; -151.370; -771.047; -774.915
736.740;  107.631;   33.953;  129.085
737.003;  351.733; -658.047; -672.915
737.266; 2432.634;  -94.047;   46.084
737.528;   74.935; -682.047; -660.916
737.791;  132.136; -316.046; -327.916
738.053;  584.837;  465.954;  649.083
738.316; 6951.938; -162.046; -136.917
738.578; 3968.240; -770.046; -736.918
738.841;  165.541; -382.046; -446.918
739.103;  -26.458; -875.045; -777.918
739.365;  285.243;   79.955;  -69.919
739.628; -139.856; -884.045; -805.919
739.890; -137.154; -758.045; -710.919
740.152; -138.753; -692.044; -754.920
740.414;  -96.752; -408.044; -359.920
740.677; -155.651; -785.044; -634.921
740.939; -149.850; -587.044; -487.921
741.201;   76.651; -432.044; -572.921
741.463; -113.247; -689.043; -745.922
741.725;  -10.546;  -21.043; -199.922
741.987;   54.955;  220.957;  116.078
742.249; -174.544; -751.043; -859.923
742.511;  -26.743; -703.043; -794.923
742.773;  -97.741; -546.042; -546.924
743.035;  178.960;  796.958;  533.076
743.297; -221.039; -963.042;-1013.924
743.559;  389.162; -278.042; -262.925
743.821; -122.737; -735.042; -744.925
744.083;  -20.036;  -44.041; -149.925
744.345; -243.834; -869.041; -892.926
744.607;   31.867;   75.959;  122.074
744.868; -148.332; -490.041; -554.927
745.130; -287.631; -994.041;-1008.927
745.392;   41.870;   -1.040;  -44.927
745.653;  -93.328; -411.040; -378.928
745.915;  262.873;  896.960;  631.072
746.177;   55.674;   35.960;  -43.928
746.438; -111.825; -428.040; -543.929
746.700; -182.724; -947.039; -988.929
746.961; -152.922; -659.039; -740.930
747.223;   35.779; -190.039;  -74.930
747.484;  -26.020; -391.039; -471.930
747.746;   61.681;  -23.038; -106.931
748.007;  -73.218; -647.038; -689.931
748.269;  104.183; -468.038; -440.931
748.530;  103.785; -852.038; -638.932
748.791;   64.086; -354.038; -420.932
749.053;  310.587;  286.963;  163.067
749.314;  227.688; -236.037; -169.933
749.575;  111.189; -945.037; -905.933
749.836;  497.591; -217.037;   86.066
750.098; 1720.692;  -60.037;  -21.934
750.359;21898.993;  414.964;  555.066
750.620; 4843.394; -121.036; -220.935
750.881;  500.595; -585.036; -513.935
751.142;  646.096; -950.036; -938.936
751.403;10362.198; -789.036; -705.936
751.664; 3685.799;-1034.035; -999.936
751.925;  239.400; -175.035; -262.937
752.186;  120.401; -298.035; -278.937
752.447;  -29.398; -590.035; -445.937
752.708; -114.696; -532.035; -648.938
752.969; -125.995; -566.034; -576.938
753.230; -139.194; -777.034; -672.939
753.491; -105.393; -650.034; -631.939
753.751;   36.908;  109.966;   19.061
754.012;  128.009;  258.967;  181.060
754.273;  -10.989; -174.033;  -71.940
754.534;  -85.488; -487.033; -580.940
754.794; -237.287; -926.033; -911.941
755.055;  283.114; 1051.967;  881.059
755.316; -136.185; -700.032; -566.942
755.576; -130.183; -606.032; -576.942
755.837; -117.282; -527.032; -695.942
756.097; -120.981; -530.032; -564.943
756.358; -185.880; -725.032; -770.943
756.618; -153.879; -705.031; -641.943
756.879;  -62.578; -254.031; -349.944
757.139; -279.176;-1098.031;-1116.944
757.400; -162.675; -538.031; -553.945
757.660;  -68.074; -365.031; -401.945
757.920;  -76.073; -266.030; -228.945
758.181;  -82.772; -468.030; -351.946
758.441; -218.370; -870.030; -809.946
758.701;  -55.169; -308.030; -215.946
758.961;  -17.468; -220.030; -278.947
759.222; -136.267; -574.029; -502.947
759.482; -218.966; -683.029; -723.948
759.742; -177.765; -706.029; -547.948
760.002;    3.137;  -83.029; -143.948
760.262;   26.438;   50.972;  182.051
760.522; -146.961; -498.028; -574.949
760.782; -150.260; -738.028; -612.949
761.042; -120.759; -618.028; -573.950
761.302;   35.143;   55.972;  -18.950
761.562;   -0.856; -164.027; -154.951
761.822;  -54.555; -710.027; -551.951
762.082; -275.754;-1104.027;-1093.951
762.342;  -32.953; -328.027; -403.952
762.601;  -19.651; -567.027; -506.952
762.861;  151.150; -281.026; -207.952
763.121;  221.951; -406.026; -411.953
763.381; 5411.952; -499.026; -485.953
763.640; 4874.453; -139.026; -307.954
763.900;  215.954; -242.026; -203.954
764.160;   -6.744; -458.025; -491.954
764.419; -108.643; -726.025; -782.955
764.679; -199.742; -795.025; -726.955
764.939;  -37.441; -124.025; -210.955
765.198; -195.040; -608.025; -563.956
765.458; -160.038; -710.024; -612.956
765.717; -178.237; -454.024; -590.957
765.976; -139.736; -428.024; -411.957
766.236; -171.635; -475.024; -610.957
766.495;   68.066;  260.977;   73.042
766.755; -276.033;-1090.023; -987.958
767.014;  -92.231; -594.023; -665.958
767.273; -126.230; -373.023; -397.959
767.533; -112.129; -228.023; -307.959
767.792;  -42.528; -151.022; -188.960
768.051;  -68.627; -228.022; -276.960
768.310; -175.125; -546.022; -650.960
768.569;    3.976; -161.022;    4.039
768.828;  -82.323; -285.022; -363.961
769.088; -256.122;-1050.021; -942.961
769.347; -189.121; -755.021; -599.962
769.606; -213.920; -876.021; -857.962
769.865; -306.518;-1016.021;-1033.963
770.124;  -36.817; -411.021; -336.963
770.383; -208.516; -778.020; -910.963
770.641; -109.815; -398.020; -400.964
770.900; -232.614; -953.020; -846.964
771.159; -209.612; -851.020; -951.964
771.418; -196.811; -917.020; -779.965
771.677;   50.390; -224.019; -293.965
771.936;  -71.809; -794.019; -865.966
772.194; 1518.592; -465.019; -437.966
772.453; 6358.493; -213.019; -391.966
772.712;  542.695;  416.982;  329.033
772.970;   87.296;   32.982;   63.033
773.229;   69.797;  -22.018;  102.033
773.488; -229.502; -814.018; -770.968
773.746;  125.699;  296.982;  335.032
774.005;    7.001;  190.983;  -22.969
774.263;   54.002;  243.983;  177.031
774.522; -164.897; -422.017; -548.969
774.780; -113.296; -484.017; -417.970
775.039; -146.095; -551.017; -531.970
775.297;  -29.493; -135.016; -351.970
775.555; -206.992; -489.016; -612.971
775.814; -215.791; -618.016; -570.971
776.072; -228.390; -749.016; -740.971
776.330; -156.389; -630.016; -520.972
776.589; -212.388; -703.015; -721.972
776.847; -224.586; -645.015; -624.973
777.105; -316.985;-1016.015;-1032.973
777.363; -126.684; -459.015; -454.973
777.621; -262.583; -660.015; -717.974
777.879;  -13.882;  -42.014;   32.026
778.138; -155.480; -554.014; -717.974
778.396; -174.379; -585.014; -526.975
778.654; -293.878;-1015.014; -970.975
778.912;  -88.377; -269.014; -371.976
779.170; -239.776; -880.013; -803.976
779.427; -247.275; -922.013; -897.976
779.685; -241.373; -880.013; -832.977
779.943; -199.372; -654.013; -593.977
780.201; -292.371; -964.012; -883.978
780.459; -194.170; -651.012; -610.978
780.717; -151.469; -440.012; -390.978
780.974; -166.867; -449.012; -490.979
781.232; -116.066; -358.012; -338.979
781.490; -190.365; -551.011; -472.979
781.747; -159.864; -555.011; -476.980
782.005;  117.137;  462.989;  254.020
782.263; -296.562; -542.011;-1004.981
782.520; -136.260; -326.011; -501.981
782.778; -308.359;-1013.010;-1051.981
783.035; -299.958; -962.010; -938.982
783.293;  -77.157; -248.010; -206.982
783.550;  -82.356; -134.010; -198.982
783.808; -214.554; -764.010; -776.983
784.065; -302.853; -745.009; -874.983
784.322;  -49.552;   25.991;  -86.984
784.580; -253.151; -915.009; -771.984
784.837; -152.750; -392.009; -466.984
785.094; -259.849; -783.009; -762.985
785.352; -140.747; -304.008; -404.985
785.609; -249.646; -934.008; -839.985
785.866; -124.245; -345.008; -401.986
786.123; -180.844; -639.008; -583.986
786.380; -186.443; -665.008; -604.987
786.637;  -84.141; -225.007; -380.987
786.895; -149.640; -456.007; -543.987
787.152;  -36.339; -135.007; -267.988
787.409;  -58.738; -123.007; -225.988
787.666; -130.037; -299.006; -378.988
787.923; -207.536; -616.006; -695.989
788.179; -151.034; -551.006; -584.989
788.436; -184.433; -585.006; -585.990
788.693;  -26.432;  -92.006;  -87.990
788.950;   93.369; -125.005; -112.990
789.207;   27.570; -381.005; -372.991
789.464;  -72.928; -161.005; -301.991
789.720;   15.873;  150.995;  110.009
789.977; -292.326;-1003.005; -671.992
790.234;  -41.225;   44.996;  -66.992
790.490; -307.824; -884.004;-1031.993
790.747;  -24.922;  -85.004;   22.007
791.004;  -91.321; -426.004; -348.993
791.260; -114.720; -430.004; -560.994
791.517; -235.719; -843.003; -788.994
791.773;  -96.118; -379.003; -342.994
792.030; -202.717; -596.003; -660.995
792.286; -189.115; -686.003; -636.995
792.543;  -51.314;  -74.002; -159.995
792.799; -100.713; -584.002; -382.996
793.055; -361.512;-1179.002;-1210.996
793.312; -230.211; -827.002; -816.997
793.568; -187.109; -746.002; -599.997
793.824;  -56.908; -226.001; -284.997
794.081;  -94.507; -447.001; -508.998
794.337;  -33.706; -664.001; -561.998
794.593; 1065.295; -319.001; -271.999
794.849; 3978.596; -746.001; -772.999
795.105;  125.198; -270.000; -261.999
795.361;  -54.301; -490.000; -457.000
795.617; -210.400; -875.000; -945.000
795.873; -139.900; -360.000; -407.000
796.129;  -86.200; -368.000; -306.000
796.385;  -41.200; -124.000; -156.000
796.641;  164.400;  412.000;  550.000
796.897; -147.900; -666.000; -635.000
797.153;  135.900;  453.000;  357.000
797.409; -240.400; -785.000; -868.000
797.665; -179.700; -625.000; -732.000
797.921; -219.200; -775.000; -762.000
798.176; -179.300; -744.000; -747.000
798.432; -204.600; -824.000; -596.000
798.688; -278.700;-1174.000;-1078.000
798.943;   25.300; -165.000; -147.000
799.199; -206.100;-1005.000; -959.000
799.455;  248.400;  369.000;  316.000
799.710;  -87.400; -813.000; -380.000
799.966;  139.000; -162.000; -160.000
800.221;  169.700; -638.000; -721.000
800.477; 6814.500; -743.000; -710.000
800.732; 4559.600; -773.000; -800.000
800.988;  419.800;  205.000;  -19.000
801.243; 1453.900; -454.000; -344.000
801.498; 4871.700; -814.000; -739.000
801.754;  233.800; -289.000; -163.000
802.009;   20.600; -257.000; -335.000
802.264; -258.200; -967.000;-1033.000
802.520;   -0.700;  222.000;   -3.000
802.775; -142.800; -524.000; -359.000
803.030;   85.000;  395.000;  356.000
803.285; -241.900; -840.000; -903.000
803.540; -157.700; -686.000; -699.000
803.795; -168.800; -648.000; -583.000
804.051;  -68.500; -279.000; -346.000
804.306;   43.400;  168.000;  128.000
804.561;  181.200;  451.000;  362.000
804.816;  255.000;  714.000;  861.000
805.071;  -24.500; -185.000; -280.000
805.325;   21.000; -257.000; -427.000
805.580; -198.700; -841.000; -877.000
805.835;  -74.800; -204.000; -297.000
806.090; -169.300; -760.000; -676.000
806.345;  -97.700; -344.000; -264.000
806.600; -136.300; -549.000; -632.000
806.854; -105.500; -408.000; -538.000
807.109; -101.700; -493.000; -577.000
807.364;  -54.100; -407.000; -328.000
807.618; -104.700; -415.000; -381.000
807.873;  -89.000; -470.000; -494.000
808.128;   19.500; -257.000; -518.000
808.382;   -0.300; -224.000; -332.000
808.637;  -41.400; -440.000; -511.000
808.891;  112.500; -257.000; -180.000
809.146; -139.700; -902.000; -794.000
809.400;  -11.100; -848.000; -923.000
809.654;   78.800; -779.000; -551.000
809.909;  145.600; -841.000; -927.000
810.163; 4741.200; -813.000; -651.000
810.418; 9552.600; -940.000; -861.000
810.672;  473.300; -685.000; -690.000
810.926;  281.900; -993.000; -973.000
811.180;  941.500; -439.000; -372.000
811.434;22609.600;  240.000;  135.000
811.689; 6832.500; -231.000; -365.000
811.943;  188.100; -936.000; -953.000
812.197;   78.700; -893.000; -671.000
812.451;   -5.700; -379.000; -514.000
812.705; -173.400; -809.000; -619.000
812.959; -176.300; -263.000; -388.000
813.213;  -54.800; -283.000; -209.000
813.467;  140.000;  470.000;  253.000
813.721; -212.800; -764.000; -792.000
813.975; -256.100; -826.000; -877.000
814.229;   65.600;  430.000;  353.000
814.482; -173.500; -517.000; -566.000
814.736; -241.000; -766.000; -744.000
814.990; -251.800; -779.000; -872.000
815.244;  -85.500; -228.000; -285.000
815.497; -202.600; -636.000; -601.000
815.751;  -24.100; -141.000;   82.000
816.005; -173.100; -470.000; -586.000
816.258; -123.500; -510.000; -363.000
816.512; -221.200; -693.000; -610.000
816.766;   16.500;  121.000;  157.000
817.019;   35.800;  148.000;  149.000
817.273; -255.000;-1000.000; -802.000
817.526;  -64.900; -206.000; -173.000
817.779; -222.100;-1049.000; -960.000
818.033; -244.700; -693.000; -807.000
818.286; -213.500; -725.000; -792.000
818.540; -137.100; -403.000; -403.000
818.793; -159.900; -402.000; -489.000
819.046; -198.900; -582.000; -520.000
819.299;  -55.900; -157.000; -166.000
819.553; -170.200; -552.000; -592.000
819.806; -301.200;-1016.000; -838.000
820.059;  -67.000; -334.000; -354.000
820.312;   43.700;  152.000;  185.000
820.565;   -9.900;  110.000;  -27.000
820.818;  -38.800;  -59.000; -173.000
821.071; -293.900;-1041.000; -957.000
821.324; -182.700; -536.000; -540.000
821.577; -175.500; -457.000; -483.000
821.830;  -66.900; -270.000; -172.000
822.083; -242.200; -733.000; -288.000
822.336;  -68.400; -261.000; -167.000
822.589; -259.400; -805.000; -688.000
822.842; -267.400; -875.000; -770.000
823.094; -352.700;-1076.000;-1114.000
823.347; -256.700; -925.000; -729.000
823.600;   88.800;  402.000;  187.000
823.853;  -90.600; -311.000; -267.000
824.105; -132.900; -331.000; -575.000
824.358; -223.000; -617.000; -716.000
824.611;   47.300;  234.000;   40.000
824.863; -164.800; -612.000; -591.000
825.116;   12.400;  -33.000;   27.000
825.368;  -51.100; -366.000; -372.000
825.621;   74.400; -186.000; -240.000
825.873; -101.500; -704.000; -737.000
826.126;  268.600; -669.000; -641.000
826.378; 7372.800; -389.000; -505.000
826.630; 1079.100; -890.000; -898.000
826.883; -145.000; -754.000; -693.000
827.135;  -53.600; -279.000; -270.000
827.387; -231.200; -893.000; -839.000
827.639;  -41.600;  -86.000;   32.000
827.892; -226.500; -742.000; -582.000
828.144; -256.000; -848.000; -804.000
828.396;  -32.800;  104.000;  -80.000
828.648; -188.000; -440.000; -333.000
828.900; -244.900; -702.000; -795.000
829.152; -247.700; -684.000; -683.000
829.404; -101.700; -215.000; -267.000
829.656;   74.700;  321.000;  214.000
829.908;   22.200;  393.000;  229.000
830.160; -290.800;-1064.000;-1047.000
830.412; -165.900; -481.000; -430.000
830.664; -229.300; -557.000; -665.000
830.916;  -79.000; -268.000; -206.000
831.167; -334.700;-1073.000; -951.000
831.419; -167.700; -623.000; -566.000
831.671; -265.000; -764.000; -809.000
831.923; -133.400; -311.000; -447.000
832.174; -118.300; -273.000; -331.000
832.426; -196.200; -493.000; -582.000
832.678; -343.300;-1043.000;-1091.000
832.929; -297.500; -947.000; -935.000
833.181; -187.300; -575.000; -677.000
833.432;  -59.900;  -59.000; -186.000
833.684;   30.700;  112.000;  -27.000
833.935; -212.800; -610.000; -566.000
834.187; -218.200; -829.000; -823.000
834.438;  -46.300;  -58.000;  -25.000
834.689;  -57.000; -255.000; -123.000
834.941;  -69.500; -343.000; -244.000
835.192; -183.500; -590.000; -533.000
835.443; -214.700; -419.000; -506.000
835.695;    5.000;  138.000;  -16.000
835.946; -166.000; -608.000; -378.000
836.197; -197.800; -599.000; -622.000
836.448; -144.200; -528.000; -395.000
836.699;  -97.700; -253.000; -341.000
836.950;  -12.200;   72.000;    7.000
837.201; -334.900;-1003.000; -987.000
837.452;  -60.300; -356.000; -170.000
837.703; -247.700; -791.000; -737.000
837.954;  -99.400; -205.000; -365.000
838.205; -248.200;-1029.000;-1008.000
838.456;   36.400; -196.000; -282.000
838.707;  -85.600; -423.000; -519.000
838.958; -140.600; -634.000; -647.000
839.209;  196.500;   18.000;   40.000
839.460;   19.300; -439.000; -201.000
839.710;   40.400; -135.000; -297.000
839.961;  385.800;  730.000;  612.000
840.212;   95.500; -382.000; -497.000
840.462;  707.700; -328.000; -277.000
840.713;11733.900; -571.000; -536.000
840.964; 3475.700;  -62.000; -143.000
841.214;  190.200; -384.000; -624.000
841.465;  320.700; -214.000; -141.000
841.715;  222.800; -417.000; -380.000
841.966;  296.600; -746.000; -685.000
842.216; 6913.800; -330.000; -431.000
842.466;19716.800; -169.000; -313.000
842.717;  569.800; -964.000; -952.000
842.967;   45.200; -635.000; -641.000
843.217;  130.800;   20.000;   28.000
843.468;   -4.700; -104.000; -132.000
843.718; -189.800; -718.000; -726.000
843.968; -236.100; -837.000; -765.000
844.218;  -61.500; -315.000; -262.000
844.469; -146.400; -577.000; -561.000
844.719; -210.800; -537.000; -682.000
844.969; -196.300; -550.000; -580.000
845.219; -275.100; -814.000; -862.000
845.469; -136.100; -392.000; -342.000
845.719; -244.300; -792.000; -884.000
845.969;   23.300;  119.000;  174.000
846.219; -210.200; -738.000; -720.000
846.469;   62.400;  464.000;  432.000
846.718;  -59.000; -115.000;   31.000
846.968; -237.600; -827.000; -827.000
847.218;  -49.400; -224.000; -371.000
847.468; -214.600; -586.000; -555.000
847.718; -260.200; -827.000; -798.000
847.967; -251.200; -826.000; -915.000
848.217; -146.300; -449.000; -569.000
848.467; -112.600; -405.000; -376.000
848.716; -225.300; -708.000; -725.000
848.966;  -59.100; -372.000; -358.000
849.215; -119.500; -428.000; -419.000
849.465; -201.100; -785.000; -615.000
849.714; -338.300;-1132.000;-1150.000
849.964; -138.800; -551.000; -613.000
850.213; -136.600; -393.000; -355.000
850.463;  101.000;  137.000;  340.000
850.712; -119.600; -542.000; -567.000
850.961; -112.500; -739.000; -678.000
851.211;  -65.300; -513.000; -504.000
851.460;  -19.000; -635.000; -650.000
851.709;  365.400;  -25.000;   18.000
851.958; 7091.100; -912.000; -750.000
852.208; 6385.600; -859.000; -879.000
852.457;  196.400; -181.000;  -13.000
852.706; -145.900; -791.000; -823.000
852.955;  -76.400; -507.000; -528.000
853.204; -141.300; -521.000; -461.000
853.453; -142.200; -418.000; -458.000
853.702; -235.400; -660.000; -750.000
853.951; -168.800; -532.000; -520.000
854.200; -196.000; -613.000; -562.000
854.449; -198.200; -695.000; -661.000
854.698; -145.000; -340.000; -279.000
854.946;  -63.200; -181.000; -284.000
855.195; -258.700; -843.000; -868.000
855.444; -141.500; -395.000; -420.000
855.693; -197.400; -345.000; -432.000
855.941; -184.100; -387.000; -516.000
856.190;  -67.300; -256.000; -382.000
856.439; -210.500; -652.000; -703.000
856.687;  -53.800;  -99.000;  -72.000
856.936; -166.800; -621.000; -323.000
857.184; -307.800;-1067.000;-1020.000
857.433; -145.400; -423.000; -512.000
857.681; -297.700; -989.000; -953.000
857.930; -114.600; -282.000; -433.000
858.178; -316.100; -856.000; -929.000
858.427; -235.400; -802.000; -781.000
858.675; -188.000; -377.000; -544.000
858.923; -146.100; -527.000; -819.000
859.172; -334.700;-1094.000;-1070.000
859.420; -102.500; -339.000; -239.000
859.668; -240.700; -624.000; -628.000
859.916;    0.400;  109.000;  115.000
860.164; -202.300; -699.000; -603.000
860.413;   18.800; -878.000; -696.000
860.661;  -26.000; -709.000; -577.000
860.909; -115.900; -339.000; -325.000
861.157; -120.700; -277.000; -444.000
861.405; -211.200; -534.000; -670.000
861.653;   48.300;  310.000;  310.000
861.901;  -24.100; -543.000; -613.000
862.149; -175.000; -801.000; -824.000
862.396; -111.300; -297.000; -187.000
862.644; -105.400; -368.000; -347.000
862.892;  -43.200;   98.000;  138.000
863.140; -170.800; -549.000; -530.000
863.388; -255.000; -815.000; -759.000
863.635; -220.400; -642.000; -601.000
863.883;   75.300;  231.000;  190.000
864.131; -167.100; -288.000; -357.000
864.378; -216.400; -675.000; -540.000
864.626; -164.600; -347.000; -415.000
864.873; -193.700; -556.000; -505.000
865.121; -269.900; -714.000; -799.000
865.368;  -34.100; -173.000;   75.000
865.616;  -59.900;  -33.000;  -40.000
865.863; -141.300; -462.000; -506.000
866.111; -244.100; -795.000; -824.000
866.358;  -67.000; -426.000; -420.000
866.605; 1650.200;  -64.000; -804.000
866.853; 1110.600; -621.000; -537.000
867.100; -224.500; -728.000; -775.000
867.347; -216.000; -672.000; -611.000
867.594; -218.900; -740.000; -714.000
867.841;   55.400;   97.000;   17.000
868.089; -255.800; -746.000; -698.000
868.336; -160.000; -477.000; -420.000
868.583; -222.400; -637.000; -741.000
868.830;  -43.600; -131.000; -170.000
869.077; -277.500; -859.000; -787.000
869.324; -227.300; -502.000; -458.000
869.571; -190.400; -398.000; -430.000
869.818; -189.200; -485.000; -439.000
870.065; -180.200; -439.000; -513.000
870.311; -191.400; -456.000; -542.000
870.558; -136.800; -332.000; -311.000
870.805;  -94.300; -320.000; -384.000
871.052; -156.900; -494.000; -369.000
871.298;  -75.200; -204.000; -131.000
871.545;  -87.300; -151.000; -185.000
871.792;  -92.700; -173.000; -222.000
872.038;  -81.600;   43.000; -126.000
872.285; -196.500; -496.000; -387.000
872.532; -130.600; -357.000; -387.000
872.778;   83.400;  556.000;  403.000
873.025; -137.600; -384.000; -359.000
873.271;  152.700;  501.000;  578.000
873.517;  -60.300; -133.000; -209.000
873.764;  -54.500; -193.000;  -80.000
874.010; -108.900; -143.000; -230.000
874.257;   -8.800;  123.000;   90.000
874.503; -217.600; -579.000; -479.000
874.749;  -82.700;   31.000;  275.000
874.995;  -53.300;  -80.000;  -20.000
875.242; -195.100; -540.000; -478.000
875.488; -181.800; -414.000; -439.000
875.734;  -91.600; -106.000; -234.000
875.980;  -60.300; -872.000;-1032.000
876.226;  115.100; -157.000; -255.000
876.472;   56.000;  343.000;  237.000
876.718;  -36.000;  184.000;  158.000
876.964;  -30.900;   56.000;   55.000
877.210; -251.600; -547.000; -677.000
877.456; -194.300; -630.000; -557.000
877.702; -290.200; -821.000; -832.000
877.948; -196.600; -377.000; -497.000
878.193;   79.400;  361.000;  255.000
878.439; -177.800; -487.000; -472.000
878.685; -157.700; -272.000; -343.000
878.931; -218.200; -618.000; -676.000
879.176; -117.900; -201.000; -201.000
879.422; -317.500; -933.000; -820.000
879.668;   38.300;   10.000;   79.000
879.913;   93.600;   53.000;  137.000
880.159;  -64.800; -112.000;  -17.000
880.404;  -47.400; -152.000; -162.000
880.650;  -19.700;   91.000;  141.000
880.895; -262.600; -670.000; -710.000
881.141; -186.900; -454.000; -428.000
881.386; -244.300; -503.000; -658.000
881.631; -163.100; -311.000; -166.000
881.877;  -38.700;  112.000;  -13.000
882.122; -190.100; -684.000; -600.000
882.367; -106.500; -136.000; -186.000
882.612;  -70.400;  -80.000; -176.000
882.858; -289.400; -877.000; -823.000
883.103; -163.100; -297.000; -267.000
883.348; -265.500; -759.000; -852.000
883.593; -238.100; -677.000; -602.000
883.838;  -72.500; -311.000;  -24.000
884.083;   53.700;  353.000;  288.000
884.328; -128.100; -564.000; -545.000
884.573;  -92.500; -196.000; -143.000
884.818;   -4.100; -694.000; -531.000
885.063;   -4.500; -348.000; -315.000
885.308; -171.200; -475.000; -398.000
885.553;   39.500;  245.000;  325.000
885.797; -165.400; -545.000; -615.000
886.042;  -43.900;    8.000;   58.000
886.287; -113.100; -253.000; -211.000
886.532;  -36.100;   26.000;  204.000
886.776; -135.100; -407.000; -525.000
887.021; -204.700; -621.000; -574.000
887.265; -243.500; -685.000; -689.000
887.510; -219.600; -557.000; -496.000
887.755;  -83.900; -194.000; -164.000
887.999; -214.500; -552.000; -575.000
888.244;  -63.800;  -58.000;  161.000
888.488;   72.600;  371.000;  393.000
888.732; -192.400; -368.000; -520.000
888.977; -173.500; -622.000; -567.000
889.221; -281.300; -683.000; -659.000
889.465; -174.400; -422.000; -566.000
889.710; -106.100;  -56.000; -299.000
889.954;   69.000;  579.000;  467.000
890.198; -232.300; -584.000; -707.000
890.442; -257.800; -716.000; -712.000
890.687; -287.800; -800.000; -753.000
890.931; -107.800; -273.000; -210.000
891.175; -207.000; -502.000; -500.000
891.419;  -94.300; -105.000; -110.000
891.663; -122.500; -239.000; -112.000
891.907; -266.900; -801.000; -545.000
892.151; -301.900; -920.000; -815.000
892.395; -162.800; -274.000; -387.000
892.638;   41.100;  408.000;  291.000
892.882; -300.100; -780.000; -867.000
893.126;  104.900;  758.000;  558.000
893.370; -101.600; -167.000; -168.000
893.614; -248.700; -714.000; -715.000
893.857; -127.100; -183.000; -197.000
894.101; -212.600; -527.000; -631.000
894.345;  -23.300;  300.000;  150.000
894.588;  115.800;  569.000;  380.000
894.832;  -86.200; -178.000;  -84.000
895.075; -101.500;   15.000;  -92.000
895.319; -212.900; -552.000; -420.000
895.563; -174.800; -413.000; -353.000
895.806; -240.100; -628.000; -741.000
896.049; -144.700; -576.000; -368.000
896.293;  128.100;  527.000;  405.000
896.536; -183.500; -465.000; -468.000
896.779;  -90.900; -149.000;   -1.000
897.023; -279.600; -751.000; -714.000
897.266;   -5.300;  325.000;  269.000
897.509; -324.500; -900.000; -901.000
897.752;   -2.500;  149.000;  171.000
897.996; -309.700; -972.000; -864.000
898.239;   11.200;  168.000;  102.000
898.482; -204.600; -431.000; -453.000
898.725;  -32.500;  101.000;   53.000
898.968; -284.700; -609.000; -744.000
899.211; -158.800; -513.000; -361.000
899.454; -244.900; -633.000; -539.000
899.697;  -65.400;   90.000;  -43.000
899.940; -246.000; -761.000; -757.000
900.182; -131.200; -335.000; -405.000
900.425; -125.900; -150.000; -298.000
900.668;   19.300;  491.000;  350.000
900.911; -146.500; -292.000; -345.000
901.154;   -9.000;  141.000;   -3.000
901.396; -213.100; -407.000; -412.000
901.639; -217.300; -430.000; -496.000
901.882; -304.700; -790.000; -809.000
902.124; -123.400;  -29.000; -143.000
902.367; -204.800; -315.000; -361.000
902.609; -199.600; -476.000; -453.000
902.852; -113.500; -108.000; -260.000
903.094; -194.700; -458.000; -337.000
903.337;  -51.500;  -26.000;   53.000
903.579; -165.900; -228.000; -441.000
903.821; -260.000; -597.000; -744.000
904.064;  -38.800;   85.000;  127.000
904.306; -106.200; -126.000; -166.000
904.548; -130.400; -152.000; -366.000
904.790; -175.900; -195.000; -340.000
905.033; -231.700; -625.000; -577.000
905.275; -217.100; -513.000; -524.000
905.517;   81.700;  468.000;  256.000
905.759; -231.000; -667.000; -761.000
906.001; -147.900; -322.000; -369.000
906.243; -153.600; -162.000; -224.000
906.485;   50.900; -265.000; -207.000
906.727; -118.900; -499.000; -542.000
906.969; -107.800;  -30.000; -135.000
907.211;  -16.400; -316.000; -382.000
907.453;   88.900; -188.000; -237.000
907.695;  -96.800; -158.000; -385.000
907.936;  151.900;  818.000;  706.000
908.178;  -72.200;   92.000; -135.000
908.420; -105.900; -111.000; -162.000
908.662; -253.600; -633.000; -682.000
908.903; -133.400; -208.000; -123.000
909.145; -119.600; -240.000; -305.000
909.386;   38.500;  315.000;  280.000
909.628;   94.000;  363.000;  397.000
909.870;  -11.000;   29.000;  264.000
910.111; -264.800; -809.000; -949.000
910.353;  -76.700; -123.000; -161.000
910.594; -124.800; -574.000; -606.000
910.835;  -49.600; -265.000; -326.000
911.077;  -42.600; -503.000; -604.000
911.318;   66.800; -505.000; -471.000
911.559;  145.200; -577.000; -880.000
911.801;  982.100; -284.000; -280.000
912.042; 9145.900;  -50.000; -159.000
912.283;19060.200;  404.000;  371.000
912.524; 2053.000; -396.000; -457.000
912.765;  269.200; -193.000;   79.000
913.006;  106.300; -307.000; -338.000
913.247;  -71.100; -270.000; -290.000
913.488;  -56.600;  -43.000;   30.000
913.729; -173.700; -373.000; -373.000
913.970; -105.200;  -96.000; -292.000
914.211;  -86.000; -160.000; -198.000
914.452;  -88.000; -118.000;  -11.000
914.693;   68.300;  510.000;  592.000
914.934;   93.100;  510.000;  440.000
915.175;  -78.000;   53.000;  -95.000
915.415;  -94.400; -137.000;   27.000
915.656;  -70.100;  -28.000;  192.000
915.897; -151.700; -252.000;  -82.000
916.137; -112.800;   74.000;   -9.000
916.378; -229.800; -573.000; -517.000
916.619; -129.200; -159.000;  -63.000
916.859;    2.700;  303.000;  330.000
917.100;  340.700; 1655.000; 1070.000
917.340;  167.400;  930.000;  728.000
917.581;  106.000;  965.000;  789.000
917.821; -111.600; -171.000;  143.000
918.061;  -98.500; -199.000;  -72.000
918.302; -109.800; -152.000; -211.000
918.542;  -65.700;  -22.000;    3.000
918.782;   45.900;  369.000;  377.000
919.023;  160.000;  360.000;  427.000
919.263; 1855.400; 8131.000;  202.000
919.503;  544.600; -137.000;  -54.000
919.743;  409.200;  390.000;  266.000
919.983;   78.100; -134.000;  -26.000
920.223;   14.200;  135.000;   14.000
920.463;  151.200;  631.000;  554.000
920.703;   53.200;   84.000;   39.000
920.943;   32.600; -110.000;   90.000
921.183;  -16.000; -414.000; -405.000
921.423;  359.000;  307.000;  546.000
921.663;  342.400; -174.000; -257.000
921.903; 1094.500;  237.000;  173.000
922.143; 6436.000;  372.000;  389.000
922.383;22160.500;  158.000;  115.000
922.622; 5579.700; -120.000;  -15.000
922.862;  760.700;  796.000;  785.000
923.102;  239.600;  -51.000;   33.000
923.341;   66.900;   59.000;   74.000
923.581;   87.500;  450.000;  360.000
923.821;   20.700;  301.000;  398.000
924.060;   22.900;  351.000;  193.000
924.300;  -57.000;  -16.000; -128.000
924.539;    7.200;  584.000;  473.000
924.779;   83.100;  812.000;  597.000
925.018;  -51.700;  247.000;  353.000
925.257;   48.900;  595.000;  666.000
925.497;   42.300;  447.000;  412.000
925.736;  -92.800;  -35.000;  102.000
925.975;   60.600;  687.000;  669.000
926.214;  155.400;  907.000;  850.000
926.454;  111.100;  706.000;  757.000
926.693;  -64.000;  419.000;  543.000
926.932;  138.300; 1021.000;  825.000
927.171;  230.700; 1107.000; 1044.000
927.410;  194.700; 1144.000;  967.000
927.649;  132.900;  924.000;  742.000
927.888;   24.700;  590.000;  564.000
928.127;   55.900;  680.000;  678.000
928.366;   81.800;  842.000;  826.000
928.605;   80.000;  831.000;  737.000
928.844;  367.700; 1451.000; 1393.000
929.083;  450.700;  770.000;  613.000
929.321;  382.700; 1335.000; 1359.000
929.560;  232.900; 1158.000; 1122.000
929.799;    5.200;  574.000;  475.000
930.038;  239.600; 1025.000; 1394.000
930.276;  -48.400;  334.000;  397.000
930.515;   44.500;  827.000;  681.000
930.753;   23.300;  614.000;  589.000
930.992;   64.700;  664.000;  717.000
931.230;   75.600;  847.000;  847.000
931.469;  461.500; 2162.000;  892.000
931.707;  210.600;  840.000;  751.000
931.946;  246.600; 1278.000; 1344.000
932.184;  166.800; 1437.000; 1175.000
932.423;  181.000; 1265.000;  963.000
932.661;  233.000; 1296.000; 1428.000
932.899;  101.800;  987.000;  821.000
933.137;   53.900;  754.000;  564.000
933.376;  312.600; 1664.000; 1335.000
933.614;  351.400; 1759.000; 1196.000
933.852;  156.100; 1357.000; 1171.000
934.090;  340.100; 1722.000; 1747.000
934.328;  261.300; 1252.000; 1457.000
934.566;  213.200; 1431.000; 1110.000
934.804;  198.200; 1263.000; 1309.000
935.042;  530.600; 1861.000; 1850.000
935.280; 1649.100; 2088.000; 2063.000
935.518; 1237.000; 2113.000; 2007.000
935.756;  538.900; 2481.000; 2316.000
935.994;  325.800; 1808.000; 1751.000
936.231;  646.300; 2890.000; 2950.000
936.469;  408.000; 2367.000; 2378.000
936.707;  391.800; 2220.000; 2167.000
936.945;  571.200; 2825.000; 2882.000
937.182;  519.400; 2679.000; 2741.000
937.420;  637.600; 3602.000; 3031.000
937.657;  750.000; 3365.000; 3478.000
937.895;  701.300; 3331.000; 3488.000
938.133;  769.400; 3540.000; 3528.000
938.370;  796.400; 3896.000; 4191.000
938.607;  901.800; 4488.000; 4205.000
938.845; 1202.900; 5587.000; 5549.000
939.082; 1055.000; 5387.000; 5177.000
939.320; 1164.600; 5799.000; 5728.000
939.557; 1369.700; 6549.000; 6491.000
939.794; 1546.200; 7285.000; 7097.000
940.031; 1845.700; 8421.000; 8368.000
940.269; 2119.000; 9552.000; 9107.000
940.506; 2280.700;10901.000;10507.000

