
Integration time [ms]: 200.000
Averaging Nr. [scans]: 10
Smoothing Nr. [pixels]: 0
Data measured with spectrometer [name]: 2101013U2
Wave   ;Sample   ;Dark     ;Reference
[nm]   ;[counts] ;[counts] ;[counts] 

394.013;  133.177; -450.257; -315.536
394.305;  415.773; -461.258; -419.536
394.596; 2035.998; -676.269; -527.514
394.887; 4909.027; -796.268; -654.518
395.178; 1908.278;  145.736;   11.476
395.470;  150.597; -210.263; -356.526
395.761;  410.352;  305.734;  394.479
396.052;  689.386; -545.284; -306.489
396.343;  626.204; -557.276; -454.503
396.634;  198.851; -200.279; -290.497
396.926;  209.122; -618.268; -565.517
397.217;  225.112;   11.725;  -17.504
397.508;   84.839; -366.273; -154.507
397.799;   75.951; -555.279; -571.497
398.090;   -7.458; -973.280; -902.495
398.381;  269.359;   11.708;  -11.473
398.672;  -26.839; -585.292; -742.473
398.963;   78.362; -348.279; -373.498
399.254;  236.376;   54.709; -209.475
399.545;  -85.654;-1017.266; -883.520
399.836;  137.586; -407.277; -343.501
400.127;  116.218; -205.295; -209.468
400.418;  121.330; -423.274; -392.506
400.709;  148.820; -359.281; -333.493
401.000;   88.483; -268.291; -309.476
401.290;  228.911;  225.698;  115.545
401.581;  155.357; -166.286; -228.485
401.872;   53.871; -542.298; -486.462
402.163;   87.506; -313.296; -252.467
402.454;  203.077; -123.291; -163.475
402.744;  117.391; -844.297; -813.465
403.035;  719.144; -226.293;  -86.471
403.326;  967.166; -366.292; -384.474
403.617;  658.662;  204.701;  165.539
403.907;  449.696; -593.283; -679.490
404.198; 4429.033; -545.307; -599.446
404.489;11203.304; -618.283; -588.491
404.779; 3910.717; -618.302; -660.456
405.070;  437.681;  -67.304; -174.451
405.360;  657.447; -259.293; -238.472
405.651;  699.736;  125.699;   98.542
405.942;  363.549;  209.714;  127.516
406.232;  488.573; -432.285; -413.487
406.523;  941.735;  641.706;  758.530
406.813;  183.652; -579.286; -644.484
407.104;  660.557;  261.708;  144.527
407.394;  354.364; -604.299; -591.462
407.685;  337.172;  336.715;  222.513
407.975;  160.602; -400.283; -382.490
408.265;  188.002; -134.289; -190.478
408.556;  139.772; -472.291; -459.475
408.846;  332.637;  474.706;  429.530
409.137;  199.416;   -1.288; -216.480
409.427;   94.173; -193.285; -271.487
409.717;   60.444; -776.273; -692.508
410.007;  302.662;    4.715; -170.486
410.298;  187.623; -360.295; -342.469
410.588;  128.268; -495.285; -510.486
410.878;   54.335; -792.287; -873.482
411.168;  230.275; -481.298; -478.463
411.459;  198.192; -295.283; -242.489
411.749;   96.370; -609.292; -507.474
412.039;  148.513; -755.289; -386.480
412.329;  395.074;   40.722;  132.501
412.619;  377.753;  -62.286; -148.485
412.909;  700.406;  639.711;  594.521
413.199;  634.942; -130.280; -251.495
413.490;  765.990;  521.710;  352.523
413.780;  306.149;-1013.279; -913.496
414.070;  647.406;  -46.276;  235.497
414.360;  666.167; -729.278; -666.498
414.650;  732.828; -726.288; -688.482
414.940;  958.948; -538.280; -441.496
415.230; 1636.723;   50.712;   74.519
415.520;11502.997;  155.730;   66.486
415.809;42909.119; -305.281; -125.493
416.099;33752.390; -388.277; -229.501
416.389; 9247.326;  435.726;  236.494
416.679; 5507.103;   91.738;   85.473
416.969;  977.142; -527.287; -503.483
417.259; 1095.952;  341.721;  171.503
417.549; 1270.117;  522.718;  318.508
417.838; 3067.126; -205.268; -147.518
418.128; 9833.999;  650.710;  492.522
418.418; 8202.055; -491.272; -579.509
418.708; 5643.526;    9.726;  -48.506
418.997;20518.219; -474.275; -480.505
419.287;21528.838; -733.273; -790.507
419.577;20662.091; -160.283; -123.489
419.866;63991.386; -588.277; -498.501
420.156;64306.590; -242.270;  -55.513
420.446;12805.891; -112.263;  -26.526
420.735; 1514.580; -376.271; -446.512
421.025; 1625.866; 1830.722;  315.502
421.314; 1273.777; -203.271; -226.512
421.604; 2467.513;   89.732;  233.484
421.893; 1404.070; -705.271; -602.511
422.183;  418.491; -487.263; -461.526
422.472;  731.473;  -36.271; -107.511
422.762;  811.456; -416.266; -379.521
423.051;  480.607; -916.276; -916.503
423.341;  547.641; -491.273; -439.507
423.630;  746.566; -121.265;   15.477
423.919;  709.818;   58.725;   49.495
424.209;  693.600;  -31.263;   56.473
424.498;  871.021;   68.732;  161.483
424.787; 1948.032; -535.267; -601.518
425.077; 5902.764;   34.735;   29.478
425.366; 8027.510; -734.262; -744.528
425.655;17396.542;  639.727;  259.493
425.945;36595.229; -313.247; -268.554
426.234;21234.348;  117.741;  300.467
426.523; 9110.657;  -86.259; -350.534
426.812;12689.549;  107.734;  159.480
427.101;18387.707; -127.269; -323.515
427.390;22537.797;  -55.270;  -86.514
427.680; 5174.990; -624.257; -411.538
427.969;  929.309; -330.255; -301.540
428.258;  597.276; -385.257; -477.536
428.547; 1042.362;  449.728;  397.490
428.836; 2043.236; -421.253; -398.543
429.125; 2999.860; -199.259;  -72.534
429.414; 1505.375; -330.251; -294.548
429.703; 5765.075; -231.251; -213.548
429.992;16382.581; -938.250; -828.549
430.281;11178.879; -397.264; -331.524
430.570; 1190.658;  -21.252;   32.454
430.859; 1128.456;  279.741;  352.466
431.148;  961.221;  636.752;  631.446
431.437;  601.458;  391.748;  367.454
431.725;  311.779; -544.257; -481.536
432.014;  204.448; -845.253; -756.545
432.303;  726.850; -149.239; -105.569
432.592; 1093.690; -460.263; -178.525
432.881; 1929.423; -601.248; -437.554
433.169;11316.010; -343.255;  -61.540
433.458;22133.207;  445.765;  540.424
433.747; 9643.619; -397.261; -289.529
434.036; 1637.709; -275.242; -280.564
434.324; 3752.302; -395.249; -379.551
434.613; 6388.498;   40.757;  159.437
434.902; 2294.033;  333.760;  439.433
435.190; 1034.148;   75.761;  295.431
435.479;  591.167;  -52.245;   83.441
435.767;  190.681; -411.244; -427.561
436.056;  383.802; -340.242; -294.563
436.345;  671.837; -372.240; -223.568
436.633;  712.194;   60.750;  383.450
436.922;  547.241;  208.760;  414.432
437.210; 1070.490; -194.236;    1.426
437.499; 3263.404; -583.235; -432.576
437.787; 3614.489; -339.236;  -10.574
438.075;  985.957;   56.761;  162.430
438.364; 1329.761;  -44.238;  250.429
438.652;  791.039; -286.226; -138.592
438.941;  279.178;    3.770;  269.415
439.229;   42.154; -665.252; -466.545
439.517;   98.718; -160.234;  -85.577
439.806;  -21.035; -501.225; -290.595
440.094;  401.531;  377.766;  650.421
440.382;  315.437; -653.233; -302.580
440.670;  348.003; -361.235; -285.576
440.959;   78.695; -347.223; -170.599
441.247;  132.297; -151.229; -109.587
441.535;  219.415; -266.235;   31.423
441.823;   76.026; -497.234; -305.578
442.111;  325.104;  173.771;  327.412
442.400;  919.666; -628.245; -335.559
442.688; 2367.530; -111.234; -620.579
442.976; 1734.844; -786.213; -450.617
443.264;  203.877; -324.224; -364.597
443.552;  224.641; -258.226;   51.408
443.840;  333.713;  602.765;  876.423
444.128;  247.136;  265.767;  269.420
444.416;   31.109; -694.228; -312.588
444.704;   68.345; -465.219;  -92.605
444.992;  153.445;   -0.226;  240.407
445.280;  129.079; -517.230;  -94.585
445.568;   82.850; -694.212; -396.618
445.856;  622.718; -174.221;  357.398
446.143; 1244.039;  -54.220;   -7.604
446.431; 1135.115;  -25.228;  625.411
446.719;  466.878;  489.783;  675.391
447.007;  405.569;  481.769;  705.416
447.295;  360.490;  597.777;  871.402
447.583;  157.593; -464.229;  -34.587
447.870;  272.513; -434.221; -202.601
448.158;  766.477; -104.230;  129.415
448.446;  535.741; -800.219; -338.604
448.733;  320.279;   13.776;  269.403
449.021;  455.349;   60.788;  341.382
449.309;  349.974; -296.210;  208.379
449.596;  447.271;  128.783;   59.392
449.884;  263.902; -571.222; -325.600
450.172;  259.824; -756.227; -406.590
450.459;  849.615;  645.786;  780.387
450.747; 4369.069; -411.218; -147.608
451.034;13201.817;  493.772;  889.411
451.322;10971.620; -413.214; -170.614
451.609; 1059.682;  292.777;  508.403
451.897; 1119.981; -550.203; -183.634
452.184; 3208.090; -622.223; -400.598
452.472; 3095.110;   97.792;  269.375
452.759;  708.442;  512.781;  864.395
453.047;  233.545; -407.212; -125.617
453.334;  137.655; -732.219; -216.606
453.621;  166.524; -438.214; -161.615
453.909;  257.667;   13.796;  384.368
454.196;  220.244; -299.199; -123.641
454.483;  432.703;  317.798;  540.364
454.771;  253.516; -215.208;  196.374
455.058;  128.721; -316.207;  102.374
455.345;  227.538;   71.807;  344.347
455.632;  170.627; -128.207;  235.373
455.919;  139.782;  -82.196;  182.354
456.207;  -89.248; -774.198; -450.642
456.494;  -14.677; -475.200;  -66.639
456.781;   38.096; -399.202; -198.635
457.068;  145.838; -253.206;  -29.628
457.355;  -15.860; -698.206; -401.629
457.642;   19.749; -552.205; -290.630
457.929;   23.022; -778.194; -417.651
458.216;  134.445; -575.212; -354.617
458.503;  439.130; -173.193;  -19.652
458.790;  417.312; -864.208; -630.625
459.077;  488.504;  -77.202;  110.364
459.364; 1496.411; -350.195; -210.649
459.651; 3014.834;  -46.206;  220.372
459.938; 1390.496; -864.209; -665.623
460.225;  289.809;  132.799;  276.363
460.512;  -58.622; -836.197; -688.645
460.799;  225.167;  -32.218;  320.392
461.086;  153.531; -370.200; -251.640
461.372;   91.452; -509.198; -279.642
461.659;  232.984; -165.196;  108.354
461.946;  156.028; -445.193;  -54.651
462.233;  489.327;  842.800;  888.361
462.519;  661.322; -814.201; -464.639
462.806; 1764.678; -768.197; -497.645
463.093; 1610.963; -445.191;  -66.656
463.380;  -71.567; -920.186; -824.664
463.666;  135.181; -259.197;  -18.646
463.953;  233.602; -406.195; -243.648
464.239;  374.502; -173.195;  -77.648
464.526;  717.120;  413.806;  743.350
464.813;  616.783; -565.190; -304.658
465.099;  663.230;  606.807;  607.348
465.386;  683.436;  903.807;  921.348
465.672;   66.579; -694.197; -522.645
465.959;   65.913; -598.188; -520.662
466.245;   65.836; -468.193; -359.652
466.532;  235.598; -109.195;   63.352
466.818;  129.832; -357.186; -216.664
467.104;   32.100; -488.182; -415.672
467.391;   -8.514; -628.189; -459.658
467.677;  101.739; -289.186;    9.335
467.964;   65.497; -682.189; -471.660
468.250;  158.643; -331.186; -160.665
468.536;  234.688;   90.811;  180.341
468.822;  -38.937; -821.184; -574.668
469.109;  309.137;  351.827;  471.311
469.395;  424.853;  729.808;  787.346
469.681;  421.493;   46.811;  156.341
469.967; 2316.701; -699.188; -382.660
470.254; 4709.914; -494.188; -306.662
470.540; 3197.082; -601.196; -476.646
470.826;  493.019; -488.181; -397.675
471.112;  593.369;  288.816;  113.331
471.398;  233.977; -253.183;  -58.670
471.684;  127.667; -626.177; -447.680
471.970;  -13.374; -918.180; -981.675
472.256;   94.351; -521.192; -441.654
472.542;   61.656; -499.171; -434.691
472.828;   42.294; -743.182; -607.672
473.114;  101.829; -380.166; -283.700
473.400;   66.095; -504.175; -293.684
473.686;   56.140; -452.166; -400.701
473.972;  152.320; -230.174; -131.687
474.258;  -45.863; -925.173; -843.689
474.544;  375.053; -183.178;   -2.679
474.830;  586.598;  -65.175;   45.316
475.116;  921.285; -123.190; -196.658
475.401; 1172.029; -558.180; -467.676
475.687;  382.728; -725.180; -718.676
475.973;   33.807; -673.181; -770.673
476.259;  460.002;  736.825;  764.315
476.544;  675.181; -539.176; -437.682
476.830; 1402.749; -398.172; -322.690
477.116; 1284.378; -430.177; -336.682
477.401;  329.529;  346.820;  358.324
477.687;  -12.505; -289.175; -405.684
477.973;  130.313;   21.819;   28.326
478.258;   42.374; -448.163; -348.706
478.544;  127.952;   21.815;   61.334
478.829;  -79.035; -818.171; -738.692
479.115;  -69.652; -749.172; -651.690
479.401;   -0.888; -444.174; -449.686
479.686;  100.427; -253.180;  -74.676
479.972;  -55.838; -886.178; -776.680
480.257;  110.732; -258.166;  -65.700
480.542;   38.271; -614.170; -469.693
480.828;  503.092; 1288.824; 1392.317
481.113;  -16.511; -464.176; -426.683
481.399;   44.615; -236.161; -202.711
481.684;  -59.469; -620.166; -462.700
481.969;   74.437; -158.159;  -73.713
482.255;   41.890; -439.169; -285.695
482.540;   50.462; -569.178; -441.680
482.825;   22.424; -395.187; -404.663
483.110;  234.895;  -85.169; -105.696
483.396;  354.474; -840.157; -652.718
483.681;  896.220;  543.826;  730.313
483.966;  311.027; -696.160; -700.712
484.251;   42.218; -404.174; -310.687
484.536;   40.549; -356.165; -378.703
484.822;   90.023; -205.173; -218.687
485.107;  -14.961; -599.152; -502.726
485.392;  312.858;  662.836;  541.296
485.677;  174.312;  354.832;  163.302
485.962;  236.670;  160.843;  270.283
486.247;  195.488;  -14.162;   -8.707
486.532;  115.434; -178.166; -325.701
486.817;  354.505;  381.839;  431.291
487.102;  246.010; -453.154; -514.722
487.387; 1250.577; -637.156; -652.718
487.672; 2032.167; -154.164;  -38.705
487.957; 1297.117; -394.160; -286.711
488.241;  403.067; -290.150; -314.729
488.526; 1333.341; -280.152; -148.726
488.811; 1995.665; -881.177; -818.680
489.096; 1668.914; -666.154; -702.723
489.381;  912.535;    3.847;  162.275
489.666;  671.314; -428.161; -510.710
489.950;  372.119;  558.846;  627.277
490.235;  -33.642; -480.151; -458.728
490.520;  -50.387; -756.161; -723.710
490.804;  -88.520; -827.156; -736.719
491.089;   31.193; -469.149; -299.732
491.374;   87.465; -132.164;  -75.704
491.658;  -19.087; -817.147; -717.735
491.943;  276.548; -657.152; -609.727
492.227;  478.203; -178.155;  -38.721
492.512;  134.269; -294.157; -341.717
492.797;  -69.717; -713.149; -716.731
493.081;  -82.282; -588.147; -598.735
493.366;  -55.185; -751.161; -635.711
493.650;  429.507;  831.859;  917.254
493.935;   51.512; -648.147; -447.734
494.219;  -83.914; -778.142; -687.743
494.503;  -53.225; -585.150; -487.730
494.788;  125.055;   46.842;   74.285
495.072;  229.969;  184.850;  434.271
495.356;  331.499; -463.148; -343.733
495.641;  772.229; -812.146; -736.736
495.925;  761.289; -976.156; -903.719
496.209;   92.392; -599.149; -451.732
496.494;  -70.713; -763.142; -544.744
496.778;   37.610; -364.154; -360.722
497.062;  -84.512; -819.156; -627.719
497.346;  -49.580; -869.160; -640.711
497.631;  308.105;  580.852;  560.266
497.915;  155.146;  -64.145;  175.261
498.199;  117.874; -341.157; -277.718
498.483;   88.138; -562.152; -508.725
498.767;  400.871;  301.850;  300.271
499.051;  369.089; -126.149; -100.732
499.335;   88.185; -693.149; -739.731
499.619;  -28.521; -381.129; -423.767
499.903;   91.000; -272.155;  -65.721
500.187;   68.522; -588.153; -316.724
500.471;   35.947; -796.152; -595.727
500.755;  256.013;   62.839;  -96.710
501.039;   32.801; -270.155; -357.721
501.323;  245.310;  -21.141;  264.254
501.607;   95.875; -447.163; -503.706
501.891;   -2.724; -607.156; -512.718
502.174;  -64.735; -726.144; -585.741
502.458;  167.454;   89.849;  370.273
502.742;   98.551; -180.138; -191.751
503.026;  235.111; -412.147; -254.734
503.310;  323.236; -437.159; -375.713
503.593;  241.814; -464.147; -325.735
503.877;  244.419; -232.133; -156.760
504.161;  337.626;    2.847;  -50.724
504.444;  225.059; -841.158; -710.716
504.728;  844.063; -487.164; -522.704
505.012; 1242.766; -257.150;  -76.729
505.295; 1021.115; -417.161; -212.711
505.579; 1021.888; -256.156; -496.719
505.862; 1418.540; -555.145; -333.738
506.146; 1274.840; -681.159; -758.714
506.429;  805.241;  568.841;  461.286
506.713;  159.561; -732.151; -667.728
506.996;  611.409;   90.846;  295.278
507.280;  565.655; -633.165; -474.703
507.563;  449.698; -469.155; -261.721
507.847;  193.023; -423.153; -112.724
508.130;  229.916; -665.161; -456.711
508.413;  255.124; -758.167; -577.700
508.697;  463.925; -151.167;   12.300
508.980;  318.326; -422.153; -312.724
509.263;   19.992; -466.155; -450.720
509.547;  109.665; -124.150;   82.271
509.830;   94.220; -172.160;  140.289
510.113;  227.987;  128.844;  298.281
510.396;   81.235; -530.152; -300.725
510.680;  304.443; -818.145; -812.738
510.963; 1150.217;  184.846;  180.277
511.246;  923.678; -493.150; -357.730
511.529;  492.951; -482.145;  -83.739
511.812;  730.513; -250.134;   10.241
512.095;  496.656; -740.151; -396.728
512.378;  176.321; -317.147; -245.736
512.661;   65.764; -703.137; -623.753
512.944;   61.789; -750.142; -637.744
513.227;  146.459; -170.137; -171.752
513.510;   67.365; -479.144; -671.741
513.793;   65.118; -485.140; -435.747
514.076;  285.314;  -43.127;  -39.771
514.359;  217.994; -294.149; -135.732
514.642;  172.894; -442.142; -567.744
514.925; 1460.415;  581.860;  561.253
515.208; 1685.507; -498.134; -443.758
515.491; 1205.530; -276.133; -182.761
515.773;  746.971; -410.143; -337.742
516.056; 3913.574;  249.864;  409.246
516.339; 4882.181; -754.136; -652.755
516.622; 3449.174; -518.150; -488.730
516.904; 2202.883;  882.857;  975.257
517.187;  991.957; -730.138; -523.752
517.470;  774.681; -568.143; -510.743
517.752;  810.886; -624.136; -470.756
518.035;  679.136; -708.139; -725.749
518.318;  721.981; -799.136; -744.755
518.600; 4417.636; -300.132; -325.762
518.883; 5757.593;  310.858;   88.256
519.165; 2959.944; -585.138; -426.751
519.448;  759.036;  -61.132;  -19.762
519.730;  397.426; -573.126; -415.773
520.013;  671.324;  588.867;  664.240
520.295; 1487.316;  -94.134;  -15.759
520.578; 3182.958; -335.131; -305.764
520.860; 3611.836; -254.132;   56.238
521.143; 1907.689; -763.135; -584.756
521.425;  903.648; -251.125; -279.775
521.707; 1238.414; -622.127; -380.771
521.990; 3257.715; -199.127;  167.229
522.272; 3488.621; -116.140;   -4.748
522.554; 1732.373; -237.143; -157.742
522.836;  663.912;  -24.134;   99.241
523.119;  389.409; -496.148; -189.734
523.401;  334.469; -448.130; -314.766
523.683;  162.564; -865.137; -693.753
523.965;  552.453;  408.862;  260.248
524.247;  537.584;   54.878;  170.220
524.529;  372.216; -451.134; -367.759
524.812;  694.773;   -3.130;  191.234
525.094; 1517.252; -773.138; -631.751
525.376; 2338.564; -143.124;   78.223
525.658; 1478.576; -441.136; -339.754
525.940;   73.652; -805.131; -671.764
526.222;  118.882; -188.136;  -88.755
526.504;  232.149; -190.131;   32.237
526.786;  327.420; -960.133; -647.760
527.068;  580.273; -124.123;  -67.778
527.349;  211.771; -865.137; -774.754
527.631;  267.435; -137.132;   22.238
527.913;  273.413; -664.127; -450.771
528.195;  314.036; -761.125; -639.774
528.477;  422.007;  -93.134;  -30.758
528.759;  253.072; -648.130; -522.766
529.040;  108.071; -569.123; -293.778
529.322;  151.441; -235.125;  -10.774
529.604;  269.576;  -47.130;   93.233
529.886;  220.626; -546.126; -302.773
530.167;  275.362;  232.870;  192.235
530.449;  115.620;    1.853;   63.265
530.731;   63.183; -572.122; -459.779
531.012;  186.218; -513.120; -216.784
531.294;  177.784; -118.116;  -43.792
531.575;  344.948;  290.875;  538.225
531.857;   87.699; -548.135; -266.757
532.138;  280.008; -113.141;   40.254
532.420;  395.892;  294.865;  403.244
532.701;  321.124; -722.133; -751.760
532.983;  645.829;  232.867;  182.239
533.264;  225.723; -243.126;  175.228
533.546;  -28.318; -491.136; -508.755
533.827;  148.618;  173.867;   -1.759
534.109;   93.798; -352.135;  -80.757
534.390;  187.142; -725.132; -582.762
534.671;  491.192; -270.135;  -82.756
534.953;  239.275; -751.123; -611.779
535.234;   51.459; -426.117; -255.789
535.515; -118.668; -891.119; -735.785
535.796;   23.006; -431.128; -193.770
536.078; -202.037;-1050.124; -904.777
536.359;   41.377;  -22.123;    3.221
536.640;   29.839; -480.125; -197.774
536.921;  337.385;  225.871;  143.232
537.202;  661.447;  -87.138;  -16.751
537.483;  829.557;  251.869;  377.236
537.764;  357.262;   17.870;   98.235
538.045;  -39.094; -543.134; -371.758
538.326;  -28.312; -596.129; -447.768
538.607;   66.016; -686.127; -476.771
538.888;  347.403;   98.879;    5.218
539.169;  346.293; -704.122; -535.781
539.450;  670.183;  236.871;   16.233
539.731;  416.809; -361.121; -182.783
540.012;  258.018;  199.880;  412.216
540.293;  213.354;   82.876;  158.224
540.574;   44.519; -895.113; -717.796
540.855;  869.607;  435.879;  377.218
541.136;  975.089;   47.878;  139.220
541.416;  518.174; -161.130; -220.766
541.697;  387.149; -274.131; -170.763
541.978; 1901.796; -270.135; -315.757
542.259; 2239.115; -211.127; -236.771
542.539; 1163.573; -191.116; -186.790
542.820;  395.948;  461.875;  480.225
543.101;  251.945;  -52.145;  -77.738
543.381;   61.815; -638.127; -591.771
543.662;  539.711;  159.873; -254.771
543.942; 1020.008; -751.127; -830.770
544.223; 1876.392;  193.878;  161.219
544.504; 1268.663; -275.124; -182.777
544.784; 1124.226; -592.126; -408.773
545.065; 2994.380;  104.884; -254.791
545.345; 3467.532;  227.881;   14.215
545.626; 2380.918;  -14.113; -108.796
545.906; 1543.061;   77.869;   98.235
546.186;  668.033;   92.874;  -95.773
546.467;  385.267;   99.877;  -95.778
546.747;  602.073;  264.884;  327.210
547.027;  745.760;   91.876;  111.223
547.308;  606.207; -376.127; -530.770
547.588;  722.389;  299.871;  371.232
547.868;  407.563;  458.870;  588.235
548.149;  463.192;  609.885;  593.207
548.429;  288.812; -347.127; -299.771
548.709;  295.017; -645.120; -461.784
548.989;  902.048;   84.882;   88.213
549.269; 3881.333;   10.868;  139.239
549.550; 8511.574;  215.877;  117.222
549.830; 7587.548; -758.111; -556.799
550.110; 1624.561; -468.110; -320.801
550.390; 1618.883; -128.122;  -56.779
550.670; 1949.810; -868.114; -783.795
550.950; 1472.006; -509.121; -471.782
551.230;  419.500;  549.879;  460.218
551.510;   53.604; -381.121; -326.782
551.790;   51.274; -173.109; -127.803
552.070;  585.067;  940.877; 1181.223
552.350;  778.039; -492.119; -377.786
552.630; 1043.296;   -2.121;   77.219
552.909;  703.681;  181.884;   73.209
553.189;  478.144;  -49.132;   33.237
553.469;  353.238; -703.119; -514.786
553.749;  369.218; -469.127; -357.772
554.029;  302.766;   33.883;  -24.790
554.308;  289.699; -154.115;  -37.794
554.588;  141.705; -196.128; -204.770
554.868;  116.707; -366.121;  -47.782
555.147;  269.995; -114.115;  -46.793
555.427; 1180.684; -260.116; -250.792
555.707; 7129.291; -284.115; -200.793
555.986; 8008.353; -719.111; -538.800
556.266; 4519.971;   23.884;   72.210
556.546;  242.904; -888.121; -675.782
556.825;  506.807; -657.114; -556.794
557.105; 3298.301; -125.128;   17.230
557.384; 3595.279;  122.884;  187.209
557.664; 1440.583; -717.116; -508.792
557.943;  256.706; -557.121; -411.782
558.222;  334.254; -345.118; -344.788
558.502;  532.897; -116.115;  -76.793
558.781;  886.889;  194.885;  499.208
559.061;  708.553; -232.118; -227.788
559.340;  575.961;  302.883;  353.211
559.619; 1300.371;   93.884;  148.210
559.899; 1758.965; -239.117; -266.789
560.178; 1710.096; -778.115; -593.793
560.457; 5843.667; -623.117; -562.790
560.736; 7356.256; -472.111; -482.800
561.015; 5146.097; -500.128; -502.769
561.295;  799.307;  180.893;  215.193
561.574;  646.692;  119.885;  116.207
561.853;  938.681;  274.891;  303.197
562.132;  968.400;  -45.114;  182.206
562.411;  841.697;  396.879;  553.219
562.690;  255.989; -592.115; -458.792
562.969;  361.630;  472.888;  630.203
563.248; 1056.493; 2966.878; 2487.219
563.527;  540.254; -290.111; -408.800
563.806;  683.712; -650.127; -521.771
564.085;  777.933; -297.105; -206.810
564.364;  438.270; -594.117; -405.790
564.643;  982.097; -276.121; -223.781
564.922; 3379.271;  221.890;  397.198
565.201; 3196.277; -640.109; -700.803
565.479; 1512.987; -297.115; -219.792
565.758;  599.801; -810.128; -712.770
566.037;  872.179; -155.109; -100.803
566.316;  463.779; -286.116;  -28.791
566.595;  112.791;  -17.115;  -12.793
566.873;  239.758; -166.111;  -79.801
567.152;  -70.271; -490.113; -590.797
567.431;  104.972; -113.116;    6.210
567.709;   56.108; -344.107; -212.807
567.988;  510.606; -810.114; -769.794
568.266;  973.691; -160.115;  -68.793
568.545;  716.812; -644.100; -514.819
568.824; 1087.886;  160.885;  356.208
569.102;  965.706; -351.114; -235.794
569.381;  434.884; -492.116; -407.792
569.659;  -60.477; -553.113; -553.796
569.938;   95.890; -743.122; -465.780
570.216;  201.783; -225.109; -225.804
570.494;  -13.189; -632.114; -572.795
570.773;  156.104;  202.879;  114.218
571.051;   32.772; -373.123; -357.778
571.330;  145.019; -221.113; -174.796
571.608;   89.543; -181.098; -173.823
571.886; -105.455; -671.111; -581.799
572.164; -101.893; -739.121; -621.782
572.443;  -39.761; -562.105; -512.811
572.721;  -17.532; -399.117; -289.790
572.999;   -2.543; -280.117; -168.788
573.277;  220.928;  379.894;  620.191
573.555;  614.832;   94.894;   37.190
573.834; 2446.756;  -86.117; -114.788
574.112; 2714.312;  880.893;  811.193
574.390;  901.656; -143.111;  -96.801
574.668;   47.731;  -91.112;  -61.797
574.946;   -0.668; -165.106; -187.810
575.224;   60.377;   71.891;  -16.803
575.502;   -2.825; -200.116; -204.791
575.780; -134.068; -767.112; -829.798
576.058;  534.255; 1589.889; 1004.200
576.336;   22.764; -210.110; -129.801
576.614;  -93.767; -511.112; -340.798
576.891;  127.099; -711.115; -823.794
577.169;  884.797; -158.108; -285.805
577.447; 1109.011;  169.893;  202.193
577.725;  532.640;  629.888;  854.201
578.003;   58.137;  -71.112; -371.798
578.280;  197.854; -208.104; -242.812
578.558;  111.897; -450.115; -422.793
578.836;  244.911; -210.114; -145.795
579.114;  129.030; -630.112; -670.797
579.391;  161.759;   -6.117;  -18.789
579.669; -118.500; -595.114; -704.794
579.947;  411.905; -326.107; -127.806
580.224;  567.005; -692.107; -524.806
580.502;  556.712;  127.893;   76.193
580.779;   61.769;  -42.117;   75.210
581.057; -117.816; -584.109; -470.804
581.334; -150.621; -726.102; -695.815
581.612;  151.734;   54.895;  511.190
581.889;  -13.398;  -83.101; -129.818
582.167;   -0.774; -298.099; -190.821
582.444; -166.007; -845.102; -814.817
582.721;  258.594;  657.899;  715.183
582.999;  155.022; -326.100; -167.821
583.276;  970.579; -812.123; -713.779
583.553; 1213.385; -364.102; -294.816
583.831;  456.349; -607.104; -631.812
584.108;  169.593;  349.892;  174.195
584.385;   27.479; -122.102;  -98.815
584.662;  -86.941; -651.111; -828.801
584.940;  125.157;  204.889;  204.199
585.217;   -5.378;  -73.113; -303.796
585.494;   82.072;   71.890;  118.198
585.771;  423.785; -250.109; -354.804
586.048;  876.722; -196.113;  -76.796
586.325;  534.463; -721.110; -773.801
586.602;  243.355;  230.896;  213.188
586.879;    5.316; -499.100; -580.820
587.156;  137.835; -156.105; -331.810
587.433;  -68.911; -701.102; -667.817
587.710;  161.534;  152.888;  234.202
587.987;  590.544; -264.105; -236.811
588.264; 1413.937;  315.888;  387.202
588.541; 2606.459;  -61.104;   26.187
588.818; 4612.189;   72.892;  171.196
589.095; 4115.252; -163.104; -174.812
589.371;  723.282; -459.109; -414.804
589.648;   56.612; -581.107; -437.807
589.925;   74.312; -517.114; -621.795
590.202;   28.533; -741.112; -607.798
590.478;  180.747; -166.105;  -73.811
590.755;  539.999; -241.108; -132.806
591.032; 4506.166; -741.110; -699.802
591.308; 5678.310; -732.094; -790.831
591.585; 3095.766; -573.110; -560.802
591.862;  271.892;-1056.102; -950.817
592.138;  120.495; -475.108; -474.805
592.415;  349.256; -486.104; -495.813
592.691; 2778.153;  460.896;  518.188
592.968; 3238.946; -208.098; -123.824
593.244; 1662.173; -695.116; -595.790
593.521;  164.392; -105.102;  -42.817
593.797;   -6.015; -810.122; -720.780
594.074;  643.667; -611.096; -588.826
594.350; 1142.386;  828.905;  729.172
594.626;  579.959; -303.111; -283.801
594.903;  213.593; -643.101; -645.817
595.179;  388.463;  243.896;  418.187
595.455;   47.914; -136.107; -150.807
595.731;   96.865;  -19.103;  -38.814
596.008;  -38.851; -464.111; -434.800
596.284;  106.820; -187.100; -242.820
596.560;  127.121; -501.093; -493.833
596.836;  379.638; -173.105;  -70.810
597.112;  627.796; -582.108; -437.805
597.388;  527.164;  -49.097;  -48.826
597.665;  264.926;  437.887;  530.203
597.941; -101.929; -572.089; -658.839
598.217;   45.571; -323.110; -293.802
598.493;  568.188;   61.891; -204.804
598.769;  903.810; -175.100;  -50.819
599.045;  547.901; -490.108; -562.806
599.321;  134.618; -193.100; -261.820
599.597;  297.587; -355.109; -476.804
599.872;  900.659;  409.896;  429.187
600.148;  672.966;  -61.097; -172.826
600.424;  565.709;   91.893;  202.193
600.700;  413.813; -170.107; -280.807
600.976;  255.356; -442.097; -464.825
601.252;  473.381; -226.109; -272.803
601.527;  404.361; -833.104; -840.813
601.803;  281.148; -453.105; -404.812
602.079;  369.510; -124.100; -118.819
602.354; 1002.638; -620.092; -531.835
602.630; 1398.822; -140.113; -482.796
602.906; 4435.502; -910.101; -863.818
603.181;11439.339; -627.119; -534.786
603.457; 9844.862;   98.903; -278.826
603.733; 1533.611; -605.120; -626.783
604.008; 1889.833; -245.106; -164.810
604.284; 5264.296; -636.101; -580.817
604.559; 4646.740;   -3.112;  -42.799
604.835;  932.738; -163.105; -225.810
605.110;  780.627; -732.099; -892.821
605.385; 1262.526;  224.907;  267.167
605.661; 1253.090; -625.095; -729.829
605.936; 1980.102; -664.108; -737.806
606.211; 1723.977;  -17.103; -170.815
606.487;  390.604; -329.114; -376.794
606.762;   65.039; -791.119; -745.786
607.037;  -17.562; -501.105; -433.810
607.313;  -63.121; -589.096; -574.828
607.588;   49.732; -375.106; -137.810
607.863;   94.001;  -28.101; -143.818
608.138;  405.969;  513.890;  516.198
608.413;   82.833; -576.099; -592.822
608.688;  118.995; -203.108; -267.805
608.964;  353.023; -509.106; -218.809
609.239;  416.734; -107.105; -212.810
609.514;  502.447;  281.895;  240.188
609.789; 1130.254; -187.104; -716.812
610.064; 1522.477; -435.096; -609.827
610.339; 1614.482; -855.109; -799.804
610.614; 1974.919; -131.100; -315.820
610.889; 1185.347;  215.895;  107.188
611.163;   97.549; -407.104; -591.812
611.438;  181.806;   81.886; -167.794
611.713;   32.896; -467.101; -499.817
611.988;  147.299; -144.101; -328.818
612.263;  -46.321; -771.102; -717.815
612.538;  483.321;  385.887;  251.204
612.812;  286.021; -832.100; -911.820
613.087;  261.842; -358.098; -338.823
613.362;  -47.987; -497.107; -557.807
613.637;  116.370;  261.897;  138.186
613.911;    9.339; -256.092; -345.835
614.186;  274.711; -249.107; -292.807
614.460; 1205.998; -842.081; -758.854
614.735; 1337.010;  -55.087;  -17.843
615.010;  315.693;   43.912;  -82.841
615.284;  517.794;  360.892;  246.195
615.559;  632.037; -792.092; -955.835
615.833;  551.530;  -76.099;  -87.822
616.108;    2.657; -225.090; -390.837
616.382;  305.013;  274.913;  402.156
616.656;  304.057; -241.090; -232.837
616.931;  887.731; -785.099; -700.822
617.205; 1840.661; -973.104; -979.813
617.480; 1659.445;  -91.125;    6.225
617.754;  314.440; -396.125; -128.774
618.028;   57.191; -369.129; -382.768
618.302;  186.492;   73.892;  -25.805
618.577;  -58.528; -371.103; -518.815
618.851;  -45.724; -399.109; -600.803
619.125;  -66.684; -335.134; -378.759
619.399;  -21.338; -244.104; -374.813
619.673;  -44.314; -330.115; -515.792
619.947;  -49.889; -333.114; -448.795
620.222;   36.860; -198.110; -204.801
620.496;   45.107;  -47.121;  -96.782
620.770;   90.193; -187.122;  -93.781
621.044;  446.935;  323.895;  346.190
621.318; 1303.812; -653.120; -614.783
621.592; 1161.908; -430.121; -409.783
621.866;  599.942; -476.112; -572.799
622.140;   84.275; -207.116; -356.791
622.413;  162.449;  138.889;  112.200
622.687;  -70.904; -746.101; -492.817
622.961;   77.192; -130.108; -143.805
623.235; -101.950; -633.111; -661.800
623.509; -188.054; -816.105; -848.811
623.783;   73.507;  -12.107;   48.193
624.056;  -35.086; -254.120; -280.783
624.330;  146.931;   63.888;   -3.797
624.604;  155.570; -271.116; -355.790
624.877;  169.768;  180.890;   26.198
625.151;  131.102; -249.114; -238.794
625.425;  -32.535; -150.103; -283.814
625.698;  -73.271; -367.119; -374.785
625.972; -149.328; -799.110; -765.802
626.245;  206.973;  685.884;  484.210
626.519;  -22.680; -426.120; -340.784
626.792;  -34.387; -192.107; -380.807
627.066; -165.819; -485.122; -662.779
627.339; -167.335; -736.110; -663.802
627.613;  145.518;  351.880;  148.216
627.886;  181.875;  187.891; -612.803
628.160;   22.211;  312.880; -161.783
628.433; -145.051; -695.125; -703.775
628.706; -106.180; -517.120; -615.784
628.979;  114.160;  296.876;  117.223
629.253; -132.563; -785.119; -833.786
629.526;  687.623; -334.126; -253.772
629.799;  524.872; -641.123; -479.778
630.072;  318.493; -497.128; -516.769
630.346; -105.027;-1115.116;-1080.790
630.619;  827.014; -467.107; -545.808
630.892; 1118.851;  709.889;  593.200
631.165;  682.862;  790.896;  679.187
631.438; -141.163;-1092.112;-1055.798
631.711;  166.477;  453.877;  257.221
631.984;  -71.235; -523.117; -624.789
632.257;  -97.241; -636.117; -681.789
632.530;  -47.970; -412.119; -433.785
632.803;   93.398; -109.115;    7.207
633.076;  -91.933; -360.123; -422.777
633.349;   83.500;  173.872;  121.231
633.622;  -28.472; -187.119; -240.785
633.895; -217.087; -903.120; -823.783
634.167;  -97.973; -496.126; -525.773
634.440;   25.584;  -19.116; -137.792
634.713;   65.336;  -22.119; -120.786
634.986;  223.883;  593.871;  453.233
635.258; -136.705; -507.115; -597.793
635.531;  227.352;  742.882; -343.788
635.804;  -15.437; -303.117; -318.789
636.077; -161.723; -830.116; -852.791
636.349;    8.492; -586.115; -474.793
636.622;  793.022; 1695.874; 1392.228
636.894;  447.921; -474.120; -909.784
637.167;  268.012; -836.127; -789.771
637.439;   95.205; -278.128; -213.770
637.712;  -62.475; -312.126; -293.772
637.984; -130.822; -635.116; -707.791
638.257;  785.367;  515.877;  488.222
638.529;  989.851; -881.125; -924.776
638.802;  479.093; -508.128; -449.769
639.074; -189.809; -927.122; -952.781
639.346; -180.199; -942.135; -930.757
639.619;   38.491;  -79.142; -319.744
639.891;   33.981;  -83.122; -168.779
640.163; -133.916; -689.122; -756.780
640.435;   94.987;  273.878;  103.220
640.708;   39.390;  -72.122; -132.780
640.980;  -24.707; -366.122; -362.781
641.252;  422.696;  -25.121;  -71.781
641.524; 3298.199;  580.879;  573.219
641.796; 3139.303;-1094.121; -907.782
642.068;  609.406; -191.121; -300.782
642.340;  -78.291; -486.121; -566.783
642.613;  132.812;  294.880;  323.217
642.885; -159.285; -787.120; -878.783
643.157;  -73.082; -810.120; -658.784
643.428;  176.621;  170.880;  218.216
643.700;  -93.476; -498.120; -425.784
643.972;  -33.973;  -16.119; -133.785
644.244; -141.070; -474.119; -559.785
644.516;  -60.867; -250.119; -114.786
644.788;  195.337;  662.881;  548.214
645.060;   41.040;  -12.119; -124.786
645.332; -156.057; -525.118; -535.787
645.603;  126.446;  479.882;  342.213
645.875;  -90.751; -334.118; -369.787
646.147;  374.952; 1487.882; 1242.212
646.418; -111.745; -931.117; -918.788
646.690;  212.658; -714.117; -715.789
646.962;   79.461; -413.117; -451.789
647.233;   42.364;   15.883;   11.211
647.505; -144.933; -595.117; -475.790
647.776;  104.071;  328.884;  229.210
648.048;   -4.026; -248.116; -418.790
648.320;  -94.623; -752.116; -679.791
648.591; -270.220;-1055.116; -958.791
648.862; -125.017; -505.116; -577.792
649.134;   88.286;  115.885;  198.208
649.405;  -46.311; -661.115; -618.792
649.677; -107.308; -475.115; -598.793
649.948;   10.795; -181.115; -296.793
650.219;   57.198;  -37.115; -147.793
650.491; -112.099; -431.114; -520.794
650.762; -203.796; -705.114; -731.794
651.033; -123.592; -437.114; -424.795
651.304; -137.889; -743.114; -728.795
651.576; -116.786; -680.114; -645.795
651.847;  -18.283; -250.113; -140.796
652.118;   14.720;  -32.113; -189.796
652.389; -180.677; -639.113; -722.796
652.660;    4.126; -147.113;  -89.797
652.931; -265.171; -897.112; -871.797
653.202; -130.968; -382.112; -541.798
653.473;  -87.465; -633.112; -533.798
653.744;  273.338; -595.112; -590.798
654.015;  264.742; -356.112; -303.799
654.286;  -99.555; -642.111; -663.799
654.557;  -76.352; -586.111; -521.799
654.828; -268.449;-1114.111;-1088.800
655.099; -128.146; -404.111; -291.800
655.370; -168.543; -427.111; -543.801
655.641; -181.740; -656.110; -714.801
655.911; -145.337; -618.110; -638.801
656.182;  173.666;  437.890;  387.198
656.453;  268.969;  830.890;  746.198
656.724;  -94.228; -466.110; -426.802
656.994; -100.624; -553.109; -568.803
657.265; -154.621; -862.109; -873.803
657.536; -107.218; -500.109; -377.804
657.806; -145.715; -561.109; -593.804
658.077; -223.812; -866.109; -950.804
658.347; -129.909; -523.108; -598.805
658.618; -188.806; -646.108; -694.805
658.888;   31.897;  -41.108;  112.195
659.159; -112.100; -432.108; -548.806
659.429;   23.603; -292.108; -349.806
659.700;   43.706; -435.107; -390.807
659.970;    8.709; -370.107; -359.807
660.241;   65.713; -754.107; -921.807
660.511;  873.516; -147.107; -174.808
660.781;  196.419; -793.106; -748.808
661.052;  -25.578; -222.106; -381.808
661.322;   16.025;   21.894;   -9.809
661.592;  104.328;  257.894;  148.191
661.862;  -96.969; -369.106; -382.810
662.133;  -97.566; -551.105; -502.810
662.403; -183.863; -770.105; -676.810
662.673;  -72.860; -256.105; -213.811
662.943; -163.657; -612.105; -551.811
663.213;   -2.953;  -85.105;  -81.811
663.483; -109.150; -593.104; -568.812
663.753;  -81.447; -194.104; -152.812
664.023;   24.856;   68.896;  -32.813
664.293;  -78.041; -319.104; -126.813
664.563; -169.838; -694.104; -648.813
664.833; -213.235; -743.103; -608.814
665.103; -193.732; -730.103; -793.814
665.373; -190.329; -766.103; -806.814
665.643; -164.926; -863.103; -918.815
665.913;   92.677; -534.103; -714.815
666.182;  249.781; -685.102; -719.816
666.452;  443.284;  -22.102;  -89.816
666.722;  -24.213; -724.102; -784.816
666.992; -221.810; -948.102; -921.817
667.261; -144.607; -824.102; -808.817
667.531;  449.396;  134.899;   45.183
667.801;  947.499; -440.101; -412.818
668.070;  518.102;  714.899;  697.182
668.340; -164.295; -883.101; -840.819
668.609;  260.608;  588.900;  301.181
668.879; -119.589; -490.100; -558.819
669.149; -105.586; -539.100; -516.820
669.418; -169.382; -698.100; -726.820
669.688;  -12.279; -482.100; -666.820
669.957;  145.124; -423.099; -546.821
670.226;  -11.973; -268.099; -331.821
670.496; -127.670; -431.099; -635.822
670.765; -139.167; -418.099; -501.822
671.034; -188.164; -872.099; -828.822
671.304;   56.439;   55.902; -111.823
671.573; -269.358;-1085.098; -957.823
671.842;  173.945; -380.098; -294.823
672.112;   63.448; -692.098; -586.824
672.381;   23.152; -239.098; -214.824
672.650; -232.345;-1005.097;-1021.825
672.919; -149.642; -631.097; -507.825
673.188; -130.339; -681.097; -878.825
673.457; -258.836;-1101.097;-1143.826
673.726; -111.333; -579.096; -646.826
673.995;  -56.130; -533.096; -479.826
674.265;   -3.927; -263.096; -333.827
674.534;   67.076; -183.096; -235.827
674.802;   27.279; -618.096; -703.828
675.071; 1908.882; -886.095; -801.828
675.340; 6432.986; -464.095; -339.828
675.609; 2300.489;  103.905;   82.171
675.878;  162.292; -949.095; -893.829
676.147;  115.995;  -26.095;   -8.829
676.416;  199.998; -210.094; -294.830
676.685; 1336.701; 1000.906; -622.830
676.953;  183.204; -603.094; -452.831
677.222;   -6.693; -193.094; -273.831
677.491;   -8.190;  -24.094; -127.831
677.759;   27.913;   11.907;  172.168
678.028;   10.416; -279.093; -222.832
678.297;   41.119;   71.907;  197.168
678.565; -231.077; -898.093; -944.833
678.834;  -59.474; -311.093; -268.833
679.102;  -90.271; -411.092; -391.834
679.371; -243.668; -898.092; -727.834
679.639; -250.465; -797.092; -786.834
679.908; -201.962; -794.092; -724.835
680.176; -279.859; -895.091; -941.835
680.445; -111.556; -346.091; -352.835
680.713;   20.847;  -58.091;  -23.836
680.982; -123.350; -523.091; -525.836
681.250; -165.647; -578.091; -507.837
681.518; -138.543; -534.090; -751.837
681.787;   -0.740; -204.090; -167.837
682.055;  -94.137; -490.090; -422.838
682.323; -245.434; -993.090; -992.838
682.591;   80.469; -216.090; -538.838
682.859;  183.872;    9.911;  -35.839
683.128;  106.175;  232.911;  497.161
683.396; -272.822;-1102.089;-1122.840
683.664;  -34.019; -241.089;   21.160
683.932;   47.984;  144.911;  -76.840
684.200; -122.413; -576.088; -320.841
684.468;  -13.909;  -73.088; -124.841
684.736;  -35.806; -214.088; -175.841
685.004; -214.303;-1024.088; -982.842
685.272;  -89.300; -880.088; -774.842
685.540;  -78.097; -499.087; -557.843
685.808; -125.994; -651.087; -682.843
686.076; -181.291; -894.087; -969.843
686.343;  -48.188; -601.087; -815.844
686.611;   96.515; -195.087; -224.844
686.879;  936.618; -530.086; -553.844
687.147; 5505.821; -483.086; -480.845
687.414; 1639.924;  -12.086; -169.845
687.682;   69.728; -658.086; -757.846
687.950;  580.831;  259.915;  263.154
688.217;   21.034; -792.085; -760.846
688.485;   41.337; -632.085; -636.847
688.753;  928.340;  -11.085; -102.847
689.020;  245.343; -820.085; -851.847
689.288; -162.954; -853.084; -787.848
689.555;   -2.751; -195.084; -148.848
689.823;  -28.648; -241.084; -345.849
690.090; -113.845; -546.084; -651.849
690.358; -236.142; -877.084; -897.849
690.625;   78.762;  120.917;   45.150
690.892;  -83.535; -403.083; -369.850
691.160;   11.568;   72.917;  -35.850
691.427;   77.271;  141.917;  130.149
691.694; -202.526; -855.083; -929.851
691.962; -229.023;-1177.082;-1060.852
692.229;   90.480;  127.918;   56.148
692.496;  208.483;  130.918;  -49.852
692.763;   90.886; -164.082; -201.853
693.031; -111.611; -739.082; -716.853
693.298;  -32.808; -509.081; -368.853
693.565;  694.896; -155.081; -163.854
693.832; 2129.199;   -5.081;   -9.854
694.099;  272.302; -643.081; -642.855
694.366;  -89.195; -882.081; -896.855
694.633;  -60.692; -920.080; -633.855
694.900; 1613.911; 4367.920; -114.856
695.167;  769.714; -214.080; -380.856
695.434;  180.717; -646.080; -623.856
695.701;  458.820;  121.921;  -61.857
695.968;  838.123; -365.079; -361.857
696.234; 2048.826; -415.079; -646.858
696.501;19072.230; -776.079; -614.858
696.768; 9170.533; -554.079; -617.858
697.035;  630.936; -632.078; -667.859
697.302;  109.339; -448.078; -552.859
697.568;   73.842; -458.078; -497.859
697.835;  -11.955; -683.078; -624.860
698.102;    8.248; -498.078; -407.860
698.368;  223.051;  384.923;  396.139
698.635;   -1.846;  -47.077; -424.861
698.901;    0.957; -240.077; -348.861
699.168;  131.560; -534.077; -456.862
699.435;  183.063;  -72.077;  -13.862
699.701; -172.933; -868.076; -764.862
699.968;  -49.430;  144.924; -441.863
700.234; -131.227; -783.076; -822.863
700.500;  -35.024; -448.076; -539.864
700.767;   77.079;   -1.075;   26.136
701.033; -192.618;-1015.075; -963.864
701.299;  -63.115; -450.075; -483.865
701.566;  315.588;  950.925;  763.135
701.832;  140.091;  -31.075;  -76.865
702.098; -152.406;-1054.074;-1034.866
702.365; -147.703;-1098.074;-1030.866
702.631;  -29.899;-1038.074;-1063.867
702.897; 2595.004; -765.074; -676.867
703.163; 3854.607;  348.926;  254.133
703.429;  303.810; -256.073; -273.868
703.695;  -50.187; -796.073; -792.868
703.961;  121.416; -214.073; -210.868
704.227;  -73.281; -630.073; -725.869
704.493;  323.822;  613.927;  510.131
704.759;   13.825; -565.072; -540.870
705.025;  111.828; -203.072; -194.870
705.291;    6.631; -666.072; -562.870
705.557;  457.035;  719.928;   34.129
705.823;   87.938; -742.072; -694.871
706.089;  271.641; -307.071; -326.871
706.355;  757.044; -315.071; -244.872
706.620;11004.847; -776.071; -729.872
706.886;13879.150; -309.071; -362.873
707.152; 1356.853; -818.070; -973.873
707.418;   -9.344;-1153.070;-1186.873
707.683;   50.659; -550.070; -530.874
707.949;  -52.738; -547.070; -578.874
708.215;   50.465; -129.070; -207.874
708.480;   30.568; -520.069; -420.875
708.746;  220.772;   68.931;   28.125
709.011;  -77.925; -578.069; -612.876
709.277;  -74.322; -538.069; -543.876
709.542;  -28.219; -428.069; -387.876
709.808;   77.584;  -59.068;   89.123
710.073; -129.313; -577.068; -695.877
710.339;    1.390; -242.068; -228.877
710.604;  148.393; -780.068; -845.878
710.869;  569.296; -277.068; -366.878
711.135;  -84.001; -715.067; -628.879
711.400; -104.798; -507.067; -608.879
711.665;  -60.494; -404.067; -479.879
711.931; -120.191; -661.067; -677.880
712.196; -183.388; -876.067; -954.880
712.461;  260.915; -402.066; -490.880
712.726;  277.318; -727.066; -771.881
712.991; -138.179; -647.066; -664.881
713.256;  -55.576; -350.066; -332.882
713.521;  -73.873; -417.065; -381.882
713.787;  -92.570; -454.065; -472.882
714.052;   -5.367; -214.065; -400.883
714.317; -137.464;-1045.065; -981.883
714.581; 2105.340; -374.065; -268.883
714.846; 2504.643; -822.064; -888.884
715.111;  349.346;  261.936;  257.116
715.376;   -5.551;  -86.064; -223.885
715.641;   45.752; -365.064; -367.885
715.906;  508.055;   15.936; -551.885
716.171;  305.458;  221.937;  209.114
716.436;  124.661;  -78.063; -104.886
716.700; -165.136; -818.063; -692.886
716.965; -206.133; -794.063; -807.887
717.230;  -60.330; -339.063; -392.887
717.494;   -0.727;  -40.062; -134.888
717.759; -118.523; -784.062; -640.888
718.024;   80.480;  269.938;  250.112
718.288;  190.083;  685.938;  395.111
718.553; -218.014; -803.062; -977.889
718.817; -214.511; -883.061; -899.889
719.082;   26.392; -115.061; -125.890
719.346; -237.905;-1000.061; -947.890
719.611;  -49.102; -300.061; -255.891
719.875; -135.899; -568.060; -537.891
720.140;  -91.496; -453.060; -603.891
720.404;  117.407; -136.060; -249.892
720.668; 1518.511; -475.060; -411.892
720.933;  612.114;  146.940;  137.108
721.197; -130.383; -667.059; -600.893
721.461; -230.780; -851.059; -826.893
721.725;   39.223;  -21.059; -250.894
721.990;  -34.274; -284.059; -204.894
722.254;   29.429;  -26.059; -108.894
722.518; -112.868; -286.058; -442.895
722.782; -115.265; -743.058; -594.895
723.046;  337.538;  614.942;  570.105
723.310;  149.741;  374.942;  210.104
723.574;  -86.655; -654.058; -614.896
723.838; -162.252; -576.057; -642.897
724.102;   -9.649; -226.057; -239.897
724.366; -221.146;-1032.057; -978.897
724.630;  -94.643; -749.057; -571.898
724.894; -112.940; -722.057; -514.898
725.158;   28.063;   38.944; -295.898
725.422;  -16.634; -394.056; -327.899
725.685;  -72.131; -441.056; -349.899
725.949;  -89.628; -566.056; -519.900
726.213;  -81.125; -732.056; -811.900
726.477;  323.178;-1020.055; -933.900
726.740;  264.382; -274.055; -104.901
727.004;  742.985; -384.055; -510.901
727.268; 6193.888; -442.055; -400.901
727.531; 1551.091; -961.055; -775.902
727.795;  -43.906; -713.054; -673.902
728.059;  -67.203; -552.054; -557.903
728.322; -102.300; -841.054; -669.903
728.586;   64.203; -692.054; -701.903
728.849; -110.494; -695.053; -756.904
729.112; -193.991; -812.053; -912.904
729.376; -196.788; -959.053; -905.904
729.639;  -77.584; -536.053; -536.905
729.903; -151.581; -733.053; -699.905
730.166;   -6.878; -437.052; -399.906
730.429;    4.225; -317.052; -468.906
730.693;  -87.272; -355.052; -894.906
730.956;  505.831;  810.948;  651.093
731.219; 1262.634; -310.052; -103.907
731.482;  260.237;-1003.051; -894.907
731.745;  170.140; -794.051; -935.908
732.009;  144.143;  -30.051;   50.092
732.272; -111.854; -904.051; -771.909
732.535;  -36.550; -300.051; -310.909
732.798; -224.647;-1083.050;-1166.909
733.061;  -79.844; -430.050; -456.910
733.324;   93.959;   31.950; -180.910
733.587;  204.762;  290.950;  365.090
733.850; -101.835; -973.049;-1050.911
734.113;  129.468;   33.951;   32.089
734.376;   67.571; -328.049; -447.912
734.639;  505.774; 1188.951; 1011.088
734.901;  229.177; -180.049; -402.912
735.164;  987.680; -883.048; -837.913
735.427; 2126.383; -166.048; -355.913
735.690;  275.287; -205.048; -234.913
735.952;  -59.410; -923.048; -925.914
736.215;  -28.107;-1113.048;-1009.914
736.478;  113.996; -771.047; -774.915
736.740;  467.999;   33.953;  129.085
737.003; 1389.902; -658.047; -672.915
737.266; 6713.205;  -94.047;   46.084
737.528;  834.008; -682.047; -660.916
737.791;  615.411; -316.046; -327.916
738.053; 1619.614;  465.954;  649.083
738.316;20413.017; -162.046; -136.917
738.578;12825.321; -770.046; -736.918
738.841;  895.724; -382.046; -446.918
739.103;  373.027; -875.045; -777.918
739.365;  975.930;   79.955;  -69.919
739.628;   35.933; -884.045; -805.919
739.890;    0.236; -758.045; -710.919
740.152;   12.139; -692.044; -754.920
740.414;   24.142; -408.044; -359.920
740.677;  -59.555; -785.044; -634.921
740.939;  -10.752; -587.044; -487.921
741.201;  501.351; -432.044; -572.921
741.463;  120.455; -689.043; -745.922
741.725;   95.658;  -21.043; -199.922
741.987;  212.261;  220.957;  116.078
742.249;   53.664; -751.043; -859.923
742.511;  382.567; -703.043; -794.923
742.773;   53.370; -546.042; -546.924
743.035;  262.773;  796.958;  533.076
743.297;  -21.424; -963.042;-1013.924
743.559; 1330.679; -278.042; -262.925
743.821;  136.982; -735.042; -744.925
744.083;   73.385;  -44.041; -149.925
744.345;  -88.911; -869.041; -892.926
744.607;  155.292;   75.959;  122.074
744.868;  -43.605; -490.041; -554.927
745.130; -181.602; -994.041;-1008.927
745.392;  149.201;   -1.040;  -44.927
745.653;   50.004; -411.040; -378.928
745.915;  379.007;  896.960;  631.072
746.177;  153.410;   35.960;  -43.928
746.438;   58.813; -428.040; -543.929
746.700;  -36.284; -947.039; -988.929
746.961;   81.819; -659.039; -740.930
747.223;  347.622; -190.039;  -74.930
747.484;  223.426; -391.039; -471.930
747.746;  331.329;  -23.038; -106.931
748.007;  239.032; -647.038; -689.931
748.269;  608.335; -468.038; -440.931
748.530;  872.738; -852.038; -638.932
748.791;  508.141; -354.038; -420.932
749.053;  867.444;  286.963;  163.067
749.314;  890.347; -236.037; -169.933
749.575;  920.250; -945.037; -905.933
749.836; 1538.453; -217.037;   86.066
750.098; 5163.256;  -60.037;  -21.934
750.359;62065.960;  414.964;  555.066
750.620;14795.463; -121.036; -220.935
750.881; 1937.766; -585.036; -513.935
751.142; 2677.769; -950.036; -938.936
751.403;31028.072; -789.036; -705.936
751.664;11973.475;-1034.035; -999.936
751.925;  993.478; -175.035; -262.937
752.186;  586.681; -298.035; -278.937
752.447;  349.384; -590.035; -445.937
752.708;  177.687; -532.035; -648.938
752.969;   96.290; -566.034; -576.938
753.230;   34.394; -777.034; -672.939
753.491;   77.797; -650.034; -631.939
753.751;  212.500;  109.966;   19.061
754.012;  265.803;  258.967;  181.060
754.273;  193.906; -174.033;  -71.940
754.534;  106.809; -487.033; -580.940
754.794; -123.388; -926.033; -911.941
755.055;  377.515; 1051.967;  881.059
755.316;  -25.782; -700.032; -566.942
755.576;   21.521; -606.032; -576.942
755.837;   -9.376; -527.032; -695.942
756.097;  -12.573; -530.032; -564.943
756.358;  -63.669; -725.032; -770.943
756.618;  -46.766; -705.031; -641.943
756.879;   72.737; -254.031; -349.944
757.139; -186.660;-1098.031;-1116.944
757.400;  -33.757; -538.031; -553.945
757.660;   28.046; -365.031; -401.945
757.920;  110.949; -266.030; -228.945
758.181;   29.452; -468.030; -351.946
758.441; -134.845; -870.030; -809.946
758.701;    9.558; -308.030; -215.946
758.961;   -1.439; -220.030; -278.947
759.222;  -31.135; -574.029; -502.947
759.482;  -95.232; -683.029; -723.948
759.742; -111.029; -706.029; -547.948
760.002;   83.274;  -83.029; -143.948
760.262;  130.277;   50.972;  182.051
760.522;  -10.020; -498.028; -574.949
760.782;  -55.217; -738.028; -612.949
761.042;   -2.014; -618.028; -573.950
761.302;  166.489;   55.972;  -18.950
761.562;  163.092; -164.027; -154.951
761.822;  208.995; -710.027; -551.951
762.082;   -3.201;-1104.027;-1093.951
762.342;  187.602; -328.027; -403.952
762.601;  197.905; -567.027; -506.952
762.861;  701.408; -281.026; -207.952
763.121;  899.811; -406.026; -411.953
763.381;14816.514; -499.026; -485.953
763.640;13780.817; -139.026; -307.954
763.900;  744.220; -242.026; -203.954
764.160;  239.123; -458.025; -491.954
764.419;   10.826; -726.025; -782.955
764.679; -108.471; -795.025; -726.955
764.939;   70.932; -124.025; -210.955
765.198; -100.164; -608.025; -563.956
765.458; -113.361; -710.024; -612.956
765.717;  -98.758; -454.024; -590.957
765.976;  -42.855; -428.024; -411.957
766.236; -112.552; -475.024; -610.957
766.495;  131.751;  260.977;   73.042
766.755; -131.646;-1090.023; -987.958
767.014;   64.157; -594.023; -665.958
767.273;  -64.440; -373.023; -397.959
767.533;  -12.137; -228.023; -307.959
767.792;  -13.234; -151.022; -188.960
768.051;  -11.430; -228.022; -276.960
768.310; -123.627; -546.022; -650.960
768.569;   62.076; -161.022;    4.039
768.828;    2.279; -285.022; -363.961
769.088; -180.518;-1050.021; -942.961
769.347;  -79.915; -755.021; -599.962
769.606; -128.912; -876.021; -857.962
769.865; -160.109;-1016.021;-1033.963
770.124;   53.694; -411.021; -336.963
770.383;  -62.003; -778.020; -910.963
770.641;   54.700; -398.020; -400.964
770.900;  -76.496; -953.020; -846.964
771.159;  -59.393; -851.020; -951.964
771.418;   43.810; -917.020; -779.965
771.677;  305.013; -224.019; -293.965
771.936;  285.316; -794.019; -865.966
772.194; 4971.619; -465.019; -437.966
772.453;19359.322; -213.019; -391.966
772.712; 1465.825;  416.982;  329.033
772.970;  311.528;   32.982;   63.033
773.229;  262.231;  -22.018;  102.033
773.488;  -75.466; -814.018; -770.968
773.746;  207.737;  296.982;  335.032
774.005;  119.241;  190.983;  -22.969
774.263;   97.644;  243.983;  177.031
774.522;  -92.153; -422.017; -548.969
774.780;  -91.950; -484.017; -417.970
775.039; -138.247; -551.017; -531.970
775.297;   26.956; -135.016; -351.970
775.555; -145.841; -489.016; -612.971
775.814; -184.838; -618.016; -570.971
776.072; -199.535; -749.016; -740.971
776.330; -156.032; -630.016; -520.972
776.589; -150.429; -703.015; -721.972
776.847; -179.825; -645.015; -624.973
777.105; -255.522;-1016.015;-1032.973
777.363; -106.119; -459.015; -454.973
777.621; -222.916; -660.015; -717.974
777.879;   43.187;  -42.014;   32.026
778.138; -118.310; -554.014; -717.974
778.396; -108.907; -585.014; -526.975
778.654; -262.104;-1015.014; -970.975
778.912;  -60.101; -269.014; -371.976
779.170; -186.298; -880.013; -803.976
779.427; -226.795; -922.013; -897.976
779.685; -201.191; -880.013; -832.977
779.943; -121.688; -654.013; -593.977
780.201; -241.885; -964.012; -883.978
780.459; -175.182; -651.012; -610.978
780.717;  -64.479; -440.012; -390.978
780.974; -128.676; -449.012; -490.979
781.232;  -63.673; -358.012; -338.979
781.490;  -85.370; -551.011; -472.979
781.747; -127.667; -555.011; -476.980
782.005;  105.036;  462.989;  254.020
782.263; -262.161; -542.011;-1004.981
782.520;  -90.458; -326.011; -501.981
782.778; -254.054;-1013.010;-1051.981
783.035; -270.251; -962.010; -938.982
783.293;  -81.048; -248.010; -206.982
783.550;  -33.645; -134.010; -198.982
783.808; -206.942; -764.010; -776.983
784.065; -242.539; -745.009; -874.983
784.322;   -7.636;   25.991;  -86.984
784.580; -201.333; -915.009; -771.984
784.837; -135.730; -392.009; -466.984
785.094; -183.227; -783.009; -762.985
785.352;  -55.624; -304.008; -404.985
785.609; -194.320; -934.008; -839.985
785.866;  -90.017; -345.008; -401.986
786.123;  -81.714; -639.008; -583.986
786.380; -173.511; -665.008; -604.987
786.637;  -30.508; -225.007; -380.987
786.895;    5.195; -456.007; -543.987
787.152;  -31.002; -135.007; -267.988
787.409;   -0.099; -123.007; -225.988
787.666; -100.596; -299.006; -378.988
787.923; -163.293; -616.006; -695.989
788.179; -154.290; -551.006; -584.989
788.436; -138.186; -585.006; -585.990
788.693;    1.417;  -92.006;  -87.990
788.950;  363.520; -125.005; -112.990
789.207;  403.523; -381.005; -372.991
789.464;  -16.974; -161.005; -301.991
789.720;   58.429;  150.995;  110.009
789.977; -265.268;-1003.005; -671.992
790.234;   21.735;   44.996;  -66.992
790.490; -225.462; -884.004;-1031.993
790.747;   27.141;  -85.004;   22.007
791.004;   17.444; -426.004; -348.993
791.260;  -74.653; -430.004; -560.994
791.517; -136.649; -843.003; -788.994
791.773;  -58.346; -379.003; -342.994
792.030; -166.643; -596.003; -660.995
792.286; -145.540; -686.003; -636.995
792.543;   26.063;  -74.002; -159.995
792.799;  -18.534; -584.002; -382.996
793.055; -243.831;-1179.002;-1210.996
793.312; -143.228; -827.002; -816.997
793.568;  -28.525; -746.002; -599.997
793.824;   99.178; -226.001; -284.997
794.081;   95.381; -447.001; -508.998
794.337;  174.085; -664.001; -561.998
794.593; 3045.988; -319.001; -271.999
794.849;11754.291; -746.001; -772.999
795.105;  630.594; -270.000; -261.999
795.361;   91.097; -490.000; -457.000
795.617;  -67.400; -875.000; -945.000
795.873;  -25.500; -360.000; -407.000
796.129;   -4.300; -368.000; -306.000
796.385;   46.200; -124.000; -156.000
796.641;  218.100;  412.000;  550.000
796.897;  -87.600; -666.000; -635.000
797.153;  179.200;  453.000;  357.000
797.409; -142.200; -785.000; -868.000
797.665;  -95.600; -625.000; -732.000
797.921;  -98.700; -775.000; -762.000
798.176;  -48.200; -744.000; -747.000
798.432;  -40.300; -824.000; -596.000
798.688; -103.900;-1174.000;-1078.000
798.943;  261.500; -165.000; -147.000
799.199;   20.800;-1005.000; -959.000
799.455;  554.200;  369.000;  316.000
799.710;  265.000; -813.000; -380.000
799.966;  602.200; -162.000; -160.000
800.221;  967.200; -638.000; -721.000
800.477;21014.500; -743.000; -710.000
800.732;14782.900; -773.000; -800.000
800.988; 1256.300;  205.000;  -19.000
801.243; 4212.700; -454.000; -344.000
801.498;14198.700; -814.000; -739.000
801.754;  839.400; -289.000; -163.000
802.009;  238.400; -257.000; -335.000
802.264;  -28.600; -967.000;-1033.000
802.520;  113.100;  222.000;   -3.000
802.775;   -9.400; -524.000; -359.000
803.030;  190.300;  395.000;  356.000
803.285; -158.600; -840.000; -903.000
803.540;  -33.300; -686.000; -699.000
803.795;  -17.400; -648.000; -583.000
804.051;   -4.100; -279.000; -346.000
804.306;  133.600;  168.000;  128.000
804.561;  343.300;  451.000;  362.000
804.816;  363.500;  714.000;  861.000
805.071;   94.700; -185.000; -280.000
805.325;  378.900; -257.000; -427.000
805.580; -133.800; -841.000; -877.000
805.835;   39.000; -204.000; -297.000
806.090; -101.300; -760.000; -676.000
806.345;   43.300; -344.000; -264.000
806.600;   -0.500; -549.000; -632.000
806.854;   29.600; -408.000; -538.000
807.109;   55.400; -493.000; -577.000
807.364;   87.100; -407.000; -328.000
807.618;   49.900; -415.000; -381.000
807.873;  131.900; -470.000; -494.000
808.128;  252.900; -257.000; -518.000
808.382;  255.200; -224.000; -332.000
808.637;  157.300; -440.000; -511.000
808.891;  427.100; -257.000; -180.000
809.146;  227.100; -902.000; -794.000
809.400;  505.300; -848.000; -923.000
809.654;  637.500; -779.000; -551.000
809.909;  978.100; -841.000; -927.000
810.163;13854.700; -813.000; -651.000
810.418;28302.400; -940.000; -861.000
810.672; 1823.900; -685.000; -690.000
810.926; 1335.600; -993.000; -973.000
811.180; 2915.900; -439.000; -372.000
811.434;60216.900;  240.000;  135.000
811.689;19560.600; -231.000; -365.000
811.943; 1133.900; -936.000; -953.000
812.197;  671.100; -893.000; -671.000
812.451;  314.500; -379.000; -514.000
812.705;   29.100; -809.000; -619.000
812.959;    3.200; -263.000; -388.000
813.213;   92.100; -283.000; -209.000
813.467;  214.100;  470.000;  253.000
813.721; -125.400; -764.000; -792.000
813.975; -140.300; -826.000; -877.000
814.229;  183.200;  430.000;  353.000
814.482;  -54.000; -517.000; -566.000
814.736; -154.300; -766.000; -744.000
814.990; -167.400; -779.000; -872.000
815.244;   -1.200; -228.000; -285.000
815.497; -115.800; -636.000; -601.000
815.751;    3.000; -141.000;   82.000
816.005;  -90.300; -470.000; -586.000
816.258;  -29.000; -510.000; -363.000
816.512; -141.700; -693.000; -610.000
816.766;  111.700;  121.000;  157.000
817.019;  137.200;  148.000;  149.000
817.273; -154.600;-1000.000; -802.000
817.526;   15.200; -206.000; -173.000
817.779;  -13.400;-1049.000; -960.000
818.033;  -95.100; -693.000; -807.000
818.286; -163.600; -725.000; -792.000
818.540; -124.900; -403.000; -403.000
818.793; -104.600; -402.000; -489.000
819.046; -124.800; -582.000; -520.000
819.299;   11.000; -157.000; -166.000
819.553; -157.000; -552.000; -592.000
819.806; -250.700;-1016.000; -838.000
820.059;  -52.600; -334.000; -354.000
820.312;   72.200;  152.000;  185.000
820.565;   29.400;  110.000;  -27.000
820.818;  -27.000;  -59.000; -173.000
821.071; -267.700;-1041.000; -957.000
821.324; -158.000; -536.000; -540.000
821.577; -149.500; -457.000; -483.000
821.830;  -56.200; -270.000; -172.000
822.083; -191.900; -733.000; -288.000
822.336;   25.800; -261.000; -167.000
822.589; -184.000; -805.000; -688.000
822.842; -193.300; -875.000; -770.000
823.094; -281.300;-1076.000;-1114.000
823.347; -199.200; -925.000; -729.000
823.600;  118.900;  402.000;  187.000
823.853;  -23.200; -311.000; -267.000
824.105;  -79.100; -331.000; -575.000
824.358; -147.700; -617.000; -716.000
824.611;  115.200;  234.000;   40.000
824.863;  -27.100; -612.000; -591.000
825.116;  192.800;  -33.000;   27.000
825.368;  214.100; -366.000; -372.000
825.621;  356.600; -186.000; -240.000
825.873;  187.800; -704.000; -737.000
826.126; 1321.700; -669.000; -641.000
826.378;21993.600; -389.000; -505.000
826.630; 4153.900; -890.000; -898.000
826.883;  112.600; -754.000; -693.000
827.135;  121.500; -279.000; -270.000
827.387; -142.900; -893.000; -839.000
827.639;   20.100;  -86.000;   32.000
827.892; -172.300; -742.000; -582.000
828.144; -202.000; -848.000; -804.000
828.396;   -9.400;  104.000;  -80.000
828.648; -135.300; -440.000; -333.000
828.900; -217.200; -702.000; -795.000
829.152; -152.600; -684.000; -683.000
829.404;  -59.500; -215.000; -267.000
829.656;   88.900;  321.000;  214.000
829.908;   43.000;  393.000;  229.000
830.160; -273.200;-1064.000;-1047.000
830.412; -111.600; -481.000; -430.000
830.664; -162.900; -557.000; -665.000
830.916;  -89.500; -268.000; -206.000
831.167; -285.900;-1073.000; -951.000
831.419; -145.200; -623.000; -566.000
831.671; -235.400; -764.000; -809.000
831.923; -119.000; -311.000; -447.000
832.174;  -75.300; -273.000; -331.000
832.426; -158.700; -493.000; -582.000
832.678; -292.300;-1043.000;-1091.000
832.929; -247.800; -947.000; -935.000
833.181;  -84.100; -575.000; -677.000
833.432;  -16.800;  -59.000; -186.000
833.684;   54.500;  112.000;  -27.000
833.935; -134.900; -610.000; -566.000
834.187; -172.400; -829.000; -823.000
834.438;   16.600;  -58.000;  -25.000
834.689;  -75.400; -255.000; -123.000
834.941;  -22.600; -343.000; -244.000
835.192; -109.300; -590.000; -533.000
835.443; -104.600; -419.000; -506.000
835.695;   64.100;  138.000;  -16.000
835.946; -108.300; -608.000; -378.000
836.197; -175.700; -599.000; -622.000
836.448; -119.500; -528.000; -395.000
836.699;  -45.300; -253.000; -341.000
836.950;   59.500;   72.000;    7.000
837.201; -215.500;-1003.000; -987.000
837.452;  -24.700; -356.000; -170.000
837.703; -174.300; -791.000; -737.000
837.954;  -11.700; -205.000; -365.000
838.205; -114.300;-1029.000;-1008.000
838.456;  349.900; -196.000; -282.000
838.707;   39.400; -423.000; -519.000
838.958;   79.300; -634.000; -647.000
839.209;  596.700;   18.000;   40.000
839.460;  233.000; -439.000; -201.000
839.710;  377.600; -135.000; -297.000
839.961;  821.100;  730.000;  612.000
840.212;  674.900; -382.000; -497.000
840.462; 2339.000; -328.000; -277.000
840.713;34275.300; -571.000; -536.000
840.964;10750.800;  -62.000; -143.000
841.214;  950.300; -384.000; -624.000
841.465; 1054.600; -214.000; -141.000
841.715;  957.900; -417.000; -380.000
841.966; 1251.400; -746.000; -685.000
842.216;19171.800; -330.000; -431.000
842.466;56045.200; -169.000; -313.000
842.717; 2352.400; -964.000; -952.000
842.967;  623.600; -635.000; -641.000
843.217;  553.600;   20.000;   28.000
843.468;  205.600; -104.000; -132.000
843.718;  -31.600; -718.000; -726.000
843.968; -118.000; -837.000; -765.000
844.218;   71.300; -315.000; -262.000
844.469;  -29.800; -577.000; -561.000
844.719; -131.200; -537.000; -682.000
844.969; -144.200; -550.000; -580.000
845.219; -209.300; -814.000; -862.000
845.469;  -87.400; -392.000; -342.000
845.719; -217.300; -792.000; -884.000
845.969;   16.400;  119.000;  174.000
846.219; -168.800; -738.000; -720.000
846.469;  125.900;  464.000;  432.000
846.718;   -4.700; -115.000;   31.000
846.968; -180.500; -827.000; -827.000
847.218;  -35.900; -224.000; -371.000
847.468; -131.900; -586.000; -555.000
847.718; -207.000; -827.000; -798.000
847.967; -200.700; -826.000; -915.000
848.217;  -79.000; -449.000; -569.000
848.467;  -64.800; -405.000; -376.000
848.716; -161.400; -708.000; -725.000
848.966;   66.200; -372.000; -358.000
849.215;  -62.200; -428.000; -419.000
849.465; -135.200; -785.000; -615.000
849.714; -229.900;-1132.000;-1150.000
849.964;  -86.200; -551.000; -613.000
850.213;   -8.400; -393.000; -355.000
850.463;  238.100;  137.000;  340.000
850.712;   67.100; -542.000; -567.000
850.961;   75.200; -739.000; -678.000
851.211;  220.100; -513.000; -504.000
851.460;  373.700; -635.000; -650.000
851.709; 1115.000;  -25.000;   18.000
851.958;21441.000; -912.000; -750.000
852.208;20524.500; -859.000; -879.000
852.457;  837.900; -181.000;  -13.000
852.706;  195.000; -791.000; -823.000
852.955;   54.600; -507.000; -528.000
853.204;  -51.300; -521.000; -461.000
853.453; -109.000; -418.000; -458.000
853.702; -183.700; -660.000; -750.000
853.951; -154.200; -532.000; -520.000
854.200; -132.300; -613.000; -562.000
854.449; -164.000; -695.000; -661.000
854.698;  -80.400; -340.000; -279.000
854.946;  -48.800; -181.000; -284.000
855.195; -245.500; -843.000; -868.000
855.444; -112.800; -395.000; -420.000
855.693; -158.200; -345.000; -432.000
855.941; -136.400; -387.000; -516.000
856.190;  -55.900; -256.000; -382.000
856.439; -186.600; -652.000; -703.000
856.687;  -23.200;  -99.000;  -72.000
856.936; -167.200; -621.000; -323.000
857.184; -313.400;-1067.000;-1020.000
857.433; -126.700; -423.000; -512.000
857.681; -267.600; -989.000; -953.000
857.930;  -83.700; -282.000; -433.000
858.178; -264.800; -856.000; -929.000
858.427; -241.100; -802.000; -781.000
858.675; -167.600; -377.000; -544.000
858.923; -177.200; -527.000; -819.000
859.172; -296.100;-1094.000;-1070.000
859.420;  -98.700; -339.000; -239.000
859.668; -207.500; -624.000; -628.000
859.916;   51.300;  109.000;  115.000
860.164; -150.400; -699.000; -603.000
860.413;  638.100; -878.000; -696.000
860.661;  331.700; -709.000; -577.000
860.909;  -93.000; -339.000; -325.000
861.157;  -91.800; -277.000; -444.000
861.405; -178.500; -534.000; -670.000
861.653;   93.900;  310.000;  310.000
861.901;  387.800; -543.000; -613.000
862.149;  -66.400; -801.000; -824.000
862.396;  -61.700; -297.000; -187.000
862.644; -118.600; -368.000; -347.000
862.892;    8.100;   98.000;  138.000
863.140; -154.600; -549.000; -530.000
863.388; -245.700; -815.000; -759.000
863.635; -210.100; -642.000; -601.000
863.883;   60.500;  231.000;  190.000
864.131; -101.700; -288.000; -357.000
864.378; -201.600; -675.000; -540.000
864.626; -139.400; -347.000; -415.000
864.873; -141.700; -556.000; -505.000
865.121; -220.500; -714.000; -799.000
865.368;  -22.000; -173.000;   75.000
865.616;   -2.300;  -33.000;  -40.000
865.863;  -90.800; -462.000; -506.000
866.111; -149.200; -795.000; -824.000
866.358;  171.400; -426.000; -420.000
866.605; 5068.500;  -64.000; -804.000
866.853; 4002.000; -621.000; -537.000
867.100;  -67.700; -728.000; -775.000
867.347; -136.400; -672.000; -611.000
867.594; -104.900; -740.000; -714.000
867.841;  191.400;   97.000;   17.000
868.089; -208.600; -746.000; -698.000
868.336; -132.300; -477.000; -420.000
868.583; -205.900; -637.000; -741.000
868.830;  -34.700; -131.000; -170.000
869.077; -246.800; -859.000; -787.000
869.324; -185.300; -502.000; -458.000
869.571; -175.600; -398.000; -430.000
869.818; -169.900; -485.000; -439.000
870.065; -141.500; -439.000; -513.000
870.311; -145.000; -456.000; -542.000
870.558; -144.100; -332.000; -311.000
870.805;  -88.600; -320.000; -384.000
871.052; -153.600; -494.000; -369.000
871.298;  -62.900; -204.000; -131.000
871.545;  -74.200; -151.000; -185.000
871.792; -108.100; -173.000; -222.000
872.038;  -42.500;   43.000; -126.000
872.285; -164.800; -496.000; -387.000
872.532; -117.900; -357.000; -387.000
872.778;   93.300;  556.000;  403.000
873.025; -128.700; -384.000; -359.000
873.271;  135.300;  501.000;  578.000
873.517;   23.200; -133.000; -209.000
873.764;   -7.400; -193.000;  -80.000
874.010;  -85.700; -143.000; -230.000
874.257;   -2.500;  123.000;   90.000
874.503; -172.500; -579.000; -479.000
874.749;  -46.800;   31.000;  275.000
874.995;  -63.300;  -80.000;  -20.000
875.242; -184.300; -540.000; -478.000
875.488; -147.200; -414.000; -439.000
875.734;  -20.800; -106.000; -234.000
875.980;  467.600; -872.000;-1032.000
876.226;  617.100; -157.000; -255.000
876.472;   66.200;  343.000;  237.000
876.718;   26.200;  184.000;  158.000
876.964;    6.200;   56.000;   55.000
877.210; -198.700; -547.000; -677.000
877.456; -192.400; -630.000; -557.000
877.702; -292.200; -821.000; -832.000
877.948; -156.400; -377.000; -497.000
878.193;  107.600;  361.000;  255.000
878.439; -145.500; -487.000; -472.000
878.685; -122.800; -272.000; -343.000
878.931; -198.700; -618.000; -676.000
879.176;  -88.300; -201.000; -201.000
879.422; -273.200; -933.000; -820.000
879.668;  244.300;   10.000;   79.000
879.913;  318.900;   53.000;  137.000
880.159;  -36.300; -112.000;  -17.000
880.404;  -34.200; -152.000; -162.000
880.650;   10.400;   91.000;  141.000
880.895; -255.000; -670.000; -710.000
881.141; -181.900; -454.000; -428.000
881.386; -190.300; -503.000; -658.000
881.631; -172.300; -311.000; -166.000
881.877;  -22.000;  112.000;  -13.000
882.122; -177.200; -684.000; -600.000
882.367;  -89.500; -136.000; -186.000
882.612;  -76.700;  -80.000; -176.000
882.858; -296.800; -877.000; -823.000
883.103; -107.400; -297.000; -267.000
883.348; -255.300; -759.000; -852.000
883.593; -222.800; -677.000; -602.000
883.838;  -28.900; -311.000;  -24.000
884.083;  118.200;  353.000;  288.000
884.328; -112.100; -564.000; -545.000
884.573;  -29.200; -196.000; -143.000
884.818;  509.200; -694.000; -531.000
885.063;  317.000; -348.000; -315.000
885.308; -117.600; -475.000; -398.000
885.553;   45.900;  245.000;  325.000
885.797; -211.500; -545.000; -615.000
886.042;   -2.700;    8.000;   58.000
886.287;  -79.300; -253.000; -211.000
886.532;  -29.900;   26.000;  204.000
886.776; -149.500; -407.000; -525.000
887.021; -214.100; -621.000; -574.000
887.265; -216.500; -685.000; -689.000
887.510; -198.100; -557.000; -496.000
887.755; -107.800; -194.000; -164.000
887.999; -214.900; -552.000; -575.000
888.244;  -69.800;  -58.000;  161.000
888.488;   74.300;  371.000;  393.000
888.732; -175.800; -368.000; -520.000
888.977; -180.400; -622.000; -567.000
889.221; -248.500; -683.000; -659.000
889.465; -204.300; -422.000; -566.000
889.710;  -75.700;  -56.000; -299.000
889.954;   96.500;  579.000;  467.000
890.198; -218.000; -584.000; -707.000
890.442; -227.300; -716.000; -712.000
890.687; -248.200; -800.000; -753.000
890.931;  -84.100; -273.000; -210.000
891.175; -173.300; -502.000; -500.000
891.419;  -76.500; -105.000; -110.000
891.663;  -90.600; -239.000; -112.000
891.907; -222.800; -801.000; -545.000
892.151; -255.800; -920.000; -815.000
892.395; -131.600; -274.000; -387.000
892.638;   38.000;  408.000;  291.000
892.882; -271.200; -780.000; -867.000
893.126;  140.300;  758.000;  558.000
893.370;  -93.800; -167.000; -168.000
893.614; -223.500; -714.000; -715.000
893.857;  -84.500; -183.000; -197.000
894.101; -196.100; -527.000; -631.000
894.345;  -37.600;  300.000;  150.000
894.588;  131.200;  569.000;  380.000
894.832;  -77.100; -178.000;  -84.000
895.075;  -88.300;   15.000;  -92.000
895.319; -161.400; -552.000; -420.000
895.563; -182.700; -413.000; -353.000
895.806; -229.200; -628.000; -741.000
896.049;  -19.900; -576.000; -368.000
896.293;  270.700;  527.000;  405.000
896.536;  -92.800; -465.000; -468.000
896.779;  -36.300; -149.000;   -1.000
897.023; -198.100; -751.000; -714.000
897.266;   -2.500;  325.000;  269.000
897.509; -283.900; -900.000; -901.000
897.752;   14.400;  149.000;  171.000
897.996; -302.800; -972.000; -864.000
898.239;   12.400;  168.000;  102.000
898.482; -175.500; -431.000; -453.000
898.725;   -4.200;  101.000;   53.000
898.968; -242.500; -609.000; -744.000
899.211; -118.400; -513.000; -361.000
899.454; -178.300; -633.000; -539.000
899.697;  -61.500;   90.000;  -43.000
899.940; -246.700; -761.000; -757.000
900.182; -130.400; -335.000; -405.000
900.425; -103.300; -150.000; -298.000
900.668;   60.400;  491.000;  350.000
900.911; -119.600; -292.000; -345.000
901.154;  -21.500;  141.000;   -3.000
901.396; -192.500; -407.000; -412.000
901.639; -187.800; -430.000; -496.000
901.882; -279.200; -790.000; -809.000
902.124;  -93.600;  -29.000; -143.000
902.367; -142.600; -315.000; -361.000
902.609; -210.300; -476.000; -453.000
902.852;  -79.600; -108.000; -260.000
903.094; -168.900; -458.000; -337.000
903.337;  -27.300;  -26.000;   53.000
903.579; -121.900; -228.000; -441.000
903.821; -238.500; -597.000; -744.000
904.064;   -2.600;   85.000;  127.000
904.306;  -93.300; -126.000; -166.000
904.548; -125.700; -152.000; -366.000
904.790; -121.500; -195.000; -340.000
905.033; -196.200; -625.000; -577.000
905.275; -172.100; -513.000; -524.000
905.517;  166.900;  468.000;  256.000
905.759;  -84.200; -667.000; -761.000
906.001; -117.500; -322.000; -369.000
906.243;  -62.600; -162.000; -224.000
906.485;  365.400; -265.000; -207.000
906.727;  210.700; -499.000; -542.000
906.969;   25.000;  -30.000; -135.000
907.211;  345.900; -316.000; -382.000
907.453;  595.900; -188.000; -237.000
907.695;   44.800; -158.000; -385.000
907.936;  208.500;  818.000;  706.000
908.178;  -36.000;   92.000; -135.000
908.420;  -61.700; -111.000; -162.000
908.662; -205.400; -633.000; -682.000
908.903;  -99.300; -208.000; -123.000
909.145;  -23.800; -240.000; -305.000
909.386;   82.900;  315.000;  280.000
909.628;  155.600;  363.000;  397.000
909.870;   98.800;   29.000;  264.000
910.111; -128.300; -809.000; -949.000
910.353;  114.700; -123.000; -161.000
910.594;   61.400; -574.000; -606.000
910.835;  234.000; -265.000; -326.000
911.077;  341.600; -503.000; -604.000
911.318;  633.400; -505.000; -471.000
911.559;  954.900; -577.000; -880.000
911.801; 2874.000; -284.000; -280.000
912.042;24610.600;  -50.000; -159.000
912.283;51718.600;  404.000;  371.000
912.524; 6232.500; -396.000; -457.000
912.765; 1008.800; -193.000;   79.000
913.006;  528.600; -307.000; -338.000
913.247;  140.800; -270.000; -290.000
913.488;   68.100;  -43.000;   30.000
913.729;  -67.500; -373.000; -373.000
913.970;  -41.100;  -96.000; -292.000
914.211;  -87.100; -160.000; -198.000
914.452;  -38.300; -118.000;  -11.000
914.693;  120.900;  510.000;  592.000
914.934;  102.300;  510.000;  440.000
915.175;  -59.200;   53.000;  -95.000
915.415;  -68.200; -137.000;   27.000
915.656;  -75.500;  -28.000;  192.000
915.897; -104.800; -252.000;  -82.000
916.137;  -54.900;   74.000;   -9.000
916.378; -210.900; -573.000; -517.000
916.619;  -92.600; -159.000;  -63.000
916.859;   54.300;  303.000;  330.000
917.100;  366.000; 1655.000; 1070.000
917.340;  235.400;  930.000;  728.000
917.581;  221.100;  965.000;  789.000
917.821;   31.700; -171.000;  143.000
918.061;   73.000; -199.000;  -72.000
918.302;  -26.200; -152.000; -211.000
918.542;   23.300;  -22.000;    3.000
918.782;  126.300;  369.000;  377.000
919.023;  373.900;  360.000;  427.000
919.263; 3035.900; 8131.000;  202.000
919.503; 2134.000; -137.000;  -54.000
919.743; 1285.000;  390.000;  266.000
919.983;  490.800; -134.000;  -26.000
920.223;  219.800;  135.000;   14.000
920.463;  347.900;  631.000;  554.000
920.703;  316.500;   84.000;   39.000
920.943;  392.600; -110.000;   90.000
921.183;  508.000; -414.000; -405.000
921.423; 1110.500;  307.000;  546.000
921.663; 1497.800; -174.000; -257.000
921.903; 3393.200;  237.000;  173.000
922.143;20128.400;  372.000;  389.000
922.383;64345.000;  158.000;  115.000
922.622;18271.600; -120.000;  -15.000
922.862; 2308.000;  796.000;  785.000
923.102;  960.700;  -51.000;   33.000
923.341;  425.800;   59.000;   74.000
923.581;  253.300;  450.000;  360.000
923.821;  145.200;  301.000;  398.000
924.060;  133.500;  351.000;  193.000
924.300;  -49.900;  -16.000; -128.000
924.539;   84.400;  584.000;  473.000
924.779;   88.500;  812.000;  597.000
925.018;  -16.500;  247.000;  353.000
925.257;   80.500;  595.000;  666.000
925.497;   55.400;  447.000;  412.000
925.736;  -68.500;  -35.000;  102.000
925.975;  106.700;  687.000;  669.000
926.214;  131.400;  907.000;  850.000
926.454;  143.900;  706.000;  757.000
926.693;   11.400;  419.000;  543.000
926.932;  160.200; 1021.000;  825.000
927.171;  253.400; 1107.000; 1044.000
927.410;  195.700; 1144.000;  967.000
927.649;  143.700;  924.000;  742.000
927.888;   94.400;  590.000;  564.000
928.127;   91.800;  680.000;  678.000
928.366;  129.800;  842.000;  826.000
928.605;  183.400;  831.000;  737.000
928.844;  584.300; 1451.000; 1393.000
929.083; 1257.300;  770.000;  613.000
929.321;  670.700; 1335.000; 1359.000
929.560;  234.800; 1158.000; 1122.000
929.799;   42.000;  574.000;  475.000
930.038;  259.600; 1025.000; 1394.000
930.276;  -29.000;  334.000;  397.000
930.515;   89.900;  827.000;  681.000
930.753;   34.500;  614.000;  589.000
930.992;   39.800;  664.000;  717.000
931.230;   98.000;  847.000;  847.000
931.469;  450.800; 2162.000;  892.000
931.707;  227.000;  840.000;  751.000
931.946;  227.700; 1278.000; 1344.000
932.184;  212.400; 1437.000; 1175.000
932.423;  182.500; 1265.000;  963.000
932.661;  258.300; 1296.000; 1428.000
932.899;  170.100;  987.000;  821.000
933.137;  127.800;  754.000;  564.000
933.376;  387.100; 1664.000; 1335.000
933.614;  413.900; 1759.000; 1196.000
933.852;  203.600; 1357.000; 1171.000
934.090;  344.500; 1722.000; 1747.000
934.328;  312.100; 1252.000; 1457.000
934.566;  288.500; 1431.000; 1110.000
934.804;  345.900; 1263.000; 1309.000
935.042; 1117.500; 1861.000; 1850.000
935.280; 4309.300; 2088.000; 2063.000
935.518; 3322.800; 2113.000; 2007.000
935.756;  734.700; 2481.000; 2316.000
935.994;  411.500; 1808.000; 1751.000
936.231;  814.800; 2890.000; 2950.000
936.469;  460.700; 2367.000; 2378.000
936.707;  431.100; 2220.000; 2167.000
936.945;  592.800; 2825.000; 2882.000
937.182;  498.500; 2679.000; 2741.000
937.420;  723.800; 3602.000; 3031.000
937.657;  970.900; 3365.000; 3478.000
937.895;  753.600; 3331.000; 3488.000
938.133;  736.100; 3540.000; 3528.000
938.370;  772.900; 3896.000; 4191.000
938.607;  892.400; 4488.000; 4205.000
938.845; 1202.800; 5587.000; 5549.000
939.082; 1088.000; 5387.000; 5177.000
939.320; 1148.200; 5799.000; 5728.000
939.557; 1409.200; 6549.000; 6491.000
939.794; 1566.700; 7285.000; 7097.000
940.031; 1932.200; 8421.000; 8368.000
940.269; 2337.800; 9552.000; 9107.000
940.506; 2401.600;10901.000;10507.000

