
Integration time [ms]: 200.000
Averaging Nr. [scans]: 10
Smoothing Nr. [pixels]: 0
Data measured with spectrometer [name]: 2101013U2
Wave   ;Sample   ;Dark     ;Reference
[nm]   ;[counts] ;[counts] ;[counts] 

394.013;  -90.157; -450.257; -315.536
394.305; -146.058; -461.258; -419.536
394.596; -176.069; -676.269; -527.514
394.887; -186.268; -796.268; -654.518
395.178;   30.336;  145.736;   11.476
395.470;  -54.063; -210.263; -356.526
395.761;  101.534;  305.734;  394.479
396.052;  -95.684; -545.284; -306.489
396.343; -135.976; -557.276; -454.503
396.634;  -82.879; -200.279; -290.497
396.926; -133.668; -618.268; -565.517
397.217;   -2.275;   11.725;  -17.504
397.508;  -84.173; -366.273; -154.507
397.799; -165.579; -555.279; -571.497
398.090; -241.680; -973.280; -902.495
398.381;   27.008;   11.708;  -11.473
398.672; -187.492; -585.292; -742.473
398.963;  -98.679; -348.279; -373.498
399.254;   -5.291;   54.709; -209.475
399.545; -272.166;-1017.266; -883.520
399.836;  -69.177; -407.277; -343.501
400.127;  -33.095; -205.295; -209.468
400.418;  -76.674; -423.274; -392.506
400.709;  -55.081; -359.281; -333.493
401.000;  -49.991; -268.291; -309.476
401.290;   69.698;  225.698;  115.545
401.581;  -12.886; -166.286; -228.485
401.872; -134.798; -542.298; -486.462
402.163;  -70.896; -313.296; -252.467
402.454;  -41.991; -123.291; -163.475
402.744; -194.197; -844.297; -813.465
403.035;  -79.993; -226.293;  -86.471
403.326;  -84.892; -366.292; -384.474
403.617;   54.301;  204.701;  165.539
403.907; -115.183; -593.283; -679.490
404.198; -123.908; -545.307; -599.446
404.489; -169.283; -618.283; -588.491
404.779; -184.002; -618.302; -660.456
405.070;   12.396;  -67.304; -174.451
405.360;  -53.593; -259.293; -238.472
405.651;    5.399;  125.699;   98.542
405.942;   67.514;  209.714;  127.516
406.232; -129.985; -432.285; -413.487
406.523;  228.806;  641.706;  758.530
406.813; -166.986; -579.286; -644.484
407.104;   70.108;  261.708;  144.527
407.394; -187.999; -604.299; -591.462
407.685;   67.615;  336.715;  222.513
407.975; -109.283; -400.283; -382.490
408.265;  -13.989; -134.289; -190.478
408.556; -109.491; -472.291; -459.475
408.846;  198.906;  474.706;  429.530
409.137;    0.112;   -1.288; -216.480
409.427;  -80.285; -193.285; -271.487
409.717; -198.573; -776.273; -692.508
410.007;  -35.085;    4.715; -170.486
410.298;  -88.495; -360.295; -342.469
410.588; -134.385; -495.285; -510.486
410.878; -230.087; -792.287; -873.482
411.168;  -93.798; -481.298; -478.463
411.459;  -65.383; -295.283; -242.489
411.749; -186.092; -609.292; -507.474
412.039; -205.489; -755.289; -386.480
412.329;   69.122;   40.722;  132.501
412.619;  -14.286;  -62.286; -148.485
412.909;  206.411;  639.711;  594.521
413.199;  -55.380; -130.280; -251.495
413.490;  165.310;  521.710;  352.523
413.780; -246.879;-1013.279; -913.496
414.070;   51.224;  -46.276;  235.497
414.360; -198.078; -729.278; -666.498
414.650; -201.788; -726.288; -688.482
414.940; -101.980; -538.280; -441.496
415.230;   21.612;   50.712;   74.519
415.520;   51.430;  155.730;   66.486
415.809;  -28.382; -305.281; -125.493
416.099;  -93.377; -388.277; -229.501
416.389;  125.626;  435.726;  236.494
416.679;   64.138;   91.738;   85.473
416.969; -134.587; -527.287; -503.483
417.259;   70.321;  341.721;  171.503
417.549;  108.718;  522.718;  318.508
417.838;  -52.268; -205.268; -147.518
418.128;  199.610;  650.710;  492.522
418.418; -154.972; -491.272; -579.509
418.708;   16.926;    9.726;  -48.506
418.997; -117.075; -474.275; -480.505
419.287; -216.274; -733.273; -790.507
419.577;  -37.983; -160.283; -123.489
419.866; -127.377; -588.277; -498.501
420.156;  -48.370; -242.270;  -55.513
420.446;  -32.563; -112.263;  -26.526
420.735; -135.471; -376.271; -446.512
421.025;  569.322; 1830.722;  315.502
421.314;  -71.671; -203.271; -226.512
421.604;   24.332;   89.732;  233.484
421.893; -172.871; -705.271; -602.511
422.183; -159.763; -487.263; -461.526
422.472;  -10.871;  -36.271; -107.511
422.762; -112.966; -416.266; -379.521
423.051; -237.176; -916.276; -916.503
423.341; -137.373; -491.273; -439.507
423.630;  -29.765; -121.265;   15.477
423.919;   10.425;   58.725;   49.495
424.209;  -40.163;  -31.263;   56.473
424.498;   19.332;   68.732;  161.483
424.787; -124.367; -535.267; -601.518
425.077;   -0.765;   34.735;   29.478
425.366; -211.162; -734.262; -744.528
425.655;  198.527;  639.727;  259.493
425.945;  -74.347; -313.247; -268.554
426.234;   16.741;  117.741;  300.467
426.523;  -64.159;  -86.259; -350.534
426.812;   33.034;  107.734;  159.480
427.101;   21.231; -127.269; -323.515
427.390;   -4.470;  -55.270;  -86.514
427.680; -122.157; -624.257; -411.538
427.969;  -57.555; -330.255; -301.540
428.258;  -98.057; -385.257; -477.536
428.547;   75.328;  449.728;  397.490
428.836; -131.053; -421.253; -398.543
429.125;  -54.659; -199.259;  -72.534
429.414; -113.051; -330.251; -294.548
429.703;  -90.651; -231.251; -213.548
429.992; -259.650; -938.250; -828.549
430.281; -100.764; -397.264; -331.524
430.570;   -2.652;  -21.252;   32.454
430.859;   60.941;  279.741;  352.466
431.148;  202.552;  636.752;  631.446
431.437;   73.248;  391.748;  367.454
431.725; -131.357; -544.257; -481.536
432.014; -267.653; -845.253; -756.545
432.303;  -37.639; -149.239; -105.569
432.592; -130.463; -460.263; -178.525
432.881; -176.748; -601.248; -437.554
433.169;  -42.755; -343.255;  -61.540
433.458;  114.665;  445.765;  540.424
433.747; -136.661; -397.261; -289.529
434.036;  -93.842; -275.242; -280.564
434.324; -162.749; -395.249; -379.551
434.613;   45.757;   40.757;  159.437
434.902;   85.360;  333.760;  439.433
435.190;   50.461;   75.761;  295.431
435.479;  -51.745;  -52.245;   83.441
435.767; -134.444; -411.244; -427.561
436.056; -140.342; -340.242; -294.563
436.345; -119.840; -372.240; -223.568
436.633;   58.950;   60.750;  383.450
436.922;   96.760;  208.760;  414.432
437.210;  -73.336; -194.236;    1.426
437.499; -192.335; -583.235; -432.576
437.787; -105.036; -339.236;  -10.574
438.075;   25.461;   56.761;  162.430
438.364;   -0.338;  -44.238;  250.429
438.652;  -98.726; -286.226; -138.592
438.941;   -6.630;    3.770;  269.415
439.229; -191.952; -665.252; -466.545
439.517;  -82.634; -160.234;  -85.577
439.806; -157.925; -501.225; -290.595
440.094;   91.966;  377.766;  650.421
440.382; -137.933; -653.233; -302.580
440.670; -102.535; -361.235; -285.576
440.959; -130.223; -347.223; -170.599
441.247;  -57.129; -151.229; -109.587
441.535;  -57.635; -266.235;   31.423
441.823; -175.834; -497.234; -305.578
442.111;   54.371;  173.771;  327.412
442.400; -179.745; -628.245; -335.559
442.688;  -31.934; -111.234; -620.579
442.976; -264.713; -786.213; -450.617
443.264; -158.524; -324.224; -364.597
443.552;  -42.026; -258.226;   51.408
443.840;  142.665;  602.765;  876.423
444.128;   61.467;  265.767;  269.420
444.416; -169.628; -694.228; -312.588
444.704; -137.919; -465.219;  -92.605
444.992;  -25.726;   -0.226;  240.407
445.280; -143.430; -517.230;  -94.585
445.568; -179.612; -694.212; -396.618
445.856;  -44.221; -174.221;  357.398
446.143;  -96.320;  -54.220;   -7.604
446.431;   28.572;  -25.228;  625.411
446.719;  167.283;  489.783;  675.391
447.007;  127.669;  481.769;  705.416
447.295;  151.977;  597.777;  871.402
447.583; -115.929; -464.229;  -34.587
447.870; -133.321; -434.221; -202.601
448.158;  -50.330; -104.230;  129.415
448.446; -210.719; -800.219; -338.604
448.733;  -58.624;   13.776;  269.403
449.021;   20.688;   60.788;  341.382
449.309;  -57.010; -296.210;  208.379
449.596;   30.383;  128.783;   59.392
449.884; -152.622; -571.222; -325.600
450.172; -215.627; -756.227; -406.590
450.459;  152.686;  645.786;  780.387
450.747; -151.818; -411.218; -147.608
451.034;  143.472;  493.772;  889.411
451.322; -120.814; -413.214; -170.614
451.609;   37.077;  292.777;  508.403
451.897; -158.303; -550.203; -183.634
452.184; -230.023; -622.223; -400.598
452.472;   20.892;   97.792;  269.375
452.759;  169.281;  512.781;  864.395
453.047; -126.512; -407.212; -125.617
453.334; -174.319; -732.219; -216.606
453.621; -153.414; -438.214; -161.615
453.909;   18.696;   13.796;  384.368
454.196;  -91.399; -299.199; -123.641
454.483;   44.598;  317.798;  540.364
454.771;  -54.208; -215.208;  196.374
455.058; -109.007; -316.207;  102.374
455.345;   23.007;   71.807;  344.347
455.632;  -32.807; -128.207;  235.373
455.919;  -28.596;  -82.196;  182.354
456.207; -256.399; -774.198; -450.642
456.494; -163.000; -475.200;  -66.639
456.781; -159.602; -399.202; -198.635
457.068;  -55.806; -253.206;  -29.628
457.355; -194.206; -698.206; -401.629
457.642; -142.305; -552.205; -290.630
457.929; -207.194; -778.194; -417.651
458.216; -186.412; -575.212; -354.617
458.503;  -81.893; -173.193;  -19.652
458.790; -256.208; -864.208; -630.625
459.077;  -58.102;  -77.202;  110.364
459.364; -114.095; -350.195; -210.649
459.651;    5.494;  -46.206;  220.372
459.938; -251.509; -864.209; -665.623
460.225;   11.899;  132.799;  276.363
460.512; -286.097; -836.197; -688.645
460.799;   20.882;  -32.218;  320.392
461.086; -138.900; -370.200; -251.640
461.372; -190.698; -509.198; -279.642
461.659;  -39.796; -165.196;  108.354
461.946;  -91.093; -445.193;  -54.651
462.233;  224.400;  842.800;  888.361
462.519; -260.101; -814.201; -464.639
462.806; -221.397; -768.197; -497.645
463.093; -107.291; -445.191;  -66.656
463.380; -269.586; -920.186; -824.664
463.666;  -57.497; -259.197;  -18.646
463.953; -103.295; -406.195; -243.648
464.239;  -84.295; -173.195;  -77.648
464.526;  102.006;  413.806;  743.350
464.813; -172.690; -565.190; -304.658
465.099;   82.407;  606.807;  607.348
465.386;  202.407;  903.807;  921.348
465.672; -206.997; -694.197; -522.645
465.959; -189.388; -598.188; -520.662
466.245; -149.593; -468.193; -359.652
466.532;  -27.295; -109.195;   63.352
466.818; -107.786; -357.186; -216.664
467.104; -177.682; -488.182; -415.672
467.391; -182.989; -628.189; -459.658
467.677;  -82.086; -289.186;    9.335
467.964; -183.889; -682.189; -471.660
468.250;  -98.486; -331.186; -160.665
468.536;    8.111;   90.811;  180.341
468.822; -245.984; -821.184; -574.668
469.109;  115.727;  351.827;  471.311
469.395;  160.408;  729.808;  787.346
469.681;   -1.889;   46.811;  156.341
469.967; -166.988; -699.188; -382.660
470.254; -112.188; -494.188; -306.662
470.540; -165.796; -601.196; -476.646
470.826; -162.281; -488.181; -397.675
471.112;   -0.484;  288.816;  113.331
471.398;  -50.883; -253.183;  -58.670
471.684; -167.277; -626.177; -447.680
471.970; -285.480; -918.180; -981.675
472.256; -152.692; -521.192; -441.654
472.542; -162.171; -499.171; -434.691
472.828; -210.182; -743.182; -607.672
473.114; -112.966; -380.166; -283.700
473.400; -149.375; -504.175; -293.684
473.686; -111.466; -452.166; -400.701
473.972;  -62.174; -230.174; -131.687
474.258; -241.973; -925.173; -843.689
474.544;  -33.778; -183.178;   -2.679
474.830;  -28.975;  -65.175;   45.316
475.116;  -80.590; -123.190; -196.658
475.401;  -96.380; -558.180; -467.676
475.687; -211.780; -725.180; -718.676
475.973; -186.681; -673.181; -770.673
476.259;  171.225;  736.825;  764.315
476.544; -156.776; -539.176; -437.682
476.830; -146.372; -398.172; -322.690
477.116; -137.677; -430.177; -336.682
477.401;  122.220;  346.820;  358.324
477.687; -133.875; -289.175; -405.684
477.973;  -28.481;   21.819;   28.326
478.258; -109.163; -448.163; -348.706
478.544;   16.715;   21.815;   61.334
478.829; -211.871; -818.171; -738.692
479.115; -189.372; -749.172; -651.690
479.401; -109.874; -444.174; -449.686
479.686;  -17.680; -253.180;  -74.676
479.972; -232.678; -886.178; -776.680
480.257;  -92.066; -258.166;  -65.700
480.542; -151.170; -614.170; -469.693
480.828;  347.024; 1288.824; 1392.317
481.113; -157.376; -464.176; -426.683
481.399;  -94.261; -236.161; -202.711
481.684; -184.166; -620.166; -462.700
481.969;  -13.659; -158.159;  -73.713
482.255; -128.069; -439.169; -285.695
482.540; -165.678; -569.178; -441.680
482.825; -129.587; -395.187; -404.663
483.110;  -52.769;  -85.169; -105.696
483.396; -231.657; -840.157; -652.718
483.681;  197.126;  543.826;  730.313
483.966; -207.060; -696.160; -700.712
484.251;  -99.474; -404.174; -310.687
484.536;  -95.365; -356.165; -378.703
484.822;  -91.873; -205.173; -218.687
485.107; -169.352; -599.152; -502.726
485.392;  164.336;  662.836;  541.296
485.677;   22.432;  354.832;  163.302
485.962;   75.743;  160.843;  270.283
486.247;   12.738;  -14.162;   -8.707
486.532; -104.866; -178.166; -325.701
486.817;   92.339;  381.839;  431.291
487.102; -132.954; -453.154; -514.722
487.387; -182.856; -637.156; -652.718
487.672;  -39.164; -154.164;  -38.705
487.957;  -80.360; -394.160; -286.711
488.241;  -85.350; -290.150; -314.729
488.526;  -79.752; -280.152; -148.726
488.811; -273.577; -881.177; -818.680
489.096; -213.254; -666.154; -702.723
489.381;    0.247;    3.847;  162.275
489.666; -108.761; -428.161; -510.710
489.950;  183.246;  558.846;  627.277
490.235; -163.851; -480.151; -458.728
490.520; -218.861; -756.161; -723.710
490.804; -259.456; -827.156; -736.719
491.089; -111.049; -469.149; -299.732
491.374;  -23.264; -132.164;  -75.704
491.658; -214.347; -817.147; -717.735
491.943; -173.652; -657.152; -609.727
492.227;  -66.155; -178.155;  -38.721
492.512; -100.757; -294.157; -341.717
492.797; -223.149; -713.149; -716.731
493.081; -198.347; -588.147; -598.735
493.366; -198.761; -751.161; -635.711
493.650;  256.659;  831.859;  917.254
493.935; -183.947; -648.147; -447.734
494.219; -201.342; -778.142; -687.743
494.503; -187.750; -585.150; -487.730
494.788;   -8.358;   46.842;   74.285
495.072;   76.150;  184.850;  434.271
495.356; -129.648; -463.148; -343.733
495.641; -252.446; -812.146; -736.736
495.925; -274.756; -976.156; -903.719
496.209; -192.749; -599.149; -451.732
496.494; -200.242; -763.142; -544.744
496.778; -129.154; -364.154; -360.722
497.062; -209.856; -819.156; -627.719
497.346; -201.860; -869.160; -640.711
497.631;  146.852;  580.852;  560.266
497.915;  -26.945;  -64.145;  175.261
498.199; -106.757; -341.157; -277.718
498.483; -157.152; -562.152; -508.725
498.767;   90.050;  301.850;  300.271
499.051;  -21.349; -126.149; -100.732
499.335; -221.149; -693.149; -739.731
499.619; -165.829; -381.129; -423.767
499.903;  -79.155; -272.155;  -65.721
500.187; -196.853; -588.153; -316.724
500.471; -257.952; -796.152; -595.727
500.755;  -62.261;   62.839;  -96.710
501.039; -114.355; -270.155; -357.721
501.323;   15.859;  -21.141;  264.254
501.607; -133.663; -447.163; -503.706
501.891; -153.556; -607.156; -512.718
502.174; -201.044; -726.144; -585.741
502.458;   49.049;   89.849;  370.273
502.742;  -58.938; -180.138; -191.751
503.026;  -93.647; -412.147; -254.734
503.310; -139.659; -437.159; -375.713
503.593; -143.847; -464.147; -325.735
503.877;  -87.133; -232.133; -156.760
504.161;  -52.753;    2.847;  -50.724
504.444; -238.258; -841.158; -710.716
504.728; -169.864; -487.164; -522.704
505.012;  -64.150; -257.150;  -76.729
505.295; -120.061; -417.161; -212.711
505.579; -100.356; -256.156; -496.719
505.862; -149.345; -555.145; -333.738
506.146; -213.559; -681.159; -758.714
506.429;  116.441;  568.841;  461.286
506.713; -172.251; -732.151; -667.728
506.996;  -19.754;   90.846;  295.278
507.280; -172.465; -633.165; -474.703
507.563; -147.455; -469.155; -261.721
507.847; -176.553; -423.153; -112.724
508.130; -202.061; -665.161; -456.711
508.413; -178.067; -758.167; -577.700
508.697;  -36.967; -151.167;   12.300
508.980; -124.353; -422.153; -312.724
509.263; -147.455; -466.155; -450.720
509.547;  -30.250; -124.150;   82.271
509.830;  -15.160; -172.160;  140.289
510.113;   29.744;  128.844;  298.281
510.396; -147.152; -530.152; -300.725
510.680; -262.745; -818.145; -812.738
510.963;    2.846;  184.846;  180.277
511.246; -147.150; -493.150; -357.730
511.529; -116.245; -482.145;  -83.739
511.812;  -48.234; -250.134;   10.241
512.095; -208.451; -740.151; -396.728
512.378; -115.247; -317.147; -245.736
512.661; -198.637; -703.137; -623.753
512.944; -229.642; -750.142; -637.744
513.227;  -94.837; -170.137; -171.752
513.510; -156.844; -479.144; -671.741
513.793; -190.440; -485.140; -435.747
514.076;  -40.127;  -43.127;  -39.771
514.359;  -77.849; -294.149; -135.732
514.642; -162.742; -442.142; -567.744
514.925;  138.360;  581.860;  561.253
515.208; -141.434; -498.134; -443.758
515.491; -105.033; -276.133; -182.761
515.773; -158.643; -410.143; -337.742
516.056;   65.364;  249.864;  409.246
516.339; -225.936; -754.136; -652.755
516.622; -173.750; -518.150; -488.730
516.904;  250.657;  882.857;  975.257
517.187; -215.338; -730.138; -523.752
517.470; -172.143; -568.143; -510.743
517.752; -155.136; -624.136; -470.756
518.035; -195.439; -708.139; -725.749
518.318; -256.136; -799.136; -744.755
518.600; -145.532; -300.132; -325.762
518.883;   20.558;  310.858;   88.256
519.165; -198.338; -585.138; -426.751
519.448;  -42.632;  -61.132;  -19.762
519.730; -187.926; -573.126; -415.773
520.013;  187.167;  588.867;  664.240
520.295;  -39.834;  -94.134;  -15.759
520.578;  -89.031; -335.131; -305.764
520.860;  -46.832; -254.132;   56.238
521.143; -208.535; -763.135; -584.756
521.425;  -97.525; -251.125; -279.775
521.707; -170.927; -622.127; -380.771
521.990;    7.073; -199.127;  167.229
522.272;  -38.840; -116.140;   -4.748
522.554;  -82.443; -237.143; -157.742
522.836;  -75.734;  -24.134;   99.241
523.119; -116.248; -496.148; -189.734
523.401; -123.430; -448.130; -314.766
523.683; -266.737; -865.137; -693.753
523.965;   43.162;  408.862;  260.248
524.247;  -21.622;   54.878;  170.220
524.529; -165.834; -451.134; -367.759
524.812;  -31.930;   -3.130;  191.234
525.094; -258.038; -773.138; -631.751
525.376;  -63.724; -143.124;   78.223
525.658; -148.736; -441.136; -339.754
525.940; -269.831; -805.131; -671.764
526.222; -121.736; -188.136;  -88.755
526.504;  -80.131; -190.131;   32.237
526.786; -285.933; -960.133; -647.760
527.068;  -80.123; -124.123;  -67.778
527.349; -260.937; -865.137; -774.754
527.631;  -60.232; -137.132;   22.238
527.913; -228.727; -664.127; -450.771
528.195; -246.325; -761.125; -639.774
528.477;  -46.734;  -93.134;  -30.758
528.759; -188.830; -648.130; -522.766
529.040; -191.023; -569.123; -293.778
529.322;  -79.325; -235.125;  -10.774
529.604;  -37.230;  -47.130;   93.233
529.886; -132.726; -546.126; -302.773
530.167;   32.370;  232.870;  192.235
530.449;  -32.747;    1.853;   63.265
530.731; -202.922; -572.122; -459.779
531.012; -139.020; -513.120; -216.784
531.294;  -92.016; -118.116;  -43.792
531.575;   82.775;  290.875;  538.225
531.857; -176.235; -548.135; -266.757
532.138;  -58.741; -113.141;   40.254
532.420;   34.565;  294.865;  403.244
532.701; -247.533; -722.133; -751.760
532.983;   37.667;  232.867;  182.239
533.264;  -60.526; -243.126;  175.228
533.546; -152.836; -491.136; -508.755
533.827;  -34.033;  173.867;   -1.759
534.109; -153.635; -352.135;  -80.757
534.390; -242.132; -725.132; -582.762
534.671;  -83.135; -270.135;  -82.756
534.953; -228.423; -751.123; -611.779
535.234; -155.517; -426.117; -255.789
535.515; -245.119; -891.119; -735.785
535.796; -138.428; -431.128; -193.770
536.078; -338.024;-1050.124; -904.777
536.359;  -63.723;  -22.123;    3.221
536.640; -136.225; -480.125; -197.774
536.921;   63.771;  225.871;  143.232
537.202;  -79.138;  -87.138;  -16.751
537.483;   44.269;  251.869;  377.236
537.764;  -24.230;   17.870;   98.235
538.045; -188.834; -543.134; -371.758
538.326; -189.629; -596.129; -447.768
538.607; -232.427; -686.127; -476.771
538.888;  -50.221;   98.879;    5.218
539.169; -193.222; -704.122; -535.781
539.450;   51.571;  236.871;   16.233
539.731;  -97.321; -361.121; -182.783
540.012;   15.980;  199.880;  412.216
540.293;  -36.124;   82.876;  158.224
540.574; -277.413; -895.113; -717.796
540.855;   62.679;  435.879;  377.218
541.136;   -8.722;   47.878;  139.220
541.416; -106.030; -161.130; -220.766
541.697; -115.931; -274.131; -170.763
541.978; -131.035; -270.135; -315.757
542.259; -125.827; -211.127; -236.771
542.539; -133.216; -191.116; -186.790
542.820;  123.875;  461.875;  480.225
543.101;  -95.445;  -52.145;  -77.738
543.381; -288.127; -638.127; -591.771
543.662;  -18.327;  159.873; -254.771
543.942; -263.927; -751.127; -830.770
544.223;  -29.322;  193.878;  161.219
544.504; -110.424; -275.124; -182.777
544.784; -212.626; -592.126; -408.773
545.065; -111.716;  104.884; -254.791
545.345;  -39.019;  227.881;   14.215
545.626;  -56.713;  -14.113; -108.796
545.906;  -12.931;   77.869;   98.235
546.186; -115.526;   92.874;  -95.773
546.467;  -73.923;   99.877;  -95.778
546.747;   37.784;  264.884;  327.210
547.027;  -13.124;   91.876;  111.223
547.308; -182.327; -376.127; -530.770
547.588;    4.171;  299.871;  371.232
547.868;   86.070;  458.870;  588.235
548.149;  145.885;  609.885;  593.207
548.429; -132.927; -347.127; -299.771
548.709; -227.520; -645.120; -461.784
548.989;  -16.018;   84.882;   88.213
549.269; -116.832;   10.868;  139.239
549.550;  -38.823;  215.877;  117.222
549.830; -223.811; -758.111; -556.799
550.110; -150.410; -468.110; -320.801
550.390; -122.822; -128.122;  -56.779
550.670; -253.214; -868.114; -783.795
550.950; -176.321; -509.121; -471.782
551.230;  100.679;  549.879;  460.218
551.510; -156.021; -381.121; -326.782
551.790;  -61.409; -173.109; -127.803
552.070;  274.977;  940.877; 1181.223
552.350; -148.219; -492.119; -377.786
552.630;  -17.821;   -2.121;   77.219
552.909;   15.584;  181.884;   73.209
553.189;  -79.632;  -49.132;   33.237
553.469; -203.319; -703.119; -514.786
553.749; -175.027; -469.127; -357.772
554.029;  -44.717;   33.883;  -24.790
554.308;  -60.615; -154.115;  -37.794
554.588; -120.428; -196.128; -204.770
554.868; -114.421; -366.121;  -47.782
555.147; -101.415; -114.115;  -46.793
555.427; -154.716; -260.116; -250.792
555.707; -118.815; -284.115; -200.793
555.986; -235.611; -719.111; -538.800
556.266;  -36.516;   23.884;   72.210
556.546; -258.621; -888.121; -675.782
556.825; -248.114; -657.114; -556.794
557.105;  -44.128; -125.128;   17.230
557.384;   -0.416;  122.884;  187.209
557.664; -226.816; -717.116; -508.792
557.943; -182.421; -557.121; -411.782
558.222; -139.518; -345.118; -344.788
558.502;  -44.515; -116.115;  -76.793
558.781;   54.585;  194.885;  499.208
559.061; -112.118; -232.118; -227.788
559.340;   20.183;  302.883;  353.211
559.619;    5.984;   93.884;  148.210
559.899; -118.217; -239.117; -266.789
560.178; -232.015; -778.115; -593.793
560.457; -223.117; -623.117; -562.790
560.736; -175.311; -472.111; -482.800
561.015; -201.528; -500.128; -502.769
561.295;  -41.707;  180.893;  215.193
561.574;  -11.915;  119.885;  116.207
561.853;   25.091;  274.891;  303.197
562.132;  -53.014;  -45.114;  182.206
562.411;   98.679;  396.879;  553.219
562.690; -189.815; -592.115; -458.792
562.969;  147.588;  472.888;  630.203
563.248;  711.378; 2966.878; 2487.219
563.527; -117.311; -290.111; -408.800
563.806; -196.727; -650.127; -521.771
564.085;  -91.206; -297.105; -206.810
564.364; -211.316; -594.117; -405.790
564.643; -135.821; -276.121; -223.781
564.922;    6.790;  221.890;  397.198
565.201; -227.709; -640.109; -700.803
565.479; -130.115; -297.115; -219.792
565.758; -256.528; -810.128; -712.770
566.037;  -97.709; -155.109; -100.803
566.316; -104.716; -286.116;  -28.791
566.595;  -35.515;  -17.115;  -12.793
566.873;  138.189; -166.111;  -79.801
567.152; -194.513; -490.113; -590.797
567.431;  -64.716; -113.116;    6.210
567.709; -120.607; -344.107; -212.807
567.988; -285.314; -810.114; -769.794
568.266;  -85.915; -160.115;  -68.793
568.545; -211.700; -644.100; -514.819
568.824;   46.885;  160.885;  356.208
569.102; -119.514; -351.114; -235.794
569.381; -204.716; -492.116; -407.792
569.659; -182.213; -553.113; -553.796
569.938; -228.922; -743.122; -465.780
570.216;  -84.109; -225.109; -225.804
570.494; -214.814; -632.114; -572.795
570.773;   18.779;  202.879;  114.218
571.051; -122.823; -373.123; -357.778
571.330;  -73.913; -221.113; -174.796
571.608;  -50.098; -181.098; -173.823
571.886; -233.611; -671.111; -581.799
572.164; -256.421; -739.121; -621.782
572.443; -195.905; -562.105; -512.811
572.721; -141.617; -399.117; -289.790
572.999; -138.417; -280.117; -168.788
573.277;   83.194;  379.894;  620.191
573.555;  -51.506;   94.894;   37.190
573.834; -109.017;  -86.117; -114.788
574.112;  208.093;  880.893;  811.193
574.390;  -57.011; -143.111;  -96.801
574.668;  -51.012;  -91.112;  -61.797
574.946;  -99.606; -165.106; -187.810
575.224;  -47.509;   71.891;  -16.803
575.502;  -99.616; -200.116; -204.791
575.780; -230.812; -767.112; -829.798
576.058;  223.989; 1589.889; 1004.200
576.336; -109.510; -210.110; -129.801
576.614; -161.012; -511.112; -340.798
576.891; -263.215; -711.115; -823.794
577.169; -124.108; -158.108; -285.805
577.447;   16.993;  169.893;  202.193
577.725;  152.088;  629.888;  854.201
578.003; -112.912;  -71.112; -371.798
578.280;  -72.904; -208.104; -242.812
578.558; -199.315; -450.115; -422.793
578.836; -108.014; -210.114; -145.795
579.114; -204.512; -630.112; -670.797
579.391;  -64.717;   -6.117;  -18.789
579.669; -245.414; -595.114; -704.794
579.947; -131.807; -326.107; -127.806
580.224; -205.607; -692.107; -524.806
580.502;  -50.307;  127.893;   76.193
580.779;  -30.917;  -42.117;   75.210
581.057; -219.509; -584.109; -470.804
581.334; -226.602; -726.102; -695.815
581.612;   17.395;   54.895;  511.190
581.889; -111.101;  -83.101; -129.818
582.167;  -97.899; -298.099; -190.821
582.444; -244.401; -845.102; -814.817
582.721;  190.599;  657.899;  715.183
582.999;  -87.700; -326.100; -167.821
583.276; -274.823; -812.123; -713.779
583.553; -116.902; -364.102; -294.816
583.831; -250.104; -607.104; -631.812
584.108;   29.092;  349.892;  174.195
584.385; -129.302; -122.102;  -98.815
584.662; -257.111; -651.111; -828.801
584.940;   20.289;  204.889;  204.199
585.217;  -83.113;  -73.113; -303.796
585.494;  -30.410;   71.890;  118.198
585.771; -146.309; -250.109; -354.804
586.048;  -84.513; -196.113;  -76.796
586.325; -253.010; -721.110; -773.801
586.602;   21.496;  230.896;  213.188
586.879; -201.200; -499.100; -580.820
587.156; -101.905; -156.105; -331.810
587.433; -231.802; -701.102; -667.817
587.710;   -5.512;  152.888;  234.202
587.987; -137.305; -264.105; -236.811
588.264;   78.688;  315.888;  387.202
588.541;  -26.504;  -61.104;   26.187
588.818;  -43.908;   72.892;  171.196
589.095;  -80.304; -163.104; -174.812
589.371; -164.609; -459.109; -414.804
589.648; -177.807; -581.107; -437.807
589.925; -196.414; -517.114; -621.795
590.202; -249.812; -741.112; -607.798
590.478;  -37.805; -166.105;  -73.811
590.755;  -91.108; -241.108; -132.806
591.032; -226.010; -741.110; -699.802
591.308; -241.494; -732.094; -790.831
591.585; -212.510; -573.110; -560.802
591.862; -320.502;-1056.102; -950.817
592.138; -180.008; -475.108; -474.805
592.415; -175.304; -486.104; -495.813
592.691;   74.796;  460.896;  518.188
592.968; -115.398; -208.098; -123.824
593.244; -227.116; -695.116; -595.790
593.521;  -84.402; -105.102;  -42.817
593.797; -286.722; -810.122; -720.780
594.074; -227.696; -611.096; -588.826
594.350;  190.305;  828.905;  729.172
594.626; -125.111; -303.111; -283.801
594.903; -228.601; -643.101; -645.817
595.179;   75.896;  243.896;  418.187
595.455;  -84.307; -136.107; -150.807
595.731;  -66.003;  -19.103;  -38.814
596.008; -159.111; -464.111; -434.800
596.284;  -91.300; -187.100; -242.820
596.560; -191.993; -501.093; -493.833
596.836;  -88.405; -173.105;  -70.810
597.112; -167.808; -582.108; -437.805
597.388;  -97.997;  -49.097;  -48.826
597.665;   45.987;  437.887;  530.203
597.941; -233.390; -572.089; -658.839
598.217; -116.510; -323.110; -293.802
598.493;  -98.309;   61.891; -204.804
598.769; -104.300; -175.100;  -50.819
599.045; -206.908; -490.108; -562.806
599.321; -143.800; -193.100; -261.820
599.597; -147.909; -355.109; -476.804
599.872;  102.896;  409.896;  429.187
600.148;  -63.297;  -61.097; -172.826
600.424;   62.693;   91.893;  202.193
600.700; -100.507; -170.107; -280.807
600.976; -161.497; -442.097; -464.825
601.252; -131.109; -226.109; -272.803
601.527; -289.804; -833.104; -840.813
601.803; -126.105; -453.105; -404.812
602.079;  -78.800; -124.100; -118.819
602.354; -175.092; -620.092; -531.835
602.630;  -97.413; -140.113; -482.796
602.906; -264.801; -910.101; -863.818
603.181; -187.519; -627.119; -534.786
603.457;  -62.097;   98.903; -278.826
603.733; -226.020; -605.120; -626.783
604.008;  -57.106; -245.106; -164.810
604.284; -181.501; -636.101; -580.817
604.559;  -59.212;   -3.112;  -42.799
604.835; -117.905; -163.105; -225.810
605.110; -263.899; -732.099; -892.821
605.385;   53.307;  224.907;  267.167
605.661; -239.295; -625.095; -729.829
605.936; -244.408; -664.108; -737.806
606.211;  -42.403;  -17.103; -170.815
606.487; -134.814; -329.114; -376.794
606.762; -253.919; -791.119; -745.786
607.037; -142.805; -501.105; -433.810
607.313; -189.696; -589.096; -574.828
607.588;  -94.106; -375.106; -137.810
607.863;  -61.101;  -28.101; -143.818
608.138;  104.490;  513.890;  516.198
608.413; -181.199; -576.099; -592.822
608.688; -127.308; -203.108; -267.805
608.964; -121.906; -509.106; -218.809
609.239;  -88.405; -107.105; -212.810
609.514;   24.595;  281.895;  240.188
609.789; -255.004; -187.104; -716.812
610.064; -181.296; -435.096; -609.827
610.339; -268.409; -855.109; -799.804
610.614;  -78.300; -131.100; -315.820
610.889;   16.395;  215.895;  107.188
611.163; -191.304; -407.104; -591.812
611.438; -102.914;   81.886; -167.794
611.713; -199.301; -467.101; -499.817
611.988;  -95.701; -144.101; -328.818
612.263; -259.002; -771.102; -717.815
612.538;   88.687;  385.887;  251.204
612.812; -236.400; -832.100; -911.820
613.087; -149.198; -358.098; -338.823
613.362; -196.607; -497.107; -557.807
613.637;   48.597;  261.897;  138.186
613.911; -109.592; -256.092; -345.835
614.186; -145.207; -249.107; -292.807
614.460; -242.181; -842.081; -758.854
614.735;  -66.187;  -55.087;  -17.843
615.010;  -28.888;   43.912;  -82.841
615.284;   67.592;  360.892;  246.195
615.559; -271.192; -792.092; -955.835
615.833;  -43.699;  -76.099;  -87.822
616.108; -129.190; -225.090; -390.837
616.382;   94.013;  274.913;  402.156
616.656; -114.390; -241.090; -232.837
616.931; -259.099; -785.099; -700.822
617.205; -314.004; -973.104; -979.813
617.480;  -25.625;  -91.125;    6.225
617.754; -157.825; -396.125; -128.774
618.028; -121.829; -369.129; -382.768
618.302;  -19.408;   73.892;  -25.805
618.577; -183.603; -371.103; -518.815
618.851; -150.209; -399.109; -600.803
619.125;  -95.034; -335.134; -378.759
619.399; -121.404; -244.104; -374.813
619.673; -145.015; -330.115; -515.792
619.947; -166.514; -333.114; -448.795
620.222;  -78.210; -198.110; -204.801
620.496;  -57.521;  -47.121;  -96.782
620.770;  -99.022; -187.122;  -93.781
621.044;   64.595;  323.895;  346.190
621.318; -220.220; -653.120; -614.783
621.592; -115.321; -430.121; -409.783
621.866; -188.012; -476.112; -572.799
622.140;  -88.716; -207.116; -356.791
622.413;   28.789;  138.889;  112.200
622.687; -203.001; -746.101; -492.817
622.961;  -53.108; -130.108; -143.805
623.235; -225.711; -633.111; -661.800
623.509; -279.605; -816.105; -848.811
623.783;  -27.207;  -12.107;   48.193
624.056; -106.020; -254.120; -280.783
624.330;    9.488;   63.888;   -3.797
624.604;  -50.816; -271.116; -355.790
624.877;   20.490;  180.890;   26.198
625.151;  -99.814; -249.114; -238.794
625.425; -105.303; -150.103; -283.814
625.698; -164.019; -367.119; -374.785
625.972; -252.010; -799.110; -765.802
626.245;  128.384;  685.884;  484.210
626.519; -120.820; -426.120; -340.784
626.792;  -67.507; -192.107; -380.807
627.066; -196.122; -485.122; -662.779
627.339; -227.310; -736.110; -663.802
627.613;   42.180;  351.880;  148.216
627.886;   38.591;  187.891; -612.803
628.160;  -79.020;  312.880; -161.783
628.433; -230.725; -695.125; -703.775
628.706; -182.920; -517.120; -615.784
628.979;   19.976;  296.876;  117.223
629.253; -282.619; -785.119; -833.786
629.526; -120.426; -334.126; -253.772
629.799; -194.423; -641.123; -479.778
630.072; -158.528; -497.128; -516.769
630.346; -343.016;-1115.116;-1080.790
630.619; -168.207; -467.107; -545.808
630.892;  141.589;  709.889;  593.200
631.165;  172.896;  790.896;  679.187
631.438; -342.012;-1092.112;-1055.798
631.711;   61.077;  453.877;  257.221
631.984; -161.117; -523.117; -624.789
632.257; -188.317; -636.117; -681.789
632.530; -130.319; -412.119; -433.785
632.803;   27.685; -109.115;    7.207
633.076; -147.823; -360.123; -422.777
633.349;   -1.528;  173.872;  121.231
633.622; -103.419; -187.119; -240.785
633.895; -286.320; -903.120; -823.783
634.167; -173.826; -496.126; -525.773
634.440;   -4.916;  -19.116; -137.792
634.713;  -21.619;  -22.119; -120.786
634.986;  128.171;  593.871;  453.233
635.258; -184.415; -507.115; -597.793
635.531;  168.482;  742.882; -343.788
635.804; -105.117; -303.117; -318.789
636.077; -251.316; -830.116; -852.791
636.349; -211.515; -586.115; -474.793
636.622;  527.374; 1695.874; 1392.228
636.894; -165.820; -474.120; -909.784
637.167; -269.327; -836.127; -789.771
637.439;  -86.728; -278.128; -213.770
637.712; -117.926; -312.126; -293.772
637.984; -227.716; -635.116; -707.791
638.257;  161.877;  515.877;  488.222
638.529; -276.925; -881.125; -924.776
638.802; -167.228; -508.128; -449.769
639.074; -281.422; -927.122; -952.781
639.346; -299.835; -942.135; -930.757
639.619;  -38.642;  -79.142; -319.744
639.891;  -42.122;  -83.122; -168.779
640.163; -214.222; -689.122; -756.780
640.435;    0.878;  273.878;  103.220
640.708;  -31.222;  -72.122; -132.780
640.980; -147.822; -366.122; -362.781
641.252;  -51.421;  -25.121;  -71.781
641.524;  143.879;  580.879;  573.219
641.796; -304.021;-1094.121; -907.782
642.068; -124.921; -191.121; -300.782
642.340; -194.521; -486.121; -566.783
642.613;   64.280;  294.880;  323.217
642.885; -245.020; -787.120; -878.783
643.157; -233.820; -810.120; -658.784
643.428;   70.380;  170.880;  218.216
643.700; -158.720; -498.120; -425.784
643.972;  -82.519;  -16.119; -133.785
644.244; -177.819; -474.119; -559.785
644.516;  -80.119; -250.119; -114.786
644.788;  173.681;  662.881;  548.214
645.060;   -3.419;  -12.119; -124.786
645.332; -191.118; -525.118; -535.787
645.603;   93.682;  479.882;  342.213
645.875; -122.718; -334.118; -369.787
646.147;  375.082; 1487.882; 1242.212
646.418; -300.317; -931.117; -918.788
646.690; -222.617; -714.117; -715.789
646.962; -170.217; -413.117; -451.789
647.233;   20.183;   15.883;   11.211
647.505; -165.317; -595.117; -475.790
647.776;   75.684;  328.884;  229.210
648.048;  -97.316; -248.116; -418.790
648.320; -252.716; -752.116; -679.791
648.591; -304.916;-1055.116; -958.791
648.862; -123.416; -505.116; -577.792
649.134;   32.885;  115.885;  198.208
649.405; -193.015; -661.115; -618.792
649.677; -185.115; -475.115; -598.793
649.948;  -57.215; -181.115; -296.793
650.219;  -11.415;  -37.115; -147.793
650.491; -164.114; -431.114; -520.794
650.762; -202.814; -705.114; -731.794
651.033; -171.114; -437.114; -424.795
651.304; -278.214; -743.114; -728.795
651.576; -232.514; -680.114; -645.795
651.847;  -58.313; -250.113; -140.796
652.118;   -7.713;  -32.113; -189.796
652.389; -200.213; -639.113; -722.796
652.660;  -39.013; -147.113;  -89.797
652.931; -279.312; -897.112; -871.797
653.202; -146.212; -382.112; -541.798
653.473; -168.512; -633.112; -533.798
653.744; -187.812; -595.112; -590.798
654.015; -144.112; -356.112; -303.799
654.286; -190.511; -642.111; -663.799
654.557; -167.011; -586.111; -521.799
654.828; -311.411;-1114.111;-1088.800
655.099; -148.211; -404.111; -291.800
655.370; -161.411; -427.111; -543.801
655.641; -220.510; -656.110; -714.801
655.911; -188.610; -618.110; -638.801
656.182;  107.190;  437.890;  387.198
656.453;  181.890;  830.890;  746.198
656.724; -138.810; -466.110; -426.802
656.994; -195.809; -553.109; -568.803
657.265; -235.509; -862.109; -873.803
657.536; -150.609; -500.109; -377.804
657.806; -189.409; -561.109; -593.804
658.077; -278.409; -866.109; -950.804
658.347; -156.308; -523.108; -598.805
658.618; -222.208; -646.108; -694.805
658.888;  -23.208;  -41.108;  112.195
659.159; -174.308; -432.108; -548.806
659.429; -111.908; -292.108; -349.806
659.700; -128.007; -435.107; -390.807
659.970; -144.907; -370.107; -359.807
660.241; -276.907; -754.107; -921.807
660.511;  -52.407; -147.107; -174.808
660.781; -217.406; -793.106; -748.808
661.052;  -86.506; -222.106; -381.808
661.322;   -0.306;   21.894;   -9.809
661.592;   60.494;  257.894;  148.191
661.862; -141.706; -369.106; -382.810
662.133; -170.805; -551.105; -502.810
662.403; -235.705; -770.105; -676.810
662.673;  -92.005; -256.105; -213.811
662.943; -186.305; -612.105; -551.811
663.213;  -46.805;  -85.105;  -81.811
663.483; -161.904; -593.104; -568.812
663.753;  -57.804; -194.104; -152.812
664.023;   31.196;   68.896;  -32.813
664.293;  -92.904; -319.104; -126.813
664.563; -186.304; -694.104; -648.813
664.833; -237.603; -743.103; -608.814
665.103; -252.703; -730.103; -793.814
665.373; -267.503; -766.103; -806.814
665.643; -288.703; -863.103; -918.815
665.913; -214.803; -534.103; -714.815
666.182; -219.502; -685.102; -719.816
666.452;  -67.602;  -22.102;  -89.816
666.722; -241.202; -724.102; -784.816
666.992; -317.002; -948.102; -921.817
667.261; -260.201; -824.102; -808.817
667.531;  -33.701;  134.899;   45.183
667.801; -128.301; -440.101; -412.818
668.070;  197.899;  714.899;  697.182
668.340; -235.901; -883.101; -840.819
668.609;  149.500;  588.900;  301.181
668.879; -195.400; -490.100; -558.819
669.149; -212.900; -539.100; -516.820
669.418; -229.600; -698.100; -726.820
669.688; -195.300; -482.100; -666.820
669.957; -177.899; -423.099; -546.821
670.226;  -97.799; -268.099; -331.821
670.496; -161.799; -431.099; -635.822
670.765; -164.399; -418.099; -501.822
671.034; -252.699; -872.099; -828.822
671.304;   -2.998;   55.902; -111.823
671.573; -351.998;-1085.098; -957.823
671.842;  -69.498; -380.098; -294.823
672.112; -209.698; -692.098; -586.824
672.381;  -78.098; -239.098; -214.824
672.650; -278.497;-1005.097;-1021.825
672.919; -212.697; -631.097; -507.825
673.188; -212.697; -681.097; -878.825
673.457; -350.697;-1101.097;-1143.826
673.726; -188.796; -579.096; -646.826
673.995; -156.896; -533.096; -479.826
674.265; -105.496; -263.096; -333.827
674.534; -106.596; -183.096; -235.827
674.802; -158.596; -618.096; -703.828
675.071; -260.595; -886.095; -801.828
675.340; -160.195; -464.095; -339.828
675.609;   13.505;  103.905;   82.171
675.878; -264.495; -949.095; -893.829
676.147;  -33.195;  -26.095;   -8.829
676.416; -117.594; -210.094; -294.830
676.685;  289.106; 1000.906; -622.830
676.953; -139.794; -603.094; -452.831
677.222;  -98.994; -193.094; -273.831
677.491;  -44.294;  -24.094; -127.831
677.759;    1.007;   11.907;  172.168
678.028; -108.993; -279.093; -222.832
678.297;  -20.893;   71.907;  197.168
678.565; -286.693; -898.093; -944.833
678.834;  -84.793; -311.093; -268.833
679.102; -102.292; -411.092; -391.834
679.371; -279.192; -898.092; -727.834
679.639; -278.992; -797.092; -786.834
679.908; -223.592; -794.092; -724.835
680.176; -301.491; -895.091; -941.835
680.445; -114.991; -346.091; -352.835
680.713;  -38.191;  -58.091;  -23.836
680.982; -182.091; -523.091; -525.836
681.250; -190.691; -578.091; -507.837
681.518; -169.090; -534.090; -751.837
681.787;  -70.790; -204.090; -167.837
682.055; -162.990; -490.090; -422.838
682.323; -292.390; -993.090; -992.838
682.591; -104.390; -216.090; -538.838
682.859;  -67.489;    9.911;  -35.839
683.128;   32.611;  232.911;  497.161
683.396; -334.489;-1102.089;-1122.840
683.664;  -65.789; -241.089;   21.160
683.932;   23.511;  144.911;  -76.840
684.200; -181.188; -576.088; -320.841
684.468;  -68.388;  -73.088; -124.841
684.736;  -54.788; -214.088; -175.841
685.004; -323.688;-1024.088; -982.842
685.272; -220.688; -880.088; -774.842
685.540; -188.887; -499.087; -557.843
685.808; -237.287; -651.087; -682.843
686.076; -274.387; -894.087; -969.843
686.343; -207.387; -601.087; -815.844
686.611;  -74.687; -195.087; -224.844
686.879; -185.586; -530.086; -553.844
687.147; -171.586; -483.086; -480.845
687.414;  -60.486;  -12.086; -169.845
687.682; -246.786; -658.086; -757.846
687.950;   50.515;  259.915;  263.154
688.217; -206.785; -792.085; -760.846
688.485; -222.585; -632.085; -636.847
688.753;  -94.385;  -11.085; -102.847
689.020; -277.585; -820.085; -851.847
689.288; -276.984; -853.084; -787.848
689.555;  -50.884; -195.084; -148.848
689.823;  -99.384; -241.084; -345.849
690.090; -185.084; -546.084; -651.849
690.358; -296.884; -877.084; -897.849
690.625;   -5.283;  120.917;   45.150
690.892; -148.583; -403.083; -369.850
691.160;  -49.283;   72.917;  -35.850
691.427;   -3.383;  141.917;  130.149
691.694; -311.583; -855.083; -929.851
691.962; -308.382;-1177.082;-1060.852
692.229;   -5.882;  127.918;   56.148
692.496;   -8.482;  130.918;  -49.852
692.763;  -49.782; -164.082; -201.853
693.031; -210.282; -739.082; -716.853
693.298; -192.781; -509.081; -368.853
693.565;  -94.681; -155.081; -163.854
693.832;  -46.281;   -5.081;   -9.854
694.099; -185.781; -643.081; -642.855
694.366; -310.780; -882.081; -896.855
694.633; -265.980; -920.080; -633.855
694.900; 1325.420; 4367.920; -114.856
695.167;  -72.480; -214.080; -380.856
695.434; -227.480; -646.080; -623.856
695.701;   22.721;  121.921;  -61.857
695.968; -152.879; -365.079; -361.857
696.234; -195.079; -415.079; -646.858
696.501; -192.079; -776.079; -614.858
696.768; -185.979; -554.079; -617.858
697.035; -224.578; -632.078; -667.859
697.302; -197.178; -448.078; -552.859
697.568; -116.378; -458.078; -497.859
697.835; -214.578; -683.078; -624.860
698.102; -127.478; -498.078; -407.860
698.368;   94.023;  384.923;  396.139
698.635; -125.377;  -47.077; -424.861
698.901;  -86.677; -240.077; -348.861
699.168; -148.277; -534.077; -456.862
699.435;  -50.177;  -72.077;  -13.862
699.701; -314.576; -868.076; -764.862
699.968; -145.676;  144.924; -441.863
700.234; -252.476; -783.076; -822.863
700.500; -142.776; -448.076; -539.864
700.767;  -38.175;   -1.075;   26.136
701.033; -291.375;-1015.075; -963.864
701.299; -178.475; -450.075; -483.865
701.566;  206.025;  950.925;  763.135
701.832;    7.425;  -31.075;  -76.865
702.098; -289.874;-1054.074;-1034.866
702.365; -332.774;-1098.074;-1030.866
702.631; -320.574;-1038.074;-1063.867
702.897; -210.074; -765.074; -676.867
703.163;   38.826;  348.926;  254.133
703.429; -108.373; -256.073; -273.868
703.695; -219.073; -796.073; -792.868
703.961;  -44.673; -214.073; -210.868
704.227; -229.873; -630.073; -725.869
704.493;  188.627;  613.927;  510.131
704.759; -179.872; -565.072; -540.870
705.025;  -62.872; -203.072; -194.870
705.291; -201.472; -666.072; -562.870
705.557;  201.528;  719.928;   34.129
705.823; -218.272; -742.072; -694.871
706.089; -107.871; -307.071; -326.871
706.355;  -82.671; -315.071; -244.872
706.620; -269.671; -776.071; -729.872
706.886; -102.971; -309.071; -362.873
707.152; -291.470; -818.070; -973.873
707.418; -365.070;-1153.070;-1186.873
707.683; -176.970; -550.070; -530.874
707.949; -188.670; -547.070; -578.874
708.215;  -92.370; -129.070; -207.874
708.480; -141.869; -520.069; -420.875
708.746;  -25.369;   68.931;   28.125
709.011; -163.869; -578.069; -612.876
709.277; -175.969; -538.069; -543.876
709.542; -142.469; -428.069; -387.876
709.808;  -33.268;  -59.068;   89.123
710.073; -210.568; -577.068; -695.877
710.339; -112.468; -242.068; -228.877
710.604; -266.868; -780.068; -845.878
710.869;  -70.168; -277.068; -366.878
711.135; -212.967; -715.067; -628.879
711.400; -203.967; -507.067; -608.879
711.665; -145.267; -404.067; -479.879
711.931; -202.967; -661.067; -677.880
712.196; -261.067; -876.067; -954.880
712.461; -176.366; -402.066; -490.880
712.726; -246.166; -727.066; -771.881
712.991; -234.166; -647.066; -664.881
713.256; -129.066; -350.066; -332.882
713.521; -134.966; -417.065; -381.882
713.787; -144.865; -454.065; -472.882
714.052; -129.865; -214.065; -400.883
714.317; -342.365;-1045.065; -981.883
714.581; -115.865; -374.065; -268.883
714.846; -267.164; -822.064; -888.884
715.111;   81.736;  261.936;  257.116
715.376;  -94.364;  -86.064; -223.885
715.641; -138.964; -365.064; -367.885
715.906; -155.264;   15.936; -551.885
716.171;   33.637;  221.937;  209.114
716.436;  -38.263;  -78.063; -104.886
716.700; -217.963; -818.063; -692.886
716.965; -247.363; -794.063; -807.887
717.230; -111.863; -339.063; -392.887
717.494;  -43.562;  -40.062; -134.888
717.759; -209.562; -784.062; -640.888
718.024;   36.838;  269.938;  250.112
718.288;  147.538;  685.938;  395.111
718.553; -282.862; -803.062; -977.889
718.817; -271.661; -883.061; -899.889
719.082;  -19.361; -115.061; -125.890
719.346; -270.361;-1000.061; -947.890
719.611;  -81.561; -300.061; -255.891
719.875; -219.161; -568.060; -537.891
720.140; -165.860; -453.060; -603.891
720.404; -103.960; -136.060; -249.892
720.668; -113.960; -475.060; -411.892
720.933;   56.540;  146.940;  137.108
721.197; -216.559; -667.059; -600.893
721.461; -291.359; -851.059; -826.893
721.725;  -14.659;  -21.059; -250.894
721.990;  -76.359; -284.059; -204.894
722.254;  -28.959;  -26.059; -108.894
722.518; -186.858; -286.058; -442.895
722.782; -206.458; -743.058; -594.895
723.046;  167.442;  614.942;  570.105
723.310;   57.942;  374.942;  210.104
723.574; -197.558; -654.058; -614.896
723.838; -227.957; -576.057; -642.897
724.102;  -50.457; -226.057; -239.897
724.366; -291.557;-1032.057; -978.897
724.630; -215.057; -749.057; -571.898
724.894; -164.757; -722.057; -514.898
725.158;  -36.056;   38.944; -295.898
725.422; -127.156; -394.056; -327.899
725.685; -157.556; -441.056; -349.899
725.949; -227.756; -566.056; -519.900
726.213; -252.156; -732.056; -811.900
726.477; -326.055;-1020.055; -933.900
726.740;  -70.155; -274.055; -104.901
727.004; -150.455; -384.055; -510.901
727.268; -130.155; -442.055; -400.901
727.531; -295.854; -961.055; -775.902
727.795; -227.154; -713.054; -673.902
728.059; -196.254; -552.054; -557.903
728.322; -201.954; -841.054; -669.903
728.586; -198.954; -692.054; -701.903
728.849; -204.153; -695.053; -756.904
729.112; -241.053; -812.053; -912.904
729.376; -287.853; -959.053; -905.904
729.639; -184.253; -536.053; -536.905
729.903; -253.153; -733.053; -699.905
730.166; -114.252; -437.052; -399.906
730.429;  -62.852; -317.052; -468.906
730.693; -202.752; -355.052; -894.906
730.956;  210.748;  810.948;  651.093
731.219;  -90.152; -310.052; -103.907
731.482; -271.751;-1003.051; -894.907
731.745; -311.751; -794.051; -935.908
732.009;   21.249;  -30.051;   50.092
732.272; -238.151; -904.051; -771.909
732.535; -110.151; -300.051; -310.909
732.798; -309.750;-1083.050;-1166.909
733.061; -156.050; -430.050; -456.910
733.324;  -24.950;   31.950; -180.910
733.587;   98.150;  290.950;  365.090
733.850; -225.349; -973.049;-1050.911
734.113;  -13.249;   33.951;   32.089
734.376; -135.449; -328.049; -447.912
734.639;  285.151; 1188.951; 1011.088
734.901;  -79.749; -180.049; -402.912
735.164; -284.848; -883.048; -837.913
735.427;  -63.148; -166.048; -355.913
735.690;  -85.448; -205.048; -234.913
735.952; -326.448; -923.048; -925.914
736.215; -297.748;-1113.048;-1009.914
736.478; -247.047; -771.047; -774.915
736.740;  -29.547;   33.953;  129.085
737.003; -213.947; -658.047; -672.915
737.266;  203.653;  -94.047;   46.084
737.528; -228.747; -682.047; -660.916
737.791; -133.546; -316.046; -327.916
738.053;   59.354;  465.954;  649.083
738.316;  -78.746; -162.046; -136.917
738.578; -248.046; -770.046; -736.918
738.841; -148.846; -382.046; -446.918
739.103; -253.245; -875.045; -777.918
739.365;   -0.645;   79.955;  -69.919
739.628; -238.145; -884.045; -805.919
739.890; -185.845; -758.045; -710.919
740.152; -222.645; -692.044; -754.920
740.414; -159.244; -408.044; -359.920
740.677; -177.144; -785.044; -634.921
740.939; -229.544; -587.044; -487.921
741.201; -196.544; -432.044; -572.921
741.463; -202.043; -689.043; -745.922
741.725;  -51.643;  -21.043; -199.922
741.987;   -9.343;  220.957;  116.078
742.249; -264.843; -751.043; -859.923
742.511; -221.043; -703.043; -794.923
742.773; -181.042; -546.042; -546.924
743.035;  140.558;  796.958;  533.076
743.297; -316.042; -963.042;-1013.924
743.559;  -90.142; -278.042; -262.925
743.821; -241.742; -735.042; -744.925
744.083; -110.141;  -44.041; -149.925
744.345; -281.941; -869.041; -892.926
744.607;   -0.141;   75.959;  122.074
744.868; -194.741; -490.041; -554.927
745.130; -308.541; -994.041;-1008.927
745.392;  -14.540;   -1.040;  -44.927
745.653; -116.940; -411.040; -378.928
745.915;  198.160;  896.960;  631.072
746.177;  -37.440;   35.960;  -43.928
746.438; -175.540; -428.040; -543.929
746.700; -316.039; -947.039; -988.929
746.961; -244.339; -659.039; -740.930
747.223;  -45.639; -190.039;  -74.930
747.484; -158.939; -391.039; -471.930
747.746;  -41.738;  -23.038; -106.931
748.007; -214.038; -647.038; -689.931
748.269; -139.938; -468.038; -440.931
748.530; -197.938; -852.038; -638.932
748.791; -145.338; -354.038; -420.932
749.053;   75.763;  286.963;  163.067
749.314; -106.237; -236.037; -169.933
749.575; -255.537; -945.037; -905.933
749.836;  -78.437; -217.037;   86.066
750.098;  -44.237;  -60.037;  -21.934
750.359;   84.064;  414.964;  555.066
750.620;  -55.636; -121.036; -220.935
750.881; -200.536; -585.036; -513.935
751.142; -303.636; -950.036; -938.936
751.403; -211.936; -789.036; -705.936
751.664; -288.335;-1034.035; -999.936
751.925;  -60.835; -175.035; -262.937
752.186;  -95.635; -298.035; -278.937
752.447; -187.335; -590.035; -445.937
752.708; -169.335; -532.035; -648.938
752.969; -219.034; -566.034; -576.938
753.230; -239.934; -777.034; -672.939
753.491; -190.334; -650.034; -631.939
753.751;  -10.834;  109.966;   19.061
754.012;   45.067;  258.967;  181.060
754.273;  -93.833; -174.033;  -71.940
754.534; -179.033; -487.033; -580.940
754.794; -296.533; -926.033; -911.941
755.055;  247.567; 1051.967;  881.059
755.316; -194.032; -700.032; -566.942
755.576; -138.332; -606.032; -576.942
755.837; -184.032; -527.032; -695.942
756.097; -173.732; -530.032; -564.943
756.358; -239.232; -725.032; -770.943
756.618; -215.031; -705.031; -641.943
756.879;  -85.531; -254.031; -349.944
757.139; -349.231;-1098.031;-1116.944
757.400; -189.431; -538.031; -553.945
757.660; -108.731; -365.031; -401.945
757.920;  -91.530; -266.030; -228.945
758.181; -123.930; -468.030; -351.946
758.441; -247.330; -870.030; -809.946
758.701; -116.730; -308.030; -215.946
758.961;  -85.030; -220.030; -278.947
759.222; -196.729; -574.029; -502.947
759.482; -208.229; -683.029; -723.948
759.742; -228.929; -706.029; -547.948
760.002;  -51.729;  -83.029; -143.948
760.262;   -8.528;   50.972;  182.051
760.522; -178.628; -498.028; -574.949
760.782; -212.528; -738.028; -612.949
761.042; -202.628; -618.028; -573.950
761.302;  -29.928;   55.972;  -18.950
761.562;  -59.827; -164.027; -154.951
761.822; -181.627; -710.027; -551.951
762.082; -351.127;-1104.027;-1093.951
762.342;  -94.527; -328.027; -403.952
762.601; -170.827; -567.027; -506.952
762.861; -108.926; -281.026; -207.952
763.121; -153.426; -406.026; -411.953
763.381; -168.926; -499.026; -485.953
763.640;  -77.126; -139.026; -307.954
763.900;  -99.826; -242.026; -203.954
764.160; -130.225; -458.025; -491.954
764.419; -215.325; -726.025; -782.955
764.679; -262.325; -795.025; -726.955
764.939; -110.925; -124.025; -210.955
765.198; -220.125; -608.025; -563.956
765.458; -196.024; -710.024; -612.956
765.717; -218.024; -454.024; -590.957
765.976; -153.424; -428.024; -411.957
766.236; -207.124; -475.024; -610.957
766.495;   -8.323;  260.977;   73.042
766.755; -335.923;-1090.023; -987.958
767.014; -173.423; -594.023; -665.958
767.273; -129.323; -373.023; -397.959
767.533; -117.523; -228.023; -307.959
767.792;  -54.822; -151.022; -188.960
768.051; -137.422; -228.022; -276.960
768.310; -195.822; -546.022; -650.960
768.569;  -13.922; -161.022;    4.039
768.828; -139.522; -285.022; -363.961
769.088; -355.221;-1050.021; -942.961
769.347; -228.621; -755.021; -599.962
769.606; -282.121; -876.021; -857.962
769.865; -333.921;-1016.021;-1033.963
770.124;  -92.921; -411.021; -336.963
770.383; -288.120; -778.020; -910.963
770.641; -143.420; -398.020; -400.964
770.900; -291.620; -953.020; -846.964
771.159; -297.820; -851.020; -951.964
771.418; -270.720; -917.020; -779.965
771.677;  -72.419; -224.019; -293.965
771.936; -260.719; -794.019; -865.966
772.194; -275.619; -465.019; -437.966
772.453; -135.319; -213.019; -391.966
772.712;   61.381;  416.982;  329.033
772.970;   -6.818;   32.982;   63.033
773.229;  -25.718;  -22.018;  102.033
773.488; -267.018; -814.018; -770.968
773.746;   88.982;  296.982;  335.032
774.005;    1.883;  190.983;  -22.969
774.263;    8.783;  243.983;  177.031
774.522; -173.717; -422.017; -548.969
774.780; -172.117; -484.017; -417.970
775.039; -186.117; -551.017; -531.970
775.297;  -45.916; -135.016; -351.970
775.555; -222.916; -489.016; -612.971
775.814; -211.416; -618.016; -570.971
776.072; -223.616; -749.016; -740.971
776.330; -194.816; -630.016; -520.972
776.589; -248.915; -703.015; -721.972
776.847; -242.615; -645.015; -624.973
777.105; -346.915;-1016.015;-1032.973
777.363; -149.515; -459.015; -454.973
777.621; -263.915; -660.015; -717.974
777.879;  -29.614;  -42.014;   32.026
778.138; -173.514; -554.014; -717.974
778.396; -201.214; -585.014; -526.975
778.654; -313.214;-1015.014; -970.975
778.912; -127.514; -269.014; -371.976
779.170; -265.413; -880.013; -803.976
779.427; -281.713; -922.013; -897.976
779.685; -278.413; -880.013; -832.977
779.943; -204.513; -654.013; -593.977
780.201; -295.912; -964.012; -883.978
780.459; -214.712; -651.012; -610.978
780.717; -140.312; -440.012; -390.978
780.974; -168.512; -449.012; -490.979
781.232; -129.612; -358.012; -338.979
781.490; -188.211; -551.011; -472.979
781.747; -189.911; -555.011; -476.980
782.005;   92.789;  462.989;  254.020
782.263; -312.511; -542.011;-1004.981
782.520; -131.911; -326.011; -501.981
782.778; -307.510;-1013.010;-1051.981
783.035; -327.110; -962.010; -938.982
783.293;  -90.110; -248.010; -206.982
783.550;  -90.810; -134.010; -198.982
783.808; -244.010; -764.010; -776.983
784.065; -306.809; -745.009; -874.983
784.322;  -67.009;   25.991;  -86.984
784.580; -247.909; -915.009; -771.984
784.837; -168.809; -392.009; -466.984
785.094; -254.609; -783.009; -762.985
785.352; -143.508; -304.008; -404.985
785.609; -268.608; -934.008; -839.985
785.866; -130.808; -345.008; -401.986
786.123; -242.208; -639.008; -583.986
786.380; -200.807; -665.008; -604.987
786.637; -136.107; -225.007; -380.987
786.895; -181.307; -456.007; -543.987
787.152;  -42.007; -135.007; -267.988
787.409;  -42.007; -123.007; -225.988
787.666; -152.906; -299.006; -378.988
787.923; -168.506; -616.006; -695.989
788.179; -189.106; -551.006; -584.989
788.436; -175.506; -585.006; -585.990
788.693;  -53.306;  -92.006;  -87.990
788.950;  -76.805; -125.005; -112.990
789.207; -148.805; -381.005; -372.991
789.464; -107.705; -161.005; -301.991
789.720;    6.995;  150.995;  110.009
789.977; -334.605;-1003.005; -671.992
790.234;  -59.804;   44.996;  -66.992
790.490; -274.004; -884.004;-1031.993
790.747;  -56.704;  -85.004;   22.007
791.004; -159.204; -426.004; -348.993
791.260; -177.504; -430.004; -560.994
791.517; -243.203; -843.003; -788.994
791.773; -138.603; -379.003; -342.994
792.030; -222.403; -596.003; -660.995
792.286; -236.003; -686.003; -636.995
792.543;  -58.502;  -74.002; -159.995
792.799; -164.302; -584.002; -382.996
793.055; -378.902;-1179.002;-1210.996
793.312; -264.302; -827.002; -816.997
793.568; -212.102; -746.002; -599.997
793.824;  -61.001; -226.001; -284.997
794.081; -155.401; -447.001; -508.998
794.337; -173.301; -664.001; -561.998
794.593;  -96.101; -319.001; -271.999
794.849; -268.201; -746.001; -772.999
795.105; -145.800; -270.000; -261.999
795.361; -142.900; -490.000; -457.000
795.617; -262.800; -875.000; -945.000
795.873; -171.000; -360.000; -407.000
796.129; -141.000; -368.000; -306.000
796.385;  -97.800; -124.000; -156.000
796.641;  104.800;  412.000;  550.000
796.897; -209.600; -666.000; -635.000
797.153;   87.900;  453.000;  357.000
797.409; -270.900; -785.000; -868.000
797.665; -225.300; -625.000; -732.000
797.921; -249.700; -775.000; -762.000
798.176; -270.100; -744.000; -747.000
798.432; -273.600; -824.000; -596.000
798.688; -331.500;-1174.000;-1078.000
798.943;  -83.900; -165.000; -147.000
799.199; -271.800;-1005.000; -959.000
799.455;   96.600;  369.000;  316.000
799.710; -254.300; -813.000; -380.000
799.966; -110.300; -162.000; -160.000
800.221; -226.900; -638.000; -721.000
800.477; -232.100; -743.000; -710.000
800.732; -275.900; -773.000; -800.000
800.988;   14.700;  205.000;  -19.000
801.243; -137.200; -454.000; -344.000
801.498; -252.300; -814.000; -739.000
801.754;  -79.100; -289.000; -163.000
802.009; -118.300; -257.000; -335.000
802.264; -339.200; -967.000;-1033.000
802.520;  -84.900;  222.000;   -3.000
802.775; -144.700; -524.000; -359.000
803.030;   59.000;  395.000;  356.000
803.285; -261.700; -840.000; -903.000
803.540; -210.500; -686.000; -699.000
803.795; -187.600; -648.000; -583.000
804.051;  -95.000; -279.000; -346.000
804.306;   -3.200;  168.000;  128.000
804.561;   57.500;  451.000;  362.000
804.816;  220.400;  714.000;  861.000
805.071;  -89.600; -185.000; -280.000
805.325; -167.200; -257.000; -427.000
805.580; -273.600; -841.000; -877.000
805.835; -108.300; -204.000; -297.000
806.090; -222.100; -760.000; -676.000
806.345; -132.600; -344.000; -264.000
806.600; -212.300; -549.000; -632.000
806.854; -176.500; -408.000; -538.000
807.109; -126.500; -493.000; -577.000
807.364; -148.800; -407.000; -328.000
807.618; -150.000; -415.000; -381.000
807.873; -192.100; -470.000; -494.000
808.128; -113.300; -257.000; -518.000
808.382; -137.800; -224.000; -332.000
808.637; -174.700; -440.000; -511.000
808.891;  -80.200; -257.000; -180.000
809.146; -307.100; -902.000; -794.000
809.400; -276.600; -848.000; -923.000
809.654; -201.400; -779.000; -551.000
809.909; -311.700; -841.000; -927.000
810.163; -233.600; -813.000; -651.000
810.418; -306.000; -940.000; -861.000
810.672; -217.900; -685.000; -690.000
810.926; -308.300; -993.000; -973.000
811.180; -154.100; -439.000; -372.000
811.434;   12.900;  240.000;  135.000
811.689; -157.400; -231.000; -365.000
811.943; -319.400; -936.000; -953.000
812.197; -225.100; -893.000; -671.000
812.451; -179.800; -379.000; -514.000
812.705; -289.400; -809.000; -619.000
812.959; -218.300; -263.000; -388.000
813.213;  -82.000; -283.000; -209.000
813.467;   73.800;  470.000;  253.000
813.721; -278.400; -764.000; -792.000
813.975; -266.400; -826.000; -877.000
814.229;   38.900;  430.000;  353.000
814.482; -199.500; -517.000; -566.000
814.736; -261.000; -766.000; -744.000
814.990; -273.500; -779.000; -872.000
815.244; -121.900; -228.000; -285.000
815.497; -235.800; -636.000; -601.000
815.751;  -50.100; -141.000;   82.000
816.005; -183.200; -470.000; -586.000
816.258; -145.500; -510.000; -363.000
816.512; -221.700; -693.000; -610.000
816.766;  -11.400;  121.000;  157.000
817.019;   -6.000;  148.000;  149.000
817.273; -309.600;-1000.000; -802.000
817.526;  -71.100; -206.000; -173.000
817.779; -345.900;-1049.000; -960.000
818.033; -274.800; -693.000; -807.000
818.286; -260.300; -725.000; -792.000
818.540; -191.000; -403.000; -403.000
818.793; -154.700; -402.000; -489.000
819.046; -218.600; -582.000; -520.000
819.299;  -64.200; -157.000; -166.000
819.553; -180.800; -552.000; -592.000
819.806; -288.800;-1016.000; -838.000
820.059; -125.700; -334.000; -354.000
820.312;   19.900;  152.000;  185.000
820.565;  -19.000;  110.000;  -27.000
820.818;  -76.500;  -59.000; -173.000
821.071; -302.800;-1041.000; -957.000
821.324; -211.500; -536.000; -540.000
821.577; -215.700; -457.000; -483.000
821.830; -145.800; -270.000; -172.000
822.083; -247.000; -733.000; -288.000
822.336;  -86.100; -261.000; -167.000
822.589; -275.300; -805.000; -688.000
822.842; -301.400; -875.000; -770.000
823.094; -350.900;-1076.000;-1114.000
823.347; -273.400; -925.000; -729.000
823.600;   30.000;  402.000;  187.000
823.853; -100.100; -311.000; -267.000
824.105; -148.700; -331.000; -575.000
824.358; -269.200; -617.000; -716.000
824.611;   10.100;  234.000;   40.000
824.863; -205.300; -612.000; -591.000
825.116;    8.300;  -33.000;   27.000
825.368; -174.500; -366.000; -372.000
825.621;  -85.300; -186.000; -240.000
825.873; -232.400; -704.000; -737.000
826.126; -222.600; -669.000; -641.000
826.378; -171.100; -389.000; -505.000
826.630; -295.700; -890.000; -898.000
826.883; -247.400; -754.000; -693.000
827.135; -139.000; -279.000; -270.000
827.387; -282.900; -893.000; -839.000
827.639;  -74.300;  -86.000;   32.000
827.892; -255.700; -742.000; -582.000
828.144; -285.100; -848.000; -804.000
828.396;  -72.900;  104.000;  -80.000
828.648; -141.400; -440.000; -333.000
828.900; -278.800; -702.000; -795.000
829.152; -238.600; -684.000; -683.000
829.404; -115.300; -215.000; -267.000
829.656;   48.900;  321.000;  214.000
829.908;  -21.100;  393.000;  229.000
830.160; -288.800;-1064.000;-1047.000
830.412; -189.700; -481.000; -430.000
830.664; -222.100; -557.000; -665.000
830.916; -144.300; -268.000; -206.000
831.167; -321.200;-1073.000; -951.000
831.419; -163.000; -623.000; -566.000
831.671; -230.700; -764.000; -809.000
831.923; -170.300; -311.000; -447.000
832.174; -101.300; -273.000; -331.000
832.426; -205.500; -493.000; -582.000
832.678; -371.300;-1043.000;-1091.000
832.929; -324.500; -947.000; -935.000
833.181; -214.500; -575.000; -677.000
833.432;  -85.800;  -59.000; -186.000
833.684;  -18.000;  112.000;  -27.000
833.935; -176.700; -610.000; -566.000
834.187; -234.500; -829.000; -823.000
834.438;  -27.600;  -58.000;  -25.000
834.689;  -64.700; -255.000; -123.000
834.941; -106.000; -343.000; -244.000
835.192; -194.900; -590.000; -533.000
835.443; -230.600; -419.000; -506.000
835.695;   -3.700;  138.000;  -16.000
835.946; -174.700; -608.000; -378.000
836.197; -236.000; -599.000; -622.000
836.448; -170.400; -528.000; -395.000
836.699; -110.900; -253.000; -341.000
836.950;   -8.200;   72.000;    7.000
837.201; -320.600;-1003.000; -987.000
837.452; -126.200; -356.000; -170.000
837.703; -297.500; -791.000; -737.000
837.954; -144.300; -205.000; -365.000
838.205; -333.600;-1029.000;-1008.000
838.456;  -89.500; -196.000; -282.000
838.707; -149.800; -423.000; -519.000
838.958; -237.600; -634.000; -647.000
839.209;  -23.100;   18.000;   40.000
839.460; -128.900; -439.000; -201.000
839.710;  -86.700; -135.000; -297.000
839.961;  131.700;  730.000;  612.000
840.212; -193.000; -382.000; -497.000
840.462; -122.600; -328.000; -277.000
840.713; -214.500; -571.000; -536.000
840.964; -104.400;  -62.000; -143.000
841.214; -170.300; -384.000; -624.000
841.465;  -69.100; -214.000; -141.000
841.715; -149.400; -417.000; -380.000
841.966; -245.800; -746.000; -685.000
842.216; -186.000; -330.000; -431.000
842.466;  -99.900; -169.000; -313.000
842.717; -319.600; -964.000; -952.000
842.967; -218.200; -635.000; -641.000
843.217;  -37.100;   20.000;   28.000
843.468;  -71.200; -104.000; -132.000
843.718; -250.600; -718.000; -726.000
843.968; -285.500; -837.000; -765.000
844.218; -122.100; -315.000; -262.000
844.469; -187.900; -577.000; -561.000
844.719; -246.400; -537.000; -682.000
844.969; -183.800; -550.000; -580.000
845.219; -304.100; -814.000; -862.000
845.469; -125.900; -392.000; -342.000
845.719; -281.900; -792.000; -884.000
845.969;  -33.800;  119.000;  174.000
846.219; -244.000; -738.000; -720.000
846.469;   12.900;  464.000;  432.000
846.718;  -91.900; -115.000;   31.000
846.968; -287.700; -827.000; -827.000
847.218; -102.400; -224.000; -371.000
847.468; -214.600; -586.000; -555.000
847.718; -279.700; -827.000; -798.000
847.967; -281.800; -826.000; -915.000
848.217; -179.000; -449.000; -569.000
848.467; -132.900; -405.000; -376.000
848.716; -224.400; -708.000; -725.000
848.966; -140.300; -372.000; -358.000
849.215; -152.600; -428.000; -419.000
849.465; -228.100; -785.000; -615.000
849.714; -377.100;-1132.000;-1150.000
849.964; -203.200; -551.000; -613.000
850.213; -142.700; -393.000; -355.000
850.463;   12.400;  137.000;  340.000
850.712; -196.600; -542.000; -567.000
850.961; -231.200; -739.000; -678.000
851.211; -174.100; -513.000; -504.000
851.460; -210.800; -635.000; -650.000
851.709;   -5.300;  -25.000;   18.000
851.958; -259.900; -912.000; -750.000
852.208; -280.500; -859.000; -879.000
852.457;  -95.000; -181.000;  -13.000
852.706; -288.500; -791.000; -823.000
852.955; -188.800; -507.000; -528.000
853.204; -186.000; -521.000; -461.000
853.453; -199.900; -418.000; -458.000
853.702; -278.600; -660.000; -750.000
853.951; -181.300; -532.000; -520.000
854.200; -207.000; -613.000; -562.000
854.449; -245.200; -695.000; -661.000
854.698; -162.300; -340.000; -279.000
854.946;  -95.600; -181.000; -284.000
855.195; -273.800; -843.000; -868.000
855.444; -147.700; -395.000; -420.000
855.693; -174.200; -345.000; -432.000
855.941; -203.400; -387.000; -516.000
856.190;  -73.400; -256.000; -382.000
856.439; -238.200; -652.000; -703.000
856.687;  -64.100;  -99.000;  -72.000
856.936; -173.100; -621.000; -323.000
857.184; -340.300;-1067.000;-1020.000
857.433; -159.700; -423.000; -512.000
857.681; -310.500; -989.000; -953.000
857.930;  -92.000; -282.000; -433.000
858.178; -286.800; -856.000; -929.000
858.427; -286.400; -802.000; -781.000
858.675; -211.000; -377.000; -544.000
858.923; -186.900; -527.000; -819.000
859.172; -305.200;-1094.000;-1070.000
859.420; -106.000; -339.000; -239.000
859.668; -211.500; -624.000; -628.000
859.916;  -21.900;  109.000;  115.000
860.164; -220.000; -699.000; -603.000
860.413; -282.700; -878.000; -696.000
860.661; -217.000; -709.000; -577.000
860.909; -158.500; -339.000; -325.000
861.157; -145.000; -277.000; -444.000
861.405; -235.300; -534.000; -670.000
861.653;   18.300;  310.000;  310.000
861.901; -222.500; -543.000; -613.000
862.149; -289.500; -801.000; -824.000
862.396; -128.800; -297.000; -187.000
862.644; -146.100; -368.000; -347.000
862.892;   -1.900;   98.000;  138.000
863.140; -174.600; -549.000; -530.000
863.388; -290.000; -815.000; -759.000
863.635; -191.300; -642.000; -601.000
863.883;   49.600;  231.000;  190.000
864.131; -144.000; -288.000; -357.000
864.378; -235.400; -675.000; -540.000
864.626; -148.400; -347.000; -415.000
864.873; -198.900; -556.000; -505.000
865.121; -266.600; -714.000; -799.000
865.368;  -72.000; -173.000;   75.000
865.616;  -86.400;  -33.000;  -40.000
865.863; -173.300; -462.000; -506.000
866.111; -314.900; -795.000; -824.000
866.358; -150.200; -426.000; -420.000
866.605;  -56.500;  -64.000; -804.000
866.853; -190.600; -621.000; -537.000
867.100; -249.400; -728.000; -775.000
867.347; -263.600; -672.000; -611.000
867.594; -249.400; -740.000; -714.000
867.841;  -23.200;   97.000;   17.000
868.089; -273.000; -746.000; -698.000
868.336; -175.500; -477.000; -420.000
868.583; -205.600; -637.000; -741.000
868.830;  -59.000; -131.000; -170.000
869.077; -273.000; -859.000; -787.000
869.324; -212.500; -502.000; -458.000
869.571; -183.000; -398.000; -430.000
869.818; -199.400; -485.000; -439.000
870.065; -215.800; -439.000; -513.000
870.311; -179.000; -456.000; -542.000
870.558; -142.600; -332.000; -311.000
870.805; -117.100; -320.000; -384.000
871.052; -159.100; -494.000; -369.000
871.298; -136.000; -204.000; -131.000
871.545; -113.700; -151.000; -185.000
871.792; -127.100; -173.000; -222.000
872.038;  -86.000;   43.000; -126.000
872.285; -184.400; -496.000; -387.000
872.532; -165.000; -357.000; -387.000
872.778;   81.400;  556.000;  403.000
873.025; -124.600; -384.000; -359.000
873.271;   70.300;  501.000;  578.000
873.517;  -78.200; -133.000; -209.000
873.764;  -93.600; -193.000;  -80.000
874.010; -115.600; -143.000; -230.000
874.257;  -24.700;  123.000;   90.000
874.503; -206.700; -579.000; -479.000
874.749;  -81.400;   31.000;  275.000
874.995;  -71.800;  -80.000;  -20.000
875.242; -210.700; -540.000; -478.000
875.488; -202.300; -414.000; -439.000
875.734;  -93.500; -106.000; -234.000
875.980; -315.600; -872.000;-1032.000
876.226;  -84.200; -157.000; -255.000
876.472;   34.900;  343.000;  237.000
876.718;  -34.700;  184.000;  158.000
876.964;  -38.600;   56.000;   55.000
877.210; -239.300; -547.000; -677.000
877.456; -214.200; -630.000; -557.000
877.702; -308.200; -821.000; -832.000
877.948; -169.500; -377.000; -497.000
878.193;   52.100;  361.000;  255.000
878.439; -210.400; -487.000; -472.000
878.685; -146.800; -272.000; -343.000
878.931; -215.200; -618.000; -676.000
879.176; -108.300; -201.000; -201.000
879.422; -320.500; -933.000; -820.000
879.668;  -21.600;   10.000;   79.000
879.913;  -49.900;   53.000;  137.000
880.159;  -87.500; -112.000;  -17.000
880.404;  -58.300; -152.000; -162.000
880.650;  -36.900;   91.000;  141.000
880.895; -260.300; -670.000; -710.000
881.141; -194.400; -454.000; -428.000
881.386; -208.300; -503.000; -658.000
881.631; -138.200; -311.000; -166.000
881.877;  -33.800;  112.000;  -13.000
882.122; -214.400; -684.000; -600.000
882.367;  -92.600; -136.000; -186.000
882.612;  -61.500;  -80.000; -176.000
882.858; -293.500; -877.000; -823.000
883.103; -152.300; -297.000; -267.000
883.348; -269.800; -759.000; -852.000
883.593; -242.400; -677.000; -602.000
883.838;  -90.200; -311.000;  -24.000
884.083;   11.800;  353.000;  288.000
884.328; -163.500; -564.000; -545.000
884.573; -105.600; -196.000; -143.000
884.818; -213.900; -694.000; -531.000
885.063; -148.900; -348.000; -315.000
885.308; -186.600; -475.000; -398.000
885.553;   34.300;  245.000;  325.000
885.797; -221.100; -545.000; -615.000
886.042;  -54.300;    8.000;   58.000
886.287; -115.000; -253.000; -211.000
886.532;   -7.600;   26.000;  204.000
886.776; -138.200; -407.000; -525.000
887.021; -238.400; -621.000; -574.000
887.265; -219.800; -685.000; -689.000
887.510; -218.000; -557.000; -496.000
887.755; -106.600; -194.000; -164.000
887.999; -237.200; -552.000; -575.000
888.244;  -39.700;  -58.000;  161.000
888.488;   60.200;  371.000;  393.000
888.732; -198.100; -368.000; -520.000
888.977; -213.400; -622.000; -567.000
889.221; -280.100; -683.000; -659.000
889.465; -214.100; -422.000; -566.000
889.710; -109.300;  -56.000; -299.000
889.954;   48.900;  579.000;  467.000
890.198; -214.100; -584.000; -707.000
890.442; -253.700; -716.000; -712.000
890.687; -259.000; -800.000; -753.000
890.931; -130.900; -273.000; -210.000
891.175; -192.200; -502.000; -500.000
891.419;  -66.600; -105.000; -110.000
891.663; -117.900; -239.000; -112.000
891.907; -275.000; -801.000; -545.000
892.151; -290.300; -920.000; -815.000
892.395; -152.300; -274.000; -387.000
892.638;   35.800;  408.000;  291.000
892.882; -298.300; -780.000; -867.000
893.126;  127.800;  758.000;  558.000
893.370; -101.900; -167.000; -168.000
893.614; -233.700; -714.000; -715.000
893.857; -176.300; -183.000; -197.000
894.101; -187.500; -527.000; -631.000
894.345;  -38.000;  300.000;  150.000
894.588;  109.500;  569.000;  380.000
894.832; -114.700; -178.000;  -84.000
895.075;  -84.500;   15.000;  -92.000
895.319; -195.900; -552.000; -420.000
895.563; -176.000; -413.000; -353.000
895.806; -260.500; -628.000; -741.000
896.049; -183.900; -576.000; -368.000
896.293;   44.900;  527.000;  405.000
896.536; -212.100; -465.000; -468.000
896.779;  -81.900; -149.000;   -1.000
897.023; -277.800; -751.000; -714.000
897.266;   16.300;  325.000;  269.000
897.509; -315.700; -900.000; -901.000
897.752;  -45.300;  149.000;  171.000
897.996; -313.800; -972.000; -864.000
898.239;   -4.700;  168.000;  102.000
898.482; -185.300; -431.000; -453.000
898.725;  -55.800;  101.000;   53.000
898.968; -274.000; -609.000; -744.000
899.211; -224.600; -513.000; -361.000
899.454; -209.000; -633.000; -539.000
899.697;  -97.600;   90.000;  -43.000
899.940; -273.000; -761.000; -757.000
900.182; -162.100; -335.000; -405.000
900.425; -110.700; -150.000; -298.000
900.668;   41.100;  491.000;  350.000
900.911; -147.900; -292.000; -345.000
901.154;  -20.900;  141.000;   -3.000
901.396; -230.400; -407.000; -412.000
901.639; -261.000; -430.000; -496.000
901.882; -306.800; -790.000; -809.000
902.124; -104.900;  -29.000; -143.000
902.367; -174.700; -315.000; -361.000
902.609; -218.700; -476.000; -453.000
902.852; -108.000; -108.000; -260.000
903.094; -201.400; -458.000; -337.000
903.337;  -72.900;  -26.000;   53.000
903.579; -180.500; -228.000; -441.000
903.821; -269.800; -597.000; -744.000
904.064;  -59.700;   85.000;  127.000
904.306; -125.300; -126.000; -166.000
904.548; -183.400; -152.000; -366.000
904.790; -132.600; -195.000; -340.000
905.033; -204.900; -625.000; -577.000
905.275; -236.000; -513.000; -524.000
905.517;   37.000;  468.000;  256.000
905.759; -272.300; -667.000; -761.000
906.001; -216.800; -322.000; -369.000
906.243; -126.000; -162.000; -224.000
906.485; -158.500; -265.000; -207.000
906.727; -215.100; -499.000; -542.000
906.969;  -83.000;  -30.000; -135.000
907.211; -192.700; -316.000; -382.000
907.453; -130.000; -188.000; -237.000
907.695; -112.900; -158.000; -385.000
907.936;   96.800;  818.000;  706.000
908.178;  -61.300;   92.000; -135.000
908.420; -104.200; -111.000; -162.000
908.662; -263.800; -633.000; -682.000
908.903; -165.600; -208.000; -123.000
909.145; -126.200; -240.000; -305.000
909.386;   43.900;  315.000;  280.000
909.628;   32.200;  363.000;  397.000
909.870;  -44.900;   29.000;  264.000
910.111; -328.900; -809.000; -949.000
910.353; -125.100; -123.000; -161.000
910.594; -238.800; -574.000; -606.000
910.835; -178.900; -265.000; -326.000
911.077; -213.400; -503.000; -604.000
911.318; -251.300; -505.000; -471.000
911.559; -282.000; -577.000; -880.000
911.801; -169.700; -284.000; -280.000
912.042;  -63.700;  -50.000; -159.000
912.283;   36.900;  404.000;  371.000
912.524; -182.400; -396.000; -457.000
912.765;  -84.800; -193.000;   79.000
913.006; -140.900; -307.000; -338.000
913.247; -176.800; -270.000; -290.000
913.488; -111.700;  -43.000;   30.000
913.729; -213.200; -373.000; -373.000
913.970; -123.800;  -96.000; -292.000
914.211; -125.200; -160.000; -198.000
914.452; -130.800; -118.000;  -11.000
914.693;   63.200;  510.000;  592.000
914.934;   49.000;  510.000;  440.000
915.175;  -87.400;   53.000;  -95.000
915.415;  -95.800; -137.000;   27.000
915.656;  -88.800;  -28.000;  192.000
915.897; -161.500; -252.000;  -82.000
916.137;  -73.700;   74.000;   -9.000
916.378; -253.900; -573.000; -517.000
916.619; -152.200; -159.000;  -63.000
916.859;   -2.700;  303.000;  330.000
917.100;  328.600; 1655.000; 1070.000
917.340;  154.800;  930.000;  728.000
917.581;  100.800;  965.000;  789.000
917.821; -163.300; -171.000;  143.000
918.061; -148.400; -199.000;  -72.000
918.302; -153.200; -152.000; -211.000
918.542; -132.100;  -22.000;    3.000
918.782;   16.700;  369.000;  377.000
919.023;   20.200;  360.000;  427.000
919.263; 2133.200; 8131.000;  202.000
919.503; -139.600; -137.000;  -54.000
919.743;   18.000;  390.000;  266.000
919.983; -113.300; -134.000;  -26.000
920.223;  -62.200;  135.000;   14.000
920.463;   41.300;  631.000;  554.000
920.703;  -89.800;   84.000;   39.000
920.943; -131.100; -110.000;   90.000
921.183; -224.700; -414.000; -405.000
921.423;   68.800;  307.000;  546.000
921.663; -142.700; -174.000; -257.000
921.903;  -36.400;  237.000;  173.000
922.143;  -18.000;  372.000;  389.000
922.383;  -90.800;  158.000;  115.000
922.622; -139.800; -120.000;  -15.000
922.862;   88.200;  796.000;  785.000
923.102;  -96.300;  -51.000;   33.000
923.341; -120.700;   59.000;   74.000
923.581;   14.000;  450.000;  360.000
923.821;  -35.900;  301.000;  398.000
924.060;  -13.700;  351.000;  193.000
924.300;  -86.900;  -16.000; -128.000
924.539;   -2.100;  584.000;  473.000
924.779;  104.400;  812.000;  597.000
925.018;  -30.600;  247.000;  353.000
925.257;   80.400;  595.000;  666.000
925.497;   17.200;  447.000;  412.000
925.736; -107.000;  -35.000;  102.000
925.975;   25.900;  687.000;  669.000
926.214;  131.600;  907.000;  850.000
926.454;  100.600;  706.000;  757.000
926.693;  -12.500;  419.000;  543.000
926.932;  149.000; 1021.000;  825.000
927.171;  227.200; 1107.000; 1044.000
927.410;  188.800; 1144.000;  967.000
927.649;  141.000;  924.000;  742.000
927.888;   23.600;  590.000;  564.000
928.127;   55.500;  680.000;  678.000
928.366;   83.100;  842.000;  826.000
928.605;   75.200;  831.000;  737.000
928.844;  233.000; 1451.000; 1393.000
929.083;   40.500;  770.000;  613.000
929.321;  243.600; 1335.000; 1359.000
929.560;  213.200; 1158.000; 1122.000
929.799;    5.800;  574.000;  475.000
930.038;  261.800; 1025.000; 1394.000
930.276;  -15.900;  334.000;  397.000
930.515;  103.000;  827.000;  681.000
930.753;   22.000;  614.000;  589.000
930.992;   18.300;  664.000;  717.000
931.230;   60.500;  847.000;  847.000
931.469;  431.100; 2162.000;  892.000
931.707;  212.800;  840.000;  751.000
931.946;  198.700; 1278.000; 1344.000
932.184;  197.600; 1437.000; 1175.000
932.423;  160.500; 1265.000;  963.000
932.661;  195.900; 1296.000; 1428.000
932.899;   62.100;  987.000;  821.000
933.137;   45.000;  754.000;  564.000
933.376;  216.400; 1664.000; 1335.000
933.614;  345.700; 1759.000; 1196.000
933.852;  159.100; 1357.000; 1171.000
934.090;  252.300; 1722.000; 1747.000
934.328;  163.300; 1252.000; 1457.000
934.566;  178.400; 1431.000; 1110.000
934.804;  143.500; 1263.000; 1309.000
935.042;  286.700; 1861.000; 1850.000
935.280;  409.700; 2088.000; 2063.000
935.518;  369.900; 2113.000; 2007.000
935.756;  370.100; 2481.000; 2316.000
935.994;  243.200; 1808.000; 1751.000
936.231;  608.700; 2890.000; 2950.000
936.469;  394.300; 2367.000; 2378.000
936.707;  402.000; 2220.000; 2167.000
936.945;  579.500; 2825.000; 2882.000
937.182;  489.900; 2679.000; 2741.000
937.420;  642.700; 3602.000; 3031.000
937.657;  741.600; 3365.000; 3478.000
937.895;  717.600; 3331.000; 3488.000
938.133;  695.600; 3540.000; 3528.000
938.370;  817.500; 3896.000; 4191.000
938.607;  910.000; 4488.000; 4205.000
938.845; 1217.200; 5587.000; 5549.000
939.082; 1085.600; 5387.000; 5177.000
939.320; 1133.700; 5799.000; 5728.000
939.557; 1360.500; 6549.000; 6491.000
939.794; 1502.500; 7285.000; 7097.000
940.031; 1738.100; 8421.000; 8368.000
940.269; 1972.000; 9552.000; 9107.000
940.506; 2285.800;10901.000;10507.000

