
Integration time [ms]: 100.000
Averaging Nr. [scans]: 40
Smoothing Nr. [pixels]: 0
Data measured with spectrometer [name]: 2101013U2
Wave   ;Sample   ;Dark     ;Reference
[nm]   ;[counts] ;[counts] ;[counts] 

394.013;   66.340; -450.257; -315.536
394.305;  213.688; -461.258; -419.536
394.596;  917.591; -676.269; -527.514
394.887; 2113.932; -796.268; -654.518
395.178;  872.585;  145.736;   11.476
395.470;   91.621; -210.263; -356.526
395.761;  234.346;  305.734;  394.479
396.052;  337.224; -545.284; -306.489
396.343;  361.839; -557.276; -454.503
396.634;  163.635; -200.279; -290.497
396.926;  193.204; -618.268; -565.517
397.217;  158.569;   11.725;  -17.504
397.508;   87.134; -366.273; -154.507
397.799;   72.760; -555.279; -571.497
398.090;   17.705; -973.280; -902.495
398.381;  156.729;   11.708;  -11.473
398.672;   19.830; -585.292; -742.473
398.963;   67.766; -348.279; -373.498
399.254;  138.613;   54.709; -209.475
399.545;    3.393;-1017.266; -883.520
399.836;   82.579; -407.277; -343.501
400.127;   65.682; -205.295; -209.468
400.418;   84.103; -423.274; -392.506
400.709;   89.993; -359.281; -333.493
401.000;   89.367; -268.291; -309.476
401.290;  131.672;  225.698;  115.545
401.581;   80.283; -166.286; -228.485
401.872;   46.055; -542.298; -486.462
402.163;   75.150; -313.296; -252.467
402.454;  110.789; -123.291; -163.475
402.744;  124.116; -844.297; -813.465
403.035;  597.921; -226.293;  -86.471
403.326;  783.083; -366.292; -384.474
403.617;  471.850;  204.701;  165.539
403.907;  239.854; -593.283; -679.490
404.198; 1949.454; -545.307; -599.446
404.489; 5229.084; -618.283; -588.491
404.779; 1983.900; -618.302; -660.456
405.070;  238.155;  -67.304; -174.451
405.360;  310.072; -259.293; -238.472
405.651;  351.436;  125.699;   98.542
405.942;  256.378;  209.714;  127.516
406.232;  397.942; -432.285; -413.487
406.523;  639.316;  641.706;  758.530
406.813;  149.905; -579.286; -644.484
407.104;  458.728;  261.708;  144.527
407.394;  263.826; -604.299; -591.462
407.685;  185.741;  336.715;  222.513
407.975;   84.383; -400.283; -382.490
408.265;  127.502; -134.289; -190.478
408.556;   83.761; -472.291; -459.475
408.846;  189.367;  474.706;  429.530
409.137;  101.810;   -1.288; -216.480
409.427;   59.592; -193.285; -271.487
409.717;   49.186; -776.273; -692.508
410.007;  167.786;    4.715; -170.486
410.298;  100.709; -360.295; -342.469
410.588;   71.039; -495.285; -510.486
410.878;   38.021; -792.287; -873.482
411.168;  124.883; -481.298; -478.463
411.459;  121.978; -295.283; -242.489
411.749;   69.460; -609.292; -507.474
412.039;   71.534; -755.289; -386.480
412.329;  221.022;   40.722;  132.501
412.619;  216.081;  -62.286; -148.485
412.909;  414.180;  639.711;  594.521
413.199;  387.055; -130.280; -251.495
413.490;  450.996;  521.710;  352.523
413.780;  151.234;-1013.279; -913.496
414.070;  334.790;  -46.276;  235.497
414.360;  385.669; -729.278; -666.498
414.650;  399.117; -726.288; -688.482
414.940;  487.408; -538.280; -441.496
415.230;  850.689;   50.712;   74.519
415.520; 5193.615;  155.730;   66.486
415.809;20143.892; -305.281; -125.493
416.099;15668.506; -388.277; -229.501
416.389; 4076.326;  435.726;  236.494
416.679; 2424.774;   91.738;   85.473
416.969;  457.025; -527.287; -503.483
417.259;  513.535;  341.721;  171.503
417.549;  668.066;  522.718;  318.508
417.838; 1366.956; -205.268; -147.518
418.128; 4318.226;  650.710;  492.522
418.418; 3661.617; -491.272; -579.509
418.708; 2494.476;    9.726;  -48.506
418.997; 9095.297; -474.275; -480.505
419.287; 9477.233; -733.273; -790.507
419.577; 8570.302; -160.283; -123.489
419.866;28977.254; -588.277; -498.501
420.156;31016.937; -242.270;  -55.513
420.446; 5948.817; -112.263;  -26.526
420.735;  992.081; -376.271; -446.512
421.025;  838.993; 1830.722;  315.502
421.314;  860.054; -203.271; -226.512
421.604; 2111.125;   89.732;  233.484
421.893; 1223.751; -705.271; -602.511
422.183;  238.617; -487.263; -461.526
422.472;  380.627;  -36.271; -107.511
422.762;  471.798; -416.266; -379.521
423.051;  249.991; -916.276; -916.503
423.341;  337.835; -491.273; -439.507
423.630;  439.654; -121.265;   15.477
423.919;  406.422;   58.725;   49.495
424.209;  343.098;  -31.263;   56.473
424.498;  461.254;   68.732;  161.483
424.787;  917.060; -535.267; -601.518
425.077; 2958.977;   34.735;   29.478
425.366; 4830.678; -734.262; -744.528
425.655; 8207.410;  639.727;  259.493
425.945;15047.249; -313.247; -268.554
426.234; 8641.174;  117.741;  300.467
426.523; 4260.379;  -86.259; -350.534
426.812; 5905.994;  107.734;  159.480
427.101; 8268.396; -127.269; -323.515
427.390;11097.490;  -55.270;  -86.514
427.680; 3229.672; -624.257; -411.538
427.969;  548.307; -330.255; -301.540
428.258;  334.414; -385.257; -477.536
428.547;  591.646;  449.728;  397.490
428.836; 1598.922; -421.253; -398.543
429.125; 2354.606; -199.259;  -72.534
429.414;  947.444; -330.251; -294.548
429.703; 2606.594; -231.251; -213.548
429.992; 7514.672; -938.250; -828.549
430.281; 5026.536; -397.264; -331.524
430.570;  604.135;  -21.252;   32.454
430.859;  735.978;  279.741;  352.466
431.148;  530.970;  636.752;  631.446
431.437;  356.159;  391.748;  367.454
431.725;  173.491; -544.257; -481.536
432.014;  120.604; -845.253; -756.545
432.303;  421.840; -149.239; -105.569
432.592;  693.292; -460.263; -178.525
432.881;  952.496; -601.248; -437.554
433.169; 4770.783; -343.255;  -61.540
433.458; 9750.847;  445.765;  540.424
433.747; 4411.033; -397.261; -289.529
434.036; 1080.343; -275.242; -280.564
434.324; 1875.034; -395.249; -379.551
434.613; 3062.512;   40.757;  159.437
434.902; 1234.506;  333.760;  439.433
435.190;  941.614;   75.761;  295.431
435.479;  523.070;  -52.245;   83.441
435.767;  170.652; -411.244; -427.561
436.056;  285.789; -340.242; -294.563
436.345;  368.058; -372.240; -223.568
436.633;  394.979;   60.750;  383.450
436.922;  376.410;  208.760;  414.432
437.210; 1047.113; -194.236;    1.426
437.499; 3361.295; -583.235; -432.576
437.787; 3657.162; -339.236;  -10.574
438.075;  864.520;   56.761;  162.430
438.364; 1076.597;  -44.238;  250.429
438.652;  671.745; -286.226; -138.592
438.941;  188.986;    3.770;  269.415
439.229;   47.557; -665.252; -466.545
439.517;   60.828; -160.234;  -85.577
439.806;   18.709; -501.225; -290.595
440.094;  219.360;  377.766;  650.421
440.382;  308.014; -653.233; -302.580
440.670;  319.195; -361.235; -285.576
440.959;   60.926; -347.223; -170.599
441.247;   99.297; -151.229; -109.587
441.535;  158.101; -266.235;   31.423
441.823;   79.683; -497.234; -305.578
442.111;  230.226;  173.771;  327.412
442.400;  782.119; -628.245; -335.559
442.688; 2244.010; -111.234; -620.579
442.976; 1722.858; -786.213; -450.617
443.264;  169.641; -324.224; -364.597
443.552;  145.246; -258.226;   51.408
443.840;  210.000;  602.765;  876.423
444.128;  135.788;  265.767;  269.420
444.416;   36.278; -694.228; -312.588
444.704;   33.803; -465.219;  -92.605
444.992;  102.573;   -0.226;  240.407
445.280;   79.437; -517.230;  -94.585
445.568;   90.911; -694.212; -396.618
445.856;  490.964; -174.221;  357.398
446.143; 1120.400;  -54.220;   -7.604
446.431;  911.807;  -25.228;  625.411
446.719;  296.571;  489.783;  675.391
447.007;  211.807;  481.769;  705.416
447.295;  200.423;  597.777;  871.402
447.583;  100.145; -464.229;  -34.587
447.870;  202.011; -434.221; -202.601
448.158;  558.586; -104.230;  129.415
448.446;  440.801; -800.219; -338.604
448.733;  202.642;   13.776;  269.403
449.021;  305.561;   60.788;  341.382
449.309;  192.450; -296.210;  208.379
449.596;  240.493;  128.783;   59.392
449.884;  164.680; -571.222; -325.600
450.172;  121.187; -756.227; -406.590
450.459;  359.842;  645.786;  780.387
450.747; 1731.142; -411.218; -147.608
451.034; 5598.083;  493.772;  889.411
451.322; 4639.395; -413.214; -170.614
451.609;  445.718;  292.777;  508.403
451.897;  463.409; -550.203; -183.634
452.184; 1395.048; -622.223; -400.598
452.472; 1389.195;   97.792;  269.375
452.759;  365.802;  512.781;  864.395
453.047;  152.408; -407.212; -125.617
453.334;  132.584; -732.219; -216.606
453.621;  126.547; -438.214; -161.615
453.909;  147.426;   13.796;  384.368
454.196;  149.768; -299.199; -123.641
454.483;  262.996;  317.798;  540.364
454.771;  179.198; -215.208;  196.374
455.058;   47.726; -316.207;  102.374
455.345;  108.970;   71.807;  344.347
455.632;   89.904; -128.207;  235.373
455.919;   55.515;  -82.196;  182.354
456.207;  -43.202; -774.198; -450.642
456.494;  -11.093; -475.200;  -66.639
456.781;   13.142; -399.202; -198.635
457.068;   76.210; -253.206;  -29.628
457.355;    3.286; -698.206; -401.629
457.642;   18.641; -552.205; -290.630
457.929;   21.012; -778.194; -417.651
458.216;   56.359; -575.212; -354.617
458.503;  180.316; -173.193;  -19.652
458.790;  171.421; -864.208; -630.625
459.077;  261.496;  -77.202;  110.364
459.364;  646.405; -350.195; -210.649
459.651; 1351.258;  -46.206;  220.372
459.938;  632.912; -864.209; -665.623
460.225;  186.774;  132.799;  276.363
460.512;  -31.813; -836.197; -688.645
460.799;  127.740;  -32.218;  320.392
461.086;  138.936; -370.200; -251.640
461.372;   91.873; -509.198; -279.642
461.659;  175.366; -165.196;  108.354
461.946;  102.590; -445.193;  -54.651
462.233;  281.834;  842.800;  888.361
462.519;  333.556; -814.201; -464.639
462.806;  833.962; -768.197; -497.645
463.093;  721.484; -445.191;  -66.656
463.380;  -20.377; -920.186; -824.664
463.666;   76.789; -259.197;  -18.646
463.953;   91.150; -406.195; -243.648
464.239;  162.725; -173.195;  -77.648
464.526;  430.460;  413.806;  743.350
464.813;  413.345; -565.190; -304.658
465.099;  402.116;  606.807;  607.348
465.386;  403.244;  903.807;  921.348
465.672;   90.863; -694.197; -522.645
465.959;   43.912; -598.188; -520.662
466.245;   45.569; -468.193; -359.652
466.532;  127.698; -109.195;   63.352
466.818;  117.597; -357.186; -216.664
467.104;   13.085; -488.182; -415.672
467.391;    0.772; -628.189; -459.658
467.677;   62.001; -289.186;    9.335
467.964;   41.978; -682.189; -471.660
468.250;   92.303; -331.186; -160.665
468.536;   97.948;   90.811;  180.341
468.822;  -22.911; -821.184; -574.668
469.109;  151.710;  351.827;  471.311
469.395;  209.029;  729.808;  787.346
469.681;  200.426;   46.811;  156.341
469.967;  974.705; -699.188; -382.660
470.254; 2108.837; -494.188; -306.662
470.540; 1378.939; -601.196; -476.646
470.826;  212.545; -488.181; -397.675
471.112;  261.968;  288.816;  113.331
471.398;  101.047; -253.183;  -58.670
471.684;   55.747; -626.177; -447.680
471.970;  -16.526; -918.180; -981.675
472.256;   23.603; -521.192; -441.654
472.542;   50.696; -499.171; -434.691
472.828;   37.106; -743.182; -607.672
473.114;   57.986; -380.166; -283.700
473.400;   53.112; -504.175; -293.684
473.686;   58.642; -452.166; -400.701
473.972;   77.301; -230.174; -131.687
474.258;  -37.840; -925.173; -843.689
474.544;  141.364; -183.178;   -2.679
474.830;  220.814;  -65.175;   45.316
475.116;  326.446; -123.190; -196.658
475.401;  448.651; -558.180; -467.676
475.687;  147.050; -725.180; -718.676
475.973;   30.414; -673.181; -770.673
476.259;  291.616;  736.825;  764.315
476.544;  337.954; -539.176; -437.682
476.830;  591.342; -398.172; -322.690
477.116;  472.653; -430.177; -336.682
477.401;  144.701;  346.820;  358.324
477.687;    2.687; -289.175; -405.684
477.973;   31.717;   21.819;   28.326
478.258;   -0.639; -448.163; -348.706
478.544;   72.083;   21.815;   61.334
478.829;  -36.624; -818.171; -738.692
479.115;  -32.933; -749.172; -651.690
479.401;   12.622; -444.174; -449.686
479.686;   17.649; -253.180;  -74.676
479.972;  -37.631; -886.178; -776.680
480.257;   54.338; -258.166;  -65.700
480.542;   17.254; -614.170; -469.693
480.828;  245.161; 1288.824; 1392.317
481.113;  -18.841; -464.176; -426.683
481.399;    9.983; -236.161; -202.711
481.684;  -39.938; -620.166; -462.700
481.969;   26.546; -158.159;  -73.713
482.255;   -2.061; -439.169; -285.695
482.540;   12.394; -569.178; -441.680
482.825;    6.768; -395.187; -404.663
483.110;   74.042;  -85.169; -105.696
483.396;  108.041; -840.157; -652.718
483.681;  368.676;  543.826;  730.313
483.966;   97.040; -696.160; -700.712
484.251;   10.900; -404.174; -310.687
484.536;   20.897; -356.165; -378.703
484.822;   22.928; -205.173; -218.687
485.107;  -19.248; -599.152; -502.726
485.392;  141.002;  662.836;  541.296
485.677;   89.652;  354.832;  163.302
485.962;  115.089;  160.843;  270.283
486.247;  109.194;  -14.162;   -8.707
486.532;   43.214; -178.166; -325.701
486.817;  150.728;  381.839;  431.291
487.102;  104.736; -453.154; -514.722
487.387;  464.893; -637.156; -652.718
487.672;  789.582; -154.164;  -38.705
487.957;  497.285; -394.160; -286.711
488.241;  173.392; -290.150; -314.729
488.526;  524.153; -280.152; -148.726
488.811;  794.446; -881.177; -818.680
489.096;  632.813; -666.154; -702.723
489.381;  379.575;    3.847;  162.275
489.666;  257.183; -428.161; -510.710
489.950;  158.966;  558.846;  627.277
490.235;  -18.887; -480.151; -458.728
490.520;  -26.743; -756.161; -723.710
490.804;  -54.455; -827.156; -736.719
491.089;    2.457; -469.149; -299.732
491.374;   48.506; -132.164;  -75.704
491.658;   -4.882; -817.147; -717.735
491.943;  209.207; -657.152; -609.727
492.227;  290.532; -178.155;  -38.721
492.512;   70.613; -294.157; -341.717
492.797;  -60.899; -713.149; -716.731
493.081;  -52.205; -588.147; -598.735
493.366;  -34.966; -751.161; -635.711
493.650;  188.420;  831.859;  917.254
493.935;   25.792; -648.147; -447.734
494.219;  -46.992; -778.142; -687.743
494.503;  -51.953; -585.150; -487.730
494.788;   39.606;   46.842;   74.285
495.072;   97.494;  184.850;  434.271
495.356;  151.610; -463.148; -343.733
495.641;  434.601; -812.146; -736.736
495.925;  436.649; -976.156; -903.719
496.209;   52.407; -599.149; -451.732
496.494;  -22.816; -763.142; -544.744
496.778;   16.736; -364.154; -360.722
497.062;  -56.901; -819.156; -627.719
497.346;  -48.413; -869.160; -640.711
497.631;  136.638;  580.852;  560.266
497.915;   75.286;  -64.145;  175.261
498.199;   72.616; -341.157; -277.718
498.483;   40.626; -562.152; -508.725
498.767;  166.720;  301.850;  300.271
499.051;  139.329; -126.149; -100.732
499.335;    3.403; -693.149; -739.731
499.619;  -40.086; -381.129; -423.767
499.903;   40.506; -272.155;  -65.721
500.187;   30.618; -588.153; -316.724
500.471;   21.206; -796.152; -595.727
500.755;  117.958;   62.839;  -96.710
501.039;   29.056; -270.155; -357.721
501.323;  123.572;  -21.141;  264.254
501.607;   60.987; -447.163; -503.706
501.891;    4.543; -607.156; -512.718
502.174;  -25.003; -726.144; -585.741
502.458;   85.435;   89.849;  370.273
502.742;   44.894; -180.138; -191.751
503.026;   61.192; -412.147; -254.734
503.310;  102.370; -437.159; -375.713
503.593;   79.018; -464.147; -325.735
503.877;  137.132; -232.133; -156.760
504.161;  193.470;    2.847;  -50.724
504.444;  127.533; -841.158; -710.716
504.728;  302.605; -487.164; -522.704
505.012;  526.967; -257.150;  -76.729
505.295;  429.009; -417.161; -212.711
505.579;  366.499; -256.156; -496.719
505.862;  513.608; -555.145; -333.738
506.146;  483.297; -681.159; -758.714
506.429;  332.223;  568.841;  461.286
506.713;   46.414; -732.151; -667.728
506.996;  241.960;   90.846;  295.278
507.280;  230.176; -633.165; -474.703
507.563;  176.929; -469.155; -261.721
507.847;   66.418; -423.153; -112.724
508.130;   47.209; -665.161; -456.711
508.413;   65.958; -758.167; -577.700
508.697;  182.009; -151.167;   12.300
508.980;   95.020; -422.153; -312.724
509.263;   -8.474; -466.155; -450.720
509.547;   44.492; -124.150;   82.271
509.830;   50.111; -172.160;  140.289
510.113;   89.024;  128.844;  298.281
510.396;   39.775; -530.152; -300.725
510.680;  302.734; -818.145; -812.738
510.963; 1055.390;  184.846;  180.277
511.246;  959.924; -493.150; -357.730
511.529;  296.239; -482.145;  -83.739
511.812;  255.253; -250.134;   10.241
512.095;  153.186; -740.151; -396.728
512.378;   56.947; -317.147; -245.736
512.661;   -0.399; -703.137; -623.753
512.944;   -6.640; -750.142; -637.744
513.227;   61.023; -170.137; -171.752
513.510;   27.647; -479.144; -671.741
513.793;   31.376; -485.140; -435.747
514.076;  138.084;  -43.127;  -39.771
514.359;   84.257; -294.149; -135.732
514.642;   67.888; -442.142; -567.744
514.925;  550.074;  581.860;  561.253
515.208;  662.425; -498.134; -443.758
515.491;  455.063; -276.133; -182.761
515.773;  277.350; -410.143; -337.742
516.056; 1459.207;  249.864;  409.246
516.339; 2101.411; -754.136; -652.755
516.622; 2010.197; -518.150; -488.730
516.904; 1819.807;  882.857;  975.257
517.187;  828.747; -730.138; -523.752
517.470;  392.081; -568.143; -510.743
517.752;  291.463; -624.136; -470.756
518.035;  241.835; -708.139; -725.749
518.318;  241.336; -799.136; -744.755
518.600; 1595.616; -300.132; -325.762
518.883; 2213.837;  310.858;   88.256
519.165; 1134.240; -585.138; -426.751
519.448;  398.691;  -61.132;  -19.762
519.730;  224.991; -573.126; -415.773
520.013;  368.284;  588.867;  664.240
520.295; 1273.705;  -94.134;  -15.759
520.578; 2747.753; -335.131; -305.764
520.860; 3072.616; -254.132;   56.238
521.143; 1512.665; -763.135; -584.756
521.425;  451.503; -251.125; -279.775
521.707;  550.334; -622.127; -380.771
521.990; 1256.735; -199.127;  167.229
522.272; 1431.777; -116.140;   -4.748
522.554;  808.926; -237.143; -157.742
522.836;  446.678;  -24.134;   99.241
523.119;  263.066; -496.148; -189.734
523.401;  144.859; -448.130; -314.766
523.683;   54.676; -865.137; -693.753
523.965;  214.045;  408.862;  260.248
524.247;  219.923;   54.878;  170.220
524.529;  145.180; -451.134; -367.759
524.812;  298.186;   -3.130;  191.234
525.094;  582.870; -773.138; -631.751
525.376;  935.236; -143.124;   78.223
525.658;  555.183; -441.136; -339.754
525.940;    1.425; -805.131; -671.764
526.222;   58.211; -188.136;  -88.755
526.504;  151.523; -190.131;   32.237
526.786;  301.132; -960.133; -647.760
527.068;  457.742; -124.123;  -67.778
527.349;  230.480; -865.137; -774.754
527.631;  162.391; -137.132;   22.238
527.913;   77.958; -664.127; -450.771
528.195;   91.146; -761.125; -639.774
528.477;  178.225;  -93.134;  -30.758
528.759;   71.386; -648.130; -522.766
529.040;   27.315; -569.123; -293.778
529.322;   52.499; -235.125;  -10.774
529.604;  165.588;  -47.130;   93.233
529.886;  201.466; -546.126; -302.773
530.167;  163.605;  232.870;  192.235
530.449;   52.122;    1.853;   63.265
530.731;   -8.353; -572.122; -459.779
531.012;   34.866; -513.120; -216.784
531.294;   46.053; -118.116;  -43.792
531.575;  118.328;  290.875;  538.225
531.857;    2.920; -548.135; -266.757
532.138;   78.570; -113.141;   40.254
532.420;  210.842;  294.865;  403.244
532.701;  288.384; -722.133; -751.760
532.983;  443.412;  232.867;  182.239
533.264;  165.664; -243.126;  175.228
533.546;  -23.389; -491.136; -508.755
533.827;   64.181;  173.867;   -1.759
534.109;   75.420; -352.135;  -80.757
534.390;  124.719; -725.132; -582.762
534.671;  237.267; -270.135;  -82.756
534.953;  137.018; -751.123; -611.779
535.234;   14.464; -426.117; -255.789
535.515;  -81.101; -891.119; -735.785
535.796;  -19.520; -431.128; -193.770
536.078; -101.664;-1050.124; -904.777
536.359;    7.269;  -22.123;    3.221
536.640;   -2.877; -480.125; -197.774
536.921;  137.418;  225.871;  143.232
537.202;  295.117;  -87.138;  -16.751
537.483;  342.278;  251.869;  377.236
537.764;  132.255;   17.870;   98.235
538.045;  -27.651; -543.134; -371.758
538.326;  -24.005; -596.129; -447.768
538.607;    1.985; -686.127; -476.771
538.888;  133.683;   98.879;    5.218
539.169;  133.303; -704.122; -535.781
539.450;  299.517;  236.871;   16.233
539.731;  204.787; -361.121; -182.783
540.012;  130.266;  199.880;  412.216
540.293;   84.381;   82.876;  158.224
540.574;   17.422; -895.113; -717.796
540.855;  441.985;  435.879;  377.218
541.136;  475.625;   47.878;  139.220
541.416;  237.537; -161.130; -220.766
541.697;  146.498; -274.131; -170.763
541.978;  723.369; -270.135; -315.757
542.259;  925.610; -211.127; -236.771
542.539;  457.972; -191.116; -186.790
542.820;  184.528;  461.875;  480.225
543.101;  146.061;  -52.145;  -77.738
543.381;   48.610; -638.127; -591.771
543.662;  212.882;  159.873; -254.771
543.942;  392.131; -751.127; -830.770
544.223;  748.877;  193.878;  161.219
544.504;  481.311; -275.124; -182.777
544.784;  437.640; -592.126; -408.773
545.065; 1225.700;  104.884; -254.791
545.345; 1455.199;  227.881;   14.215
545.626;  943.246;  -14.113; -108.796
545.906;  610.155;   77.869;   98.235
546.186;  233.595;   92.874;  -95.773
546.467;  136.888;   99.877;  -95.778
546.747;  245.097;  264.884;  327.210
547.027;  274.234;   91.876;  111.223
547.308;  207.555; -376.127; -530.770
547.588;  303.620;  299.871;  371.232
547.868;  169.506;  458.870;  588.235
548.149;  168.082;  609.885;  593.207
548.429;   69.333; -347.127; -299.771
548.709;   95.141; -645.120; -461.784
548.989;  328.083;   84.882;   88.213
549.269; 1466.189;   10.868;  139.239
549.550; 3316.342;  215.877;  117.222
549.830; 2936.938; -758.111; -556.799
550.110;  602.245; -468.110; -320.801
550.390;  573.147; -128.122;  -56.779
550.670;  739.792; -868.114; -783.795
550.950;  564.635; -509.121; -471.782
551.230;  146.606;  549.879;  460.218
551.510;  -15.216; -381.121; -326.782
551.790;   33.127; -173.109; -127.803
552.070;  223.538;  940.877; 1181.223
552.350;  256.203; -492.119; -377.786
552.630;  397.404;   -2.121;   77.219
552.909;  261.751;  181.884;   73.209
553.189;  158.670;  -49.132;   33.237
553.469;   91.403; -703.119; -514.786
553.749;  107.861; -469.127; -357.772
554.029;   99.143;   33.883;  -24.790
554.308;   79.461; -154.115;  -37.794
554.588;   23.629; -196.128; -204.770
554.868;   20.586; -366.121;  -47.782
555.147;   93.959; -114.115;  -46.793
555.427;  379.028; -260.116; -250.792
555.707; 2641.557; -284.115; -200.793
555.986; 3155.516; -719.111; -538.800
556.266; 1707.546;   23.884;   72.210
556.546;   39.184; -888.121; -675.782
556.825;  143.515; -657.114; -556.794
557.105; 1209.602; -125.128;   17.230
557.384; 1417.775;  122.884;  187.209
557.664;  520.378; -717.116; -508.792
557.943;   55.135; -557.121; -411.782
558.222;  105.211; -345.118; -344.788
558.502;  199.935; -116.115;  -76.793
558.781;  372.656;  194.885;  499.208
559.061;  267.211; -232.118; -227.788
559.340;  204.140;  302.883;  353.211
559.619;  461.046;   93.884;  148.210
559.899;  659.667; -239.117; -266.789
560.178;  614.635; -778.115; -593.793
560.457; 2101.044; -623.117; -562.790
560.736; 2922.292; -472.111; -482.800
561.015; 1961.450; -500.128; -502.769
561.295;  276.746;  180.893;  215.193
561.574;  274.832;  119.885;  116.207
561.853;  389.306;  274.891;  303.197
562.132;  338.412;  -45.114;  182.206
562.411;  305.455;  396.879;  553.219
562.690;   62.456; -592.115; -458.792
562.969;  141.628;  472.888;  630.203
563.248;  474.777; 2966.878; 2487.219
563.527;  174.817; -290.111; -408.800
563.806;  221.958; -650.127; -521.771
564.085;  255.985; -297.105; -206.810
564.364;  144.470; -594.117; -405.790
564.643;  317.130; -276.121; -223.781
564.922; 1241.301;  221.890;  397.198
565.201; 1219.279; -640.109; -700.803
565.479;  524.754; -297.115; -219.792
565.758;  178.977; -810.128; -712.770
566.037;  320.780; -155.109; -100.803
566.316;  158.950; -286.116;  -28.791
566.595;   26.482;  -17.115;  -12.793
566.873;   94.894; -166.111;  -79.801
567.152;  -62.973; -490.113; -590.797
567.431;   -2.404; -113.116;    6.210
567.709;    4.821; -344.107; -212.807
567.988;  147.890; -810.114; -769.794
568.266;  369.957; -160.115;  -68.793
568.545;  252.379; -644.100; -514.819
568.824;  376.729;  160.885;  356.208
569.102;  343.540; -351.114; -235.794
569.381;  125.503; -492.116; -407.792
569.659;  -63.176; -553.113; -553.796
569.938;  -11.474; -743.122; -465.780
570.216;   59.708; -225.109; -225.804
570.494;  -37.707; -632.114; -572.795
570.773;   31.759;  202.879;  114.218
571.051;   -4.284; -373.123; -357.778
571.330;   52.047; -221.113; -174.796
571.608;   20.796; -181.098; -173.823
571.886;  -75.014; -671.111; -581.799
572.164;  -89.714; -739.121; -621.782
572.443;  -65.486; -562.105; -512.811
572.721;  -32.081; -399.117; -289.790
572.999;  -25.862; -280.117; -168.788
573.277;   81.207;  379.894;  620.191
573.555;  189.734;   94.894;   37.190
573.834;  859.162;  -86.117; -114.788
574.112; 1082.873;  880.893;  811.193
574.390;  311.418; -143.111;  -96.801
574.668;   -3.596;  -91.112;  -61.797
574.946;  -21.040; -165.106; -187.810
575.224;   19.604;   71.891;  -16.803
575.502;  -28.627; -200.116; -204.791
575.780;  -85.620; -767.112; -829.798
576.058;  202.267; 1589.889; 1004.200
576.336;  -17.878; -210.110; -129.801
576.614;  -64.370; -511.112; -340.798
576.891;    8.711; -711.115; -823.794
577.169;  295.165; -158.108; -285.805
577.447;  395.148;  169.893;  202.193
577.725;  220.909;  629.888;  854.201
578.003;   -9.768;  -71.112; -371.798
578.280;   71.772; -208.104; -242.812
578.558;   57.510; -450.115; -422.793
578.836;  119.168; -210.114; -145.795
579.114;   38.478; -630.112; -670.797
579.391;   72.364;   -6.117;  -18.789
579.669;  -77.188; -595.114; -704.794
579.947;  106.220; -326.107; -127.806
580.224;  197.220; -692.107; -524.806
580.502;  211.574;  127.893;   76.193
580.779;   18.070;  -42.117;   75.210
581.057;  -66.842; -584.109; -470.804
581.334;  -85.389; -726.102; -695.815
581.612;   39.260;   54.895;  511.190
581.889;  -29.227;  -83.101; -129.818
582.167;  -45.214; -298.099; -190.821
582.444; -101.357; -845.102; -814.817
582.721;   90.444;  657.899;  715.183
582.999;   12.584; -326.100; -167.821
583.276;  303.045; -812.123; -713.779
583.553;  465.864; -364.102; -294.816
583.831;  126.194; -607.104; -631.812
584.108;   62.088;  349.892;  174.195
584.385;   -4.365; -122.102;  -98.815
584.662;  -87.056; -651.111; -828.801
584.940;   29.718;  204.889;  204.199
585.217;  -20.976;  -73.113; -303.796
585.494;   34.802;   71.890;  118.198
585.771;  131.634; -250.109; -354.804
586.048;  358.649; -196.113;  -76.796
586.325;  208.396; -721.110; -773.801
586.602;   67.222;  230.896;  213.188
586.879;  -29.669; -499.100; -580.820
587.156;   23.961; -156.105; -331.810
587.433;  -55.209; -701.102; -667.817
587.710;   57.705;  152.888;  234.202
587.987;  225.766; -264.105; -236.811
588.264;  605.457;  315.888;  387.202
588.541; 1017.075;  -61.104;   26.187
588.818; 1981.261;   72.892;  171.196
589.095; 1726.320; -163.104; -174.812
589.371;  283.057; -459.109; -414.804
589.648;  -13.677; -581.107; -437.807
589.925;   -0.206; -517.114; -621.795
590.202;  -23.770; -741.112; -607.798
590.478;   49.593; -166.105;  -73.811
590.755;  179.891; -241.108; -132.806
591.032; 1652.673; -741.110; -699.802
591.308; 2273.833; -732.094; -790.831
591.585; 1162.223; -573.110; -560.802
591.862;   38.293;-1056.102; -950.817
592.138;   12.564; -475.108; -474.805
592.415;   96.373; -486.104; -495.813
592.691; 1083.721;  460.896;  518.188
592.968; 1349.147; -208.098; -123.824
593.244;  625.647; -695.116; -595.790
593.521;   40.743; -105.102;  -42.817
593.797;  -49.752; -810.122; -720.780
594.074;  210.834; -611.096; -588.826
594.350;  502.044;  828.905;  729.172
594.626;  190.019; -303.111; -283.801
594.903;   42.018; -643.101; -645.817
595.179;  130.276;  243.896;  418.187
595.455;    0.424; -136.107; -150.807
595.731;   11.178;  -19.103;  -38.814
596.008;  -49.536; -464.111; -434.800
596.284;    5.708; -187.100; -242.820
596.560;   19.064; -501.093; -493.833
596.836;  124.463; -173.105;  -70.810
597.112;  222.065; -582.108; -437.805
597.388;  191.832;  -49.097;  -48.826
597.665;   92.401;  437.887;  530.203
597.941;  -55.409; -572.089; -658.839
598.217;  -12.174; -323.110; -293.802
598.493;  184.985;   61.891; -204.804
598.769;  344.552; -175.100;  -50.819
599.045;  185.492; -490.108; -562.806
599.321;   15.532; -193.100; -261.820
599.597;   81.134; -355.109; -476.804
599.872;  338.724;  409.896;  429.187
600.148;  232.408;  -61.097; -172.826
600.424;  205.297;   91.893;  202.193
600.700;  149.674; -170.107; -280.807
600.976;   61.953; -442.097; -464.825
601.252;  162.631; -226.109; -272.803
601.527;   96.150; -833.104; -840.813
601.803;   85.593; -453.105; -404.812
602.079;  130.152; -124.100; -118.819
602.354;  390.698; -620.092; -531.835
602.630;  563.349; -140.113; -482.796
602.906; 1613.498; -910.101; -863.818
603.181; 4659.028; -627.119; -534.786
603.457; 3950.231;   98.903; -278.826
603.733;  552.487; -605.120; -626.783
604.008;  700.185; -245.106; -164.810
604.284; 2150.795; -636.101; -580.817
604.559; 1876.209;   -3.112;  -42.799
604.835;  332.163; -163.105; -225.810
605.110;  255.362; -732.099; -892.821
605.385;  495.941;  224.907;  267.167
605.661;  412.847; -625.095; -729.829
605.936;  741.943; -664.108; -737.806
606.211;  675.084;  -17.103; -170.815
606.487;  129.789; -329.114; -376.794
606.762;  -28.222; -791.119; -745.786
607.037;  -37.287; -501.105; -433.810
607.313;  -69.659; -589.096; -574.828
607.588;  -16.840; -375.106; -137.810
607.863;   14.398;  -28.101; -143.818
608.138;  146.775;  513.890;  516.198
608.413;  -16.485; -576.099; -592.822
608.688;    4.964; -203.108; -267.805
608.964;   99.904; -509.106; -218.809
609.239;  151.660; -107.105; -212.810
609.514;  188.518;  281.895;  240.188
609.789;  436.472; -187.104; -716.812
610.064;  606.540; -435.096; -609.827
610.339;  553.782; -855.109; -799.804
610.614;  762.457; -131.100; -315.820
610.889;  435.643;  215.895;  107.188
611.163;  -14.331; -407.104; -591.812
611.438;   47.915;   81.886; -167.794
611.713;  -11.905; -467.101; -499.817
611.988;   17.747; -144.101; -328.818
612.263;  -55.689; -771.102; -717.815
612.538;  167.748;  385.887;  251.204
612.812;   74.483; -832.100; -911.820
613.087;   60.820; -358.098; -338.823
613.362;  -67.951; -497.107; -557.807
613.637;   44.505;  261.897;  138.186
613.911;  -18.026; -256.092; -345.835
614.186;   51.348; -249.107; -292.807
614.460;  410.061; -842.081; -758.854
614.735;  517.738;  -55.087;  -17.843
615.010;  101.604;   43.912;  -82.841
615.284;  190.839;  360.892;  246.195
615.559;  223.248; -792.092; -955.835
615.833;  203.714;  -76.099;  -87.822
616.108;  -16.016; -225.090; -390.837
616.382;   94.914;  274.913;  402.156
616.656;   88.434; -241.090; -232.837
616.931;  336.139; -785.099; -700.822
617.205;  718.326; -973.104; -979.813
617.480;  672.176;  -91.125;    6.225
617.754;   95.724; -396.125; -128.774
618.028;  -16.729; -369.129; -382.768
618.302;   45.937;   73.892;  -25.805
618.577;  -60.818; -371.103; -518.815
618.851;  -67.747; -399.109; -600.803
619.125;  -58.845; -335.134; -378.759
619.399;  -24.874; -244.104; -374.813
619.673;  -62.571; -330.115; -515.792
619.947;  -51.957; -333.114; -448.795
620.222;  -21.280; -198.110; -204.801
620.496;  -12.390;  -47.121;  -96.782
620.770;   -3.147; -187.122;  -93.781
621.044;  156.611;  323.895;  346.190
621.318;  500.138; -653.120; -614.783
621.592;  462.386; -430.121; -409.783
621.866;  192.660; -476.112; -572.799
622.140;   -1.177; -207.116; -356.791
622.413;   40.739;  138.889;  112.200
622.687;  -55.805; -746.101; -492.817
622.961;    8.313; -130.108; -143.805
623.235;  -67.286; -633.111; -661.800
623.509; -116.357; -816.105; -848.811
623.783;    3.245;  -12.107;   48.193
624.056;  -33.411; -254.120; -280.783
624.330;   40.329;   63.888;   -3.797
624.604;    1.395; -271.116; -355.790
624.877;   51.449;  180.890;   26.198
625.151;    5.063; -249.114; -238.794
625.425;  -36.472; -150.103; -283.814
625.698;  -59.927; -367.119; -374.785
625.972; -107.399; -799.110; -765.802
626.245;   57.272;  685.884;  484.210
626.519;  -63.332; -426.120; -340.784
626.792;  -28.476; -192.107; -380.807
627.066;  -82.879; -485.122; -662.779
627.339; -104.202; -736.110; -663.802
627.613;   32.766;  351.880;  148.216
627.886;  -69.972;  187.891; -612.803
628.160;   -6.812;  312.880; -161.783
628.433;  -93.472; -695.125; -703.775
628.706;  -82.057; -517.120; -615.784
628.979;   18.785;  296.876;  117.223
629.253;  -95.423; -785.119; -833.786
629.526;  225.264; -334.126; -253.772
629.799;  184.391; -641.123; -479.778
630.072;   64.372; -497.128; -516.769
630.346; -106.878;-1115.116;-1080.790
630.619;  279.425; -467.107; -545.808
630.892;  439.340;  709.889;  593.200
631.165;  264.276;  790.896;  679.187
631.438; -111.518;-1092.112;-1055.798
631.711;   44.419;  453.877;  257.221
631.984;  -76.433; -523.117; -624.789
632.257;  -82.536; -636.117; -681.789
632.530;  -69.902; -412.119; -433.785
632.803;   15.836; -109.115;    7.207
633.076;  -71.587; -360.123; -422.777
633.349;   -2.074;  173.872;  121.231
633.622;  -48.403; -187.119; -240.785
633.895; -134.611; -903.120; -823.783
634.167;  -72.384; -496.126; -525.773
634.440;  -18.172;  -19.116; -137.792
634.713;   -9.049;  -22.119; -120.786
634.986;   71.242;  593.871;  453.233
635.258;  -91.766; -507.115; -597.793
635.531;   88.335;  742.882; -343.788
635.804;  -32.884; -303.117; -318.789
636.077;  -96.051; -830.116; -852.791
636.349;  -38.692; -586.115; -474.793
636.622;  343.438; 1695.874; 1392.228
636.894;  135.168; -474.120; -909.784
637.167;   64.333; -836.127; -789.771
637.439;   11.129; -278.128; -213.770
637.712;  -47.885; -312.126; -293.772
637.984;  -87.325; -635.116; -707.791
638.257;  318.839;  515.877;  488.222
638.529;  394.154; -881.125; -924.776
638.802;  168.972; -508.128; -449.769
639.074; -124.723; -927.122; -952.781
639.346; -129.328; -942.135; -930.757
639.619;  -16.889;  -79.142; -319.744
639.891;   -8.429;  -83.122; -168.779
640.163;  -76.202; -689.122; -756.780
640.435;   36.324;  273.878;  103.220
640.708;    5.326;  -72.122; -132.780
640.980;  -26.422; -366.122; -362.781
641.252;  155.479;  -25.121;  -71.781
641.524; 1475.006;  580.879;  573.219
641.796; 1422.108;-1094.121; -907.782
642.068;  238.960; -191.121; -300.782
642.340;  -61.964; -486.121; -566.783
642.613;   33.338;  294.880;  323.217
642.885; -101.710; -787.120; -878.783
643.157;  -77.434; -810.120; -658.784
643.428;   39.943;  170.880;  218.216
643.700;  -71.605; -498.120; -425.784
643.972;  -29.153;  -16.119; -133.785
644.244;  -95.677; -474.119; -559.785
644.516;  -54.625; -250.119; -114.786
644.788;   75.152;  662.881;  548.214
645.060;  -10.872;  -12.119; -124.786
645.332;  -92.945; -525.118; -535.787
645.603;   36.107;  479.882;  342.213
645.875;  -78.342; -334.118; -369.787
646.147;  174.135; 1487.882; 1242.212
646.418; -106.288; -931.117; -918.788
646.690;   23.964; -714.117; -715.789
646.962;   -5.310; -413.117; -451.789
647.233;    0.667;   15.883;   11.211
647.505; -113.006; -595.117; -475.790
647.776;   20.995;  328.884;  229.210
648.048;  -27.903; -248.116; -418.790
648.320;  -99.451; -752.116; -679.791
648.591; -158.199;-1055.116; -958.791
648.862; -102.648; -505.116; -577.792
649.134;    2.654;  115.885;  198.208
649.405;  -61.419; -661.115; -618.792
649.677;  -77.518; -475.115; -598.793
649.948;  -12.441; -181.115; -296.793
650.219;   -4.589;  -37.115; -147.793
650.491;  -92.938; -431.114; -520.794
650.762; -117.461; -705.114; -731.794
651.033;  -78.459; -437.114; -424.795
651.304; -104.132; -743.114; -728.795
651.576;  -76.756; -680.114; -645.795
651.847;  -43.079; -250.113; -140.796
652.118;  -21.427;  -32.113; -189.796
652.389; -101.751; -639.113; -722.796
652.660;  -29.599; -147.113;  -89.797
652.931; -144.297; -897.112; -871.797
653.202;  -83.946; -382.112; -541.798
653.473;  -78.219; -633.112; -533.798
653.744;   74.108; -595.112; -590.798
654.015;   85.185; -356.112; -303.799
654.286;  -83.739; -642.111; -663.799
654.557;  -71.887; -586.111; -521.799
654.828; -161.885;-1114.111;-1088.800
655.099;  -84.234; -404.111; -291.800
655.370;  -88.707; -427.111; -543.801
655.641; -123.955; -656.110; -714.801
655.911;  -89.928; -618.110; -638.801
656.182;   54.448;  437.890;  387.198
656.453;  118.500;  830.890;  746.198
656.724;  -62.898; -466.110; -426.802
656.994;  -93.247; -553.109; -568.803
657.265; -112.520; -862.109; -873.803
657.536;  -85.118; -500.109; -377.804
657.806; -111.492; -561.109; -593.804
658.077; -134.265; -866.109; -950.804
658.347;  -77.563; -523.108; -598.805
658.618; -117.286; -646.108; -694.805
658.888;  -22.335;  -41.108;  112.195
659.159;  -83.658; -432.108; -548.806
659.429;  -37.431; -292.108; -349.806
659.700;   -7.405; -435.107; -390.807
659.970;  -37.078; -370.107; -359.807
660.241;  -16.976; -754.107; -921.807
660.511;  360.251; -147.107; -174.808
660.781;   31.077; -793.106; -748.808
661.052;  -59.346; -222.106; -381.808
661.322;  -22.769;   21.894;   -9.809
661.592;   21.632;  257.894;  148.191
661.862;  -68.241; -369.106; -382.810
662.133;  -87.589; -551.105; -502.810
662.403; -110.988; -770.105; -676.810
662.673;  -65.961; -256.105; -213.811
662.943; -104.134; -612.105; -551.811
663.213;   -9.007;  -85.105;  -81.811
663.483;  -82.706; -593.104; -568.812
663.753;  -50.679; -194.104; -152.812
664.023;  -25.177;   68.896;  -32.813
664.293;  -61.376; -319.104; -126.813
664.563; -123.724; -694.104; -648.813
664.833; -115.097; -743.103; -608.814
665.103; -114.871; -730.103; -793.814
665.373; -132.619; -766.103; -806.814
665.643; -128.292; -863.103; -918.815
665.913;  -12.790; -534.103; -714.815
666.182;   82.136; -685.102; -719.816
666.452;  181.638;  -22.102;  -89.816
666.722;  -56.210; -724.102; -784.816
666.992; -134.934; -948.102; -921.817
667.261; -100.282; -824.102; -808.817
667.531;  194.395;  134.899;   45.183
667.801;  479.547; -440.101; -412.818
668.070;  222.273;  714.899;  697.182
668.340; -100.475; -883.101; -840.819
668.609;   84.877;  588.900;  301.181
668.879;  -86.547; -490.100; -558.819
669.149;  -79.470; -539.100; -516.820
669.418; -102.693; -698.100; -726.820
669.688;  -42.742; -482.100; -666.820
669.957;   17.335; -423.099; -546.821
670.226;  -33.663; -268.099; -331.821
670.496;  -95.986; -431.099; -635.822
670.765;  -90.410; -418.099; -501.822
671.034; -144.783; -872.099; -828.822
671.304;   -3.631;   55.902; -111.823
671.573; -162.180;-1085.098; -957.823
671.842;   26.697; -380.098; -294.823
672.112;  -24.676; -692.098; -586.824
672.381;  -14.649; -239.098; -214.824
672.650; -145.948;-1005.097;-1021.825
672.919;  -98.646; -631.097; -507.825
673.188; -109.444; -681.097; -878.825
673.457; -164.018;-1101.097;-1143.826
673.726;  -86.741; -579.096; -646.826
673.995;  -59.464; -533.096; -479.826
674.265;  -36.988; -263.096; -333.827
674.534;   -1.636; -183.096; -235.827
674.802;  -25.384; -618.096; -703.828
675.071;  694.143; -886.095; -801.828
675.340; 2720.819; -464.095; -339.828
675.609;  924.196;  103.905;   82.171
675.878;   14.498; -949.095; -893.829
676.147;   20.524;  -26.095;   -8.829
676.416;   23.701; -210.094; -294.830
676.685;  540.703; 1000.906; -622.830
676.953;   34.230; -603.094; -452.831
677.222;  -38.094; -193.094; -273.831
677.491;  -18.867;  -24.094; -127.831
677.759;  -25.015;   11.907;  172.168
678.028;  -21.989; -279.093; -222.832
678.297;  -12.512;   71.907;  197.168
678.565; -132.885; -898.093; -944.833
678.834;  -57.309; -311.093; -268.833
679.102;  -90.232; -411.092; -391.834
679.371; -148.255; -898.092; -727.834
679.639; -142.928; -797.092; -786.834
679.908; -115.902; -794.092; -724.835
680.176; -159.800; -895.091; -941.835
680.445;  -73.173; -346.091; -352.835
680.713;  -18.047;  -58.091;  -23.836
680.982;  -97.745; -523.091; -525.836
681.250; -100.618; -578.091; -507.837
681.518; -122.342; -534.090; -751.837
681.787;  -27.415; -204.090; -167.837
682.055;  -72.863; -490.090; -422.838
682.323; -147.811; -993.090; -992.838
682.591;   -9.110; -216.090; -538.838
682.859;   36.642;    9.911;  -35.839
683.128;    9.644;  232.911;  497.161
683.396; -181.530;-1102.089;-1122.840
683.664;  -37.303; -241.089;   21.160
683.932;    5.499;  144.911;  -76.840
684.200;  -76.399; -576.088; -320.841
684.468;  -33.273;  -73.088; -124.841
684.736;  -32.171; -214.088; -175.841
685.004; -128.569;-1024.088; -982.842
685.272;  -79.718; -880.088; -774.842
685.540;  -71.266; -499.087; -557.843
685.808; -106.864; -651.087; -682.843
686.076; -116.638; -894.087; -969.843
686.343;  -83.836; -601.087; -815.844
686.611;   11.666; -195.087; -224.844
686.879;  328.768; -530.086; -553.844
687.147; 2367.169; -483.086; -480.845
687.414;  639.821;  -12.086; -169.845
687.682;  -26.252; -658.086; -757.846
687.950;  215.174;  259.915;  263.154
688.217;  -25.049; -792.085; -760.846
688.485;  -35.022; -632.085; -636.847
688.753;  365.680;  -11.085; -102.847
689.020;   61.631; -820.085; -851.847
689.288; -102.142; -853.084; -787.848
689.555;  -26.165; -195.084; -148.848
689.823;  -54.664; -241.084; -345.849
690.090;  -92.937; -546.084; -651.849
690.358; -165.585; -877.084; -897.849
690.625;    5.316;  120.917;   45.150
690.892;  -90.282; -403.083; -369.850
691.160;  -19.605;   72.917;  -35.850
691.427;   -4.753;  141.917;  130.149
691.694; -141.502; -855.083; -929.851
691.962; -153.225;-1177.082;-1060.852
692.229;   -3.523;  127.918;   56.148
692.496;   44.278;  130.918;  -49.852
692.763;   -8.345; -164.082; -201.853
693.031;  -78.193; -739.082; -716.853
693.298;  -54.942; -509.081; -368.853
693.565;  218.135; -155.081; -163.854
693.832;  883.762;   -5.081;   -9.854
694.099;   88.689; -643.081; -642.855
694.366;  -76.410; -882.081; -896.855
694.633;  -76.033; -920.080; -633.855
694.900;  733.494; 4367.920; -114.856
695.167;  317.995; -214.080; -380.856
695.434;   59.372; -646.080; -623.856
695.701;  174.274;  121.921;  -61.857
695.968;  350.626; -365.079; -361.857
696.234;  937.502; -415.079; -646.858
696.501; 9822.504; -776.079; -614.858
696.768; 4875.731; -554.079; -617.858
697.035;  291.557; -632.078; -667.859
697.302;   23.209; -448.078; -552.859
697.568;    9.261; -458.078; -497.859
697.835;  -44.738; -683.078; -624.860
698.102;  -31.786; -498.078; -407.860
698.368;   74.066;  384.923;  396.139
698.635;  -38.882;  -47.077; -424.861
698.901;  -27.281; -240.077; -348.861
699.168;   20.021; -534.077; -456.862
699.435;   44.923;  -72.077;  -13.862
699.701; -106.801; -868.076; -764.862
699.968;  -52.624;  144.924; -441.863
700.234; -107.847; -783.076; -822.863
700.500;  -55.495; -448.076; -539.864
700.767;  -13.794;   -1.075;   26.136
701.033; -139.192;-1015.075; -963.864
701.299;  -52.090; -450.075; -483.865
701.566;  122.336;  950.925;  763.135
701.832;   32.988;  -31.075;  -76.865
702.098; -111.560;-1054.074;-1034.866
702.365;  -98.059;-1098.074;-1030.866
702.631;  -51.132;-1038.074;-1063.867
702.897; 1144.920; -765.074; -676.867
703.163; 1806.872;  348.926;  254.133
703.429;  117.948; -256.073; -273.868
703.695;  -41.675; -796.073; -792.868
703.961;    9.977; -214.073; -210.868
704.227;  -58.772; -630.073; -725.869
704.493;  123.680;  613.927;  510.131
704.759;  -21.318; -565.072; -540.870
705.025;   24.033; -203.072; -194.870
705.291;  -11.365; -666.072; -562.870
705.557;  196.612;  719.928;   34.129
705.823;   45.139; -742.072; -694.871
706.089;  141.615; -307.071; -326.871
706.355;  382.942; -315.071; -244.872
706.620; 5956.419; -776.071; -729.872
706.886; 7533.845; -309.071; -362.873
707.152;  645.547; -818.070; -973.873
707.418;  -14.826;-1153.070;-1186.873
707.683;   -6.674; -550.070; -530.874
707.949;  -38.973; -547.070; -578.874
708.215;  -10.946; -129.070; -207.874
708.480;  -27.019; -520.069; -420.875
708.746;   85.482;   68.931;   28.125
709.011;  -67.716; -578.069; -612.876
709.277;  -76.814; -538.069; -543.876
709.542;  -41.138; -428.069; -387.876
709.808;  -15.186;  -59.068;   89.123
710.073;  -75.459; -577.068; -695.877
710.339;  -26.832; -242.068; -228.877
710.604;   45.719; -780.068; -845.878
710.869;  261.021; -277.068; -366.878
711.135;  -86.877; -715.067; -628.879
711.400;  -85.501; -507.067; -608.879
711.665;  -61.874; -404.067; -479.879
711.931; -102.547; -661.067; -677.880
712.196; -134.295; -876.067; -954.880
712.461;   65.106; -402.066; -490.880
712.726;   61.858; -727.066; -771.881
712.991;  -90.665; -647.066; -664.881
713.256;  -43.864; -350.066; -332.882
713.521;  -57.637; -417.065; -381.882
713.787;  -66.235; -454.065; -472.882
714.052;  -25.934; -214.065; -400.883
714.317;  -96.057;-1045.065; -981.883
714.581; 1074.595; -374.065; -268.883
714.846; 1399.722; -822.064; -888.884
715.111;  140.998;  261.936;  257.116
715.376;  -32.275;  -86.064; -223.885
715.641;  -29.773; -365.064; -367.885
715.906;  208.303;   15.936; -551.885
716.171;  105.605;  221.937;  209.114
716.436;    6.057;  -78.063; -104.886
716.700; -114.117; -818.063; -692.886
716.965; -128.090; -794.063; -807.887
717.230;  -78.213; -339.063; -392.887
717.494;  -25.336;  -40.062; -134.888
717.759; -103.160; -784.062; -640.888
718.024;    9.017;  269.938;  250.112
718.288;   68.844;  685.938;  395.111
718.553; -144.630; -803.062; -977.889
718.817; -141.053; -883.061; -899.889
719.082;  -36.351; -115.061; -125.890
719.346; -153.824;-1000.061; -947.890
719.611;  -54.698; -300.061; -255.891
719.875; -119.796; -568.060; -537.891
720.140;  -70.744; -453.060; -603.891
720.404;   17.607; -136.060; -249.892
720.668;  604.234; -475.060; -411.892
720.933;  233.736;  146.940;  137.108
721.197; -114.738; -667.059; -600.893
721.461; -137.161; -851.059; -826.893
721.725;  -23.309;  -21.059; -250.894
721.990;  -62.332; -284.059; -204.894
722.254;  -24.331;  -26.059; -108.894
722.518;  -81.929; -286.058; -442.895
722.782;  -88.802; -743.058; -594.895
723.046;  113.474;  614.942;  570.105
723.310;   34.626;  374.942;  210.104
723.574; -102.822; -654.058; -614.896
723.838; -105.170; -576.057; -642.897
724.102;  -43.419; -226.057; -239.897
724.366; -137.967;-1032.057; -978.897
724.630; -103.565; -749.057; -571.898
724.894;  -77.289; -722.057; -514.898
725.158;   -3.537;   38.944; -295.898
725.422;  -67.235; -394.056; -327.899
725.685;  -70.734; -441.056; -349.899
725.949;  -81.157; -566.056; -519.900
726.213;  -73.980; -732.056; -811.900
726.477;   85.647;-1020.055; -933.900
726.740;   93.948; -274.055; -104.901
727.004;  303.775; -384.055; -510.901
727.268; 3305.177; -442.055; -400.901
727.531;  865.578; -961.055; -775.902
727.795;  -44.720; -713.054; -673.902
728.059;  -67.843; -552.054; -557.903
728.322;  -79.692; -841.054; -669.903
728.586;  -14.190; -692.054; -701.903
728.849;  -97.063; -695.053; -756.904
729.112; -118.561; -812.053; -912.904
729.376; -139.485; -959.053; -905.904
729.639;  -71.658; -536.053; -536.905
729.903; -113.106; -733.053; -699.905
730.166;  -58.055; -437.052; -399.906
730.429;  -37.053; -317.052; -468.906
730.693;  -88.526; -355.052; -894.906
730.956;  192.276;  810.948;  651.093
731.219;  555.227; -310.052; -103.907
731.482;   46.304;-1003.051; -894.907
731.745;   22.331; -794.051; -935.908
732.009;   -0.393;  -30.051;   50.092
732.272; -109.216; -904.051; -771.909
732.535;  -31.389; -300.051; -310.909
732.798; -163.588;-1083.050;-1166.909
733.061;  -64.611; -430.050; -456.910
733.324;   -2.059;   31.950; -180.910
733.587;   60.068;  290.950;  365.090
733.850;  -87.706; -973.049;-1050.911
734.113;   21.746;   33.951;   32.089
734.376;   -2.752; -328.049; -447.912
734.639;  203.399; 1188.951; 1011.088
734.901;   34.151; -180.049; -402.912
735.164;  381.328; -883.048; -837.913
735.427;  994.580; -166.048; -355.913
735.690;   89.731; -205.048; -234.913
735.952;  -56.692; -923.048; -925.914
736.215;  -55.465;-1113.048;-1009.914
736.478;   14.061; -771.047; -774.915
736.740;  173.513;   33.953;  129.085
737.003;  540.365; -658.047; -672.915
737.266; 3090.816;  -94.047;   46.084
737.528;  326.743; -682.047; -660.916
737.791;  261.520; -316.046; -327.916
738.053;  746.922;  465.954;  649.083
738.316;10132.073; -162.046; -136.917
738.578; 6664.900; -770.046; -736.918
738.841;  391.052; -382.046; -446.918
739.103;  135.428; -875.045; -777.918
739.365;  400.505;   79.955;  -69.919
739.628;  -26.743; -884.045; -805.919
739.890;  -34.841; -758.045; -710.919
740.152;  -49.565; -692.044; -754.920
740.414;  -19.988; -408.044; -359.920
740.677;  -60.536; -785.044; -634.921
740.939;  -71.060; -587.044; -487.921
741.201;  168.292; -432.044; -572.921
741.463;   -4.106; -689.043; -745.922
741.725;   -6.205;  -21.043; -199.922
741.987;   38.172;  220.957;  116.078
742.249;  -30.951; -751.043; -859.923
742.511;  122.476; -703.043; -794.923
742.773;  -23.048; -546.042; -546.924
743.035;  122.679;  796.958;  533.076
743.297;  -53.744; -963.042;-1013.924
743.559;  577.732; -278.042; -262.925
743.821;    6.234; -735.042; -744.925
744.083;   13.011;  -44.041; -149.925
744.345; -102.338; -869.041; -892.926
744.607;   33.364;   75.959;  122.074
744.868;  -62.659; -490.041; -554.927
745.130; -110.557; -994.041;-1008.927
745.392;   27.144;   -1.040;  -44.927
745.653;  -19.329; -411.040; -378.928
745.915;  145.323;  896.960;  631.072
746.177;   47.099;   35.960;  -43.928
746.438;  -19.449; -428.040; -543.929
746.700;  -69.497; -947.039; -988.929
746.961;   -2.770; -659.039; -740.930
747.223;  121.031; -190.039;  -74.930
747.484;   59.358; -391.039; -471.930
747.746;  123.635;  -23.038; -106.931
748.007;   65.111; -647.038; -689.931
748.269;  235.588; -468.038; -440.931
748.530;  356.140; -852.038; -638.932
748.791;  205.741; -354.038; -420.932
749.053;  365.243;  286.963;  163.067
749.314;  369.295; -236.037; -169.933
749.575;  403.122; -945.037; -905.933
749.836;  705.873; -217.037;   86.066
750.098; 2153.250;  -60.037;  -21.934
750.359;31182.502;  414.964;  555.066
750.620; 7425.003; -121.036; -220.935
750.881;  857.355; -585.036; -513.935
751.142; 1161.407; -950.036; -938.936
751.403;15524.009; -789.036; -705.936
751.664; 6402.160;-1034.035; -999.936
751.925;  426.087; -175.035; -262.937
752.186;  239.914; -298.035; -278.937
752.447;  100.715; -590.035; -445.937
752.708;   23.167; -532.035; -648.938
752.969;  -14.731; -566.034; -576.938
753.230;  -26.205; -777.034; -672.939
753.491;  -20.453; -650.034; -631.939
753.751;   38.774;  109.966;   19.061
754.012;   81.376;  258.967;  181.060
754.273;   25.952; -174.033;  -71.940
754.534;  -25.821; -487.033; -580.940
754.794;  -84.794; -926.033; -911.941
755.055;  148.307; 1051.967;  881.059
755.316;  -61.916; -700.032; -566.942
755.576;  -48.764; -606.032; -576.942
755.837;  -46.738; -527.032; -695.942
756.097;  -51.461; -530.032; -564.943
756.358;  -76.759; -725.032; -770.943
756.618;  -53.332; -705.031; -641.943
756.879;   -7.331; -254.031; -349.944
757.139; -130.779;-1098.031;-1116.944
757.400;  -57.427; -538.031; -553.945
757.660;  -28.001; -365.031; -401.945
757.920;    1.276; -266.030; -228.945
758.181;  -35.622; -468.030; -351.946
758.441; -106.995; -870.030; -809.946
758.701;  -32.719; -308.030; -215.946
758.961;  -12.742; -220.030; -278.947
759.222;  -61.540; -574.029; -502.947
759.482;  -89.264; -683.029; -723.948
759.742;  -86.237; -706.029; -547.948
760.002;    4.190;  -83.029; -143.948
760.262;   17.791;   50.972;  182.051
760.522;  -47.232; -498.028; -574.949
760.782;  -69.105; -738.028; -612.949
761.042;  -45.753; -618.028; -573.950
761.302;   47.873;   55.972;  -18.950
761.562;   44.150; -164.027; -154.951
761.822;   35.302; -710.027; -551.951
762.082;  -53.297;-1104.027;-1093.951
762.342;   48.105; -328.027; -403.952
762.601;   55.782; -567.027; -506.952
762.861;  283.034; -281.026; -207.952
763.121;  385.660; -406.026; -411.953
763.381; 7211.637; -499.026; -485.953
763.640; 7364.164; -139.026; -307.954
763.900;  328.965; -242.026; -203.954
764.160;   76.967; -458.025; -491.954
764.419;  -32.331; -726.025; -782.955
764.679;  -77.455; -795.025; -726.955
764.939;   -9.928; -124.025; -210.955
765.198;  -82.326; -608.025; -563.956
765.458;  -81.874; -710.024; -612.956
765.717;  -91.148; -454.024; -590.957
765.976;  -54.321; -428.024; -411.957
766.236;  -70.369; -475.024; -610.957
766.495;   19.682;  260.977;   73.042
766.755; -116.666;-1090.023; -987.958
767.014;  -23.314; -594.023; -665.958
767.273;  -57.763; -373.023; -397.959
767.533;  -35.861; -228.023; -307.959
767.792;  -30.334; -151.022; -188.960
768.051;  -59.957; -228.022; -276.960
768.310;  -88.681; -546.022; -650.960
768.569;   -0.279; -161.022;    4.039
768.828;  -33.252; -285.022; -363.961
769.088; -127.201;-1050.021; -942.961
769.347;  -90.874; -755.021; -599.962
769.606;  -99.997; -876.021; -857.962
769.865; -131.970;-1016.021;-1033.963
770.124;   -2.694; -411.021; -336.963
770.383;  -58.667; -778.020; -910.963
770.641;  -13.590; -398.020; -400.964
770.900;  -69.039; -953.020; -846.964
771.159;  -50.812; -851.020; -951.964
771.418;  -14.510; -917.020; -779.965
771.677;  121.416; -224.019; -293.965
771.936;  149.068; -794.019; -865.966
772.194; 2626.695; -465.019; -437.966
772.453;11249.822; -213.019; -391.966
772.712;  765.873;  416.982;  329.033
772.970;  112.675;   32.982;   63.033
773.229;   78.327;  -22.018;  102.033
773.488;  -81.397; -814.018; -770.968
773.746;   50.280;  296.982;  335.032
774.005;    2.757;  190.983;  -22.969
774.263;    3.934;  243.983;  177.031
774.522;  -92.165; -422.017; -548.969
774.780;  -93.138; -484.017; -417.970
775.039;  -83.161; -551.017; -531.970
775.297;  -27.310; -135.016; -351.970
775.555; -111.383; -489.016; -612.971
775.814; -130.581; -618.016; -570.971
776.072; -127.930; -749.016; -740.971
776.330; -105.628; -630.016; -520.972
776.589; -133.551; -703.015; -721.972
776.847; -136.449; -645.015; -624.973
777.105; -172.773;-1016.015;-1032.973
777.363;  -84.246; -459.015; -454.973
777.621; -138.619; -660.015; -717.974
777.879;  -39.043;  -42.014;   32.026
778.138;  -85.791; -554.014; -717.974
778.396; -110.339; -585.014; -526.975
778.654; -169.813;-1015.014; -970.975
778.912;  -73.736; -269.014; -371.976
779.170; -131.909; -880.013; -803.976
779.427; -153.932; -922.013; -897.976
779.685; -146.856; -880.013; -832.977
779.943; -104.004; -654.013; -593.977
780.201; -152.327; -964.012; -883.978
780.459; -131.776; -651.012; -610.978
780.717;  -96.024; -440.012; -390.978
780.974;  -95.772; -449.012; -490.979
781.232;  -67.520; -358.012; -338.979
781.490;  -97.144; -551.011; -472.979
781.747;  -98.842; -555.011; -476.980
782.005;   20.435;  462.989;  254.020
782.263; -163.889; -542.011;-1004.981
782.520; -106.237; -326.011; -501.981
782.778; -172.360;-1013.010;-1051.981
783.035; -172.959; -962.010; -938.982
783.293;  -80.332; -248.010; -206.982
783.550;  -69.430; -134.010; -198.982
783.808; -143.203; -764.010; -776.983
784.065; -163.277; -745.009; -874.983
784.322;  -51.475;   25.991;  -86.984
784.580; -166.248; -915.009; -771.984
784.837;  -94.322; -392.009; -466.984
785.094; -150.270; -783.009; -762.985
785.352;  -81.118; -304.008; -404.985
785.609; -134.841; -934.008; -839.985
785.866;  -95.440; -345.008; -401.986
786.123;  -88.563; -639.008; -583.986
786.380; -100.011; -665.008; -604.987
786.637;  -48.985; -225.007; -380.987
786.895;  -56.783; -456.007; -543.987
787.152;  -51.706; -135.007; -267.988
787.409;  -45.405; -123.007; -225.988
787.666;  -98.678; -299.006; -378.988
787.923; -117.326; -616.006; -695.989
788.179; -109.624; -551.006; -584.989
788.436; -114.473; -585.006; -585.990
788.693;  -36.746;  -92.006;  -87.990
788.950;  106.131; -125.005; -112.990
789.207;  128.957; -381.005; -372.991
789.464;  -55.516; -161.005; -301.991
789.720;  -20.264;  150.995;  110.009
789.977; -172.013;-1003.005; -671.992
790.234;  -34.211;   44.996;  -66.992
790.490; -155.209; -884.004;-1031.993
790.747;  -32.407;  -85.004;   22.007
791.004;  -36.981; -426.004; -348.993
791.260;  -95.629; -430.004; -560.994
791.517; -110.077; -843.003; -788.994
791.773;  -61.351; -379.003; -342.994
792.030; -114.124; -596.003; -660.995
792.286; -112.947; -686.003; -636.995
792.543;   -8.970;  -74.002; -159.995
792.799;  -64.094; -584.002; -382.996
793.055; -174.817;-1179.002;-1210.996
793.312; -107.440; -827.002; -816.997
793.568;  -81.614; -746.002; -599.997
793.824;   -4.412; -226.001; -284.997
794.081;   -2.285; -447.001; -508.998
794.337;   36.541; -664.001; -561.998
794.593; 1291.318; -319.001; -271.999
794.849; 5750.345; -746.001; -772.999
795.105;  250.997; -270.000; -261.999
795.361;    4.373; -490.000; -457.000
795.617;  -91.000; -875.000; -945.000
795.873;  -49.325; -360.000; -407.000
796.129;  -47.275; -368.000; -306.000
796.385;  -27.825; -124.000; -156.000
796.641;   51.000;  412.000;  550.000
796.897; -102.300; -666.000; -635.000
797.153;   65.500;  453.000;  357.000
797.409; -118.600; -785.000; -868.000
797.665;  -80.575; -625.000; -732.000
797.921;  -96.400; -775.000; -762.000
798.176;  -63.050; -744.000; -747.000
798.432;  -67.850; -824.000; -596.000
798.688;  -84.800;-1174.000;-1078.000
798.943;   67.950; -165.000; -147.000
799.199;    0.450;-1005.000; -959.000
799.455;  222.525;  369.000;  316.000
799.710;  116.775; -813.000; -380.000
799.966;  273.275; -162.000; -160.000
800.221;  452.200; -638.000; -721.000
800.477;10215.650; -743.000; -710.000
800.732; 8240.525; -773.000; -800.000
800.988;  625.425;  205.000;  -19.000
801.243; 2238.475; -454.000; -344.000
801.498; 8946.600; -814.000; -739.000
801.754;  491.575; -289.000; -163.000
802.009;   91.800; -257.000; -335.000
802.264;  -41.750; -967.000;-1033.000
802.520;   21.350;  222.000;   -3.000
802.775;  -55.950; -524.000; -359.000
803.030;   28.875;  395.000;  356.000
803.285; -116.600; -840.000; -903.000
803.540;  -70.625; -686.000; -699.000
803.795;  -65.775; -648.000; -583.000
804.051;  -48.350; -279.000; -346.000
804.306;   -0.575;  168.000;  128.000
804.561;  115.075;  451.000;  362.000
804.816;  136.525;  714.000;  861.000
805.071;    0.200; -185.000; -280.000
805.325;  139.350; -257.000; -427.000
805.580; -111.050; -841.000; -877.000
805.835;  -22.100; -204.000; -297.000
806.090;  -90.100; -760.000; -676.000
806.345;  -35.875; -344.000; -264.000
806.600;  -47.150; -549.000; -632.000
806.854;  -32.300; -408.000; -538.000
807.109;  -32.400; -493.000; -577.000
807.364;   -8.225; -407.000; -328.000
807.618;  -14.500; -415.000; -381.000
807.873;   19.925; -470.000; -494.000
808.128;   67.450; -257.000; -518.000
808.382;   87.325; -224.000; -332.000
808.637;   39.400; -440.000; -511.000
808.891;  150.725; -257.000; -180.000
809.146;   73.850; -902.000; -794.000
809.400;  197.125; -848.000; -923.000
809.654;  266.375; -779.000; -551.000
809.909;  408.475; -841.000; -927.000
810.163; 5946.475; -813.000; -651.000
810.418;13905.950; -940.000; -861.000
810.672;  870.250; -685.000; -690.000
810.926;  646.200; -993.000; -973.000
811.180; 1356.400; -439.000; -372.000
811.434;31180.125;  240.000;  135.000
811.689;11283.925; -231.000; -365.000
811.943;  538.000; -936.000; -953.000
812.197;  299.475; -893.000; -671.000
812.451;  112.625; -379.000; -514.000
812.705;  -33.550; -809.000; -619.000
812.959;  -13.000; -263.000; -388.000
813.213;  -12.225; -283.000; -209.000
813.467;   78.500;  470.000;  253.000
813.721; -111.950; -764.000; -792.000
813.975; -133.450; -826.000; -877.000
814.229;   40.400;  430.000;  353.000
814.482;  -80.300; -517.000; -566.000
814.736; -118.250; -766.000; -744.000
814.990; -149.600; -779.000; -872.000
815.244;  -46.025; -228.000; -285.000
815.497;  -93.100; -636.000; -601.000
815.751;  -33.675; -141.000;   82.000
816.005;  -79.950; -470.000; -586.000
816.258;  -69.000; -510.000; -363.000
816.512; -115.250; -693.000; -610.000
816.766;    3.375;  121.000;  157.000
817.019;   16.250;  148.000;  149.000
817.273; -135.850;-1000.000; -802.000
817.526;  -30.575; -206.000; -173.000
817.779; -102.025;-1049.000; -960.000
818.033; -100.175; -693.000; -807.000
818.286; -123.075; -725.000; -792.000
818.540;  -82.800; -403.000; -403.000
818.793;  -95.825; -402.000; -489.000
819.046; -109.075; -582.000; -520.000
819.299;  -36.075; -157.000; -166.000
819.553; -120.050; -552.000; -592.000
819.806; -163.375;-1016.000; -838.000
820.059;  -68.475; -334.000; -354.000
820.312;   13.825;  152.000;  185.000
820.565;  -18.725;  110.000;  -27.000
820.818;  -61.750;  -59.000; -173.000
821.071; -160.825;-1041.000; -957.000
821.324; -114.900; -536.000; -540.000
821.577;  -96.800; -457.000; -483.000
821.830;  -77.975; -270.000; -172.000
822.083; -132.250; -733.000; -288.000
822.336;  -48.400; -261.000; -167.000
822.589; -142.425; -805.000; -688.000
822.842; -150.875; -875.000; -770.000
823.094; -186.575;-1076.000;-1114.000
823.347; -142.000; -925.000; -729.000
823.600;   15.350;  402.000;  187.000
823.853;  -57.875; -311.000; -267.000
824.105;  -79.800; -331.000; -575.000
824.358; -123.475; -617.000; -716.000
824.611;   34.375;  234.000;   40.000
824.863;  -57.550; -612.000; -591.000
825.116;   36.550;  -33.000;   27.000
825.368;   44.975; -366.000; -372.000
825.621;  129.275; -186.000; -240.000
825.873;   47.850; -704.000; -737.000
826.126;  553.875; -669.000; -641.000
826.378;11035.850; -389.000; -505.000
826.630; 2397.825; -890.000; -898.000
826.883;   16.750; -754.000; -693.000
827.135;   17.375; -279.000; -270.000
827.387; -120.675; -893.000; -839.000
827.639;  -27.825;  -86.000;   32.000
827.892; -130.775; -742.000; -582.000
828.144; -137.325; -848.000; -804.000
828.396;  -46.400;  104.000;  -80.000
828.648; -102.650; -440.000; -333.000
828.900; -144.450; -702.000; -795.000
829.152; -133.700; -684.000; -683.000
829.404;  -88.875; -215.000; -267.000
829.656;  -58.575;  321.000;  214.000
829.908;  -28.500;  393.000;  229.000
830.160; -164.875;-1064.000;-1047.000
830.412; -108.175; -481.000; -430.000
830.664; -131.800; -557.000; -665.000
830.916;  -80.375; -268.000; -206.000
831.167; -168.600;-1073.000; -951.000
831.419; -116.825; -623.000; -566.000
831.671; -150.125; -764.000; -809.000
831.923; -101.450; -311.000; -447.000
832.174;  -93.050; -273.000; -331.000
832.426; -124.450; -493.000; -582.000
832.678; -196.450;-1043.000;-1091.000
832.929; -175.925; -947.000; -935.000
833.181;  -91.900; -575.000; -677.000
833.432;  -61.975;  -59.000; -186.000
833.684;  -23.475;  112.000;  -27.000
833.935; -118.750; -610.000; -566.000
834.187; -139.700; -829.000; -823.000
834.438;  -58.550;  -58.000;  -25.000
834.689;  -57.325; -255.000; -123.000
834.941;  -59.600; -343.000; -244.000
835.192; -100.000; -590.000; -533.000
835.443; -117.475; -419.000; -506.000
835.695;  -17.775;  138.000;  -16.000
835.946;  -95.725; -608.000; -378.000
836.197; -117.875; -599.000; -622.000
836.448; -106.575; -528.000; -395.000
836.699;  -69.450; -253.000; -341.000
836.950;  -18.650;   72.000;    7.000
837.201; -162.475;-1003.000; -987.000
837.452;  -51.775; -356.000; -170.000
837.703; -126.200; -791.000; -737.000
837.954;  -42.600; -205.000; -365.000
838.205;  -96.025;-1029.000;-1008.000
838.456;  116.750; -196.000; -282.000
838.707;  -13.025; -423.000; -519.000
838.958;  -24.900; -634.000; -647.000
839.209;  202.775;   18.000;   40.000
839.460;   93.525; -439.000; -201.000
839.710;  134.200; -135.000; -297.000
839.961;  378.200;  730.000;  612.000
840.212;  315.850; -382.000; -497.000
840.462; 1102.325; -328.000; -277.000
840.713;17695.025; -571.000; -536.000
840.964; 6351.275;  -62.000; -143.000
841.214;  417.350; -384.000; -624.000
841.465;  462.450; -214.000; -141.000
841.715;  393.725; -417.000; -380.000
841.966;  516.725; -746.000; -685.000
842.216; 7995.600; -330.000; -431.000
842.466;27521.900; -169.000; -313.000
842.717; 1327.625; -964.000; -952.000
842.967;  222.400; -635.000; -641.000
843.217;  199.625;   20.000;   28.000
843.468;   42.250; -104.000; -132.000
843.718;  -56.625; -718.000; -726.000
843.968; -116.375; -837.000; -765.000
844.218;   -3.350; -315.000; -262.000
844.469;  -62.500; -577.000; -561.000
844.719; -120.050; -537.000; -682.000
844.969; -110.525; -550.000; -580.000
845.219; -152.875; -814.000; -862.000
845.469;  -84.000; -392.000; -342.000
845.719; -150.150; -792.000; -884.000
845.969;  -31.650;  119.000;  174.000
846.219; -126.900; -738.000; -720.000
846.469;   14.850;  464.000;  432.000
846.718;  -63.200; -115.000;   31.000
846.968; -153.150; -827.000; -827.000
847.218;  -44.475; -224.000; -371.000
847.468;   -3.200; -586.000; -555.000
847.718; -144.125; -827.000; -798.000
847.967; -153.050; -826.000; -915.000
848.217;  -96.375; -449.000; -569.000
848.467;  -78.825; -405.000; -376.000
848.716; -111.100; -708.000; -725.000
848.966;  -20.800; -372.000; -358.000
849.215;  -70.350; -428.000; -419.000
849.465; -107.575; -785.000; -615.000
849.714; -159.575;-1132.000;-1150.000
849.964;  -90.250; -551.000; -613.000
850.213;  -15.650; -393.000; -355.000
850.463;   58.300;  137.000;  340.000
850.712;  -12.250; -542.000; -567.000
850.961;   -4.625; -739.000; -678.000
851.211;   84.100; -513.000; -504.000
851.460;  132.050; -635.000; -650.000
851.709;  532.225;  -25.000;   18.000
851.958;10171.825; -912.000; -750.000
852.208;11287.225; -859.000; -879.000
852.457;  403.775; -181.000;  -13.000
852.706;   42.750; -791.000; -823.000
852.955;   -1.575; -507.000; -528.000
853.204;  -77.800; -521.000; -461.000
853.453;  -71.750; -418.000; -458.000
853.702; -146.100; -660.000; -750.000
853.951; -123.525; -532.000; -520.000
854.200; -117.125; -613.000; -562.000
854.449; -141.850; -695.000; -661.000
854.698; -102.000; -340.000; -279.000
854.946;  -68.700; -181.000; -284.000
855.195; -163.450; -843.000; -868.000
855.444; -102.225; -395.000; -420.000
855.693; -125.950; -345.000; -432.000
855.941; -115.550; -387.000; -516.000
856.190;  -78.125; -256.000; -382.000
856.439; -141.550; -652.000; -703.000
856.687;  -77.875;  -99.000;  -72.000
856.936; -124.525; -621.000; -323.000
857.184; -196.175;-1067.000;-1020.000
857.433; -112.000; -423.000; -512.000
857.681; -171.650; -989.000; -953.000
857.930;  -82.125; -282.000; -433.000
858.178; -180.800; -856.000; -929.000
858.427; -161.925; -802.000; -781.000
858.675; -122.050; -377.000; -544.000
858.923; -111.775; -527.000; -819.000
859.172; -197.050;-1094.000;-1070.000
859.420;  -97.900; -339.000; -239.000
859.668; -135.150; -624.000; -628.000
859.916;  -26.875;  109.000;  115.000
860.164; -117.200; -699.000; -603.000
860.413;  162.150; -878.000; -696.000
860.661;   94.975; -709.000; -577.000
860.909; -106.350; -339.000; -325.000
861.157;  -93.875; -277.000; -444.000
861.405; -138.225; -534.000; -670.000
861.653;    4.525;  310.000;  310.000
861.901;   89.125; -543.000; -613.000
862.149;  -52.950; -801.000; -824.000
862.396;  -89.675; -297.000; -187.000
862.644;  -94.200; -368.000; -347.000
862.892;  -46.850;   98.000;  138.000
863.140; -120.400; -549.000; -530.000
863.388; -166.225; -815.000; -759.000
863.635; -140.875; -642.000; -601.000
863.883;  -10.950;  231.000;  190.000
864.131; -105.550; -288.000; -357.000
864.378; -146.900; -675.000; -540.000
864.626;  -99.750; -347.000; -415.000
864.873; -117.375; -556.000; -505.000
865.121; -138.750; -714.000; -799.000
865.368;  -39.400; -173.000;   75.000
865.616;  -42.625;  -33.000;  -40.000
865.863;  -63.425; -462.000; -506.000
866.111; -108.525; -795.000; -824.000
866.358;   63.625; -426.000; -420.000
866.605; 2869.250;  -64.000; -804.000
866.853; 2647.775; -621.000; -537.000
867.100;  -35.400; -728.000; -775.000
867.347;  -95.275; -672.000; -611.000
867.594;  -90.150; -740.000; -714.000
867.841;   53.975;   97.000;   17.000
868.089; -160.450; -746.000; -698.000
868.336; -103.725; -477.000; -420.000
868.583; -148.200; -637.000; -741.000
868.830;  -56.950; -131.000; -170.000
869.077; -173.200; -859.000; -787.000
869.324; -128.625; -502.000; -458.000
869.571; -143.900; -398.000; -430.000
869.818; -123.350; -485.000; -439.000
870.065; -129.425; -439.000; -513.000
870.311; -124.250; -456.000; -542.000
870.558; -109.725; -332.000; -311.000
870.805; -114.325; -320.000; -384.000
871.052; -107.225; -494.000; -369.000
871.298;  -65.600; -204.000; -131.000
871.545;  -82.000; -151.000; -185.000
871.792;  -86.925; -173.000; -222.000
872.038;  -60.150;   43.000; -126.000
872.285; -122.175; -496.000; -387.000
872.532; -103.950; -357.000; -387.000
872.778;   10.750;  556.000;  403.000
873.025;  -99.650; -384.000; -359.000
873.271;   19.100;  501.000;  578.000
873.517;  -36.750; -133.000; -209.000
873.764;  -40.450; -193.000;  -80.000
874.010;  -76.850; -143.000; -230.000
874.257;  -53.225;  123.000;   90.000
874.503; -127.850; -579.000; -479.000
874.749;  -75.150;   31.000;  275.000
874.995;  -62.225;  -80.000;  -20.000
875.242; -145.525; -540.000; -478.000
875.488; -129.275; -414.000; -439.000
875.734;  -65.225; -106.000; -234.000
875.980;   89.950; -872.000;-1032.000
876.226;  213.025; -157.000; -255.000
876.472;  -13.250;  343.000;  237.000
876.718;  -55.550;  184.000;  158.000
876.964;  -46.650;   56.000;   55.000
877.210; -163.925; -547.000; -677.000
877.456; -147.375; -630.000; -557.000
877.702; -190.650; -821.000; -832.000
877.948; -111.400; -377.000; -497.000
878.193;   25.125;  361.000;  255.000
878.439; -113.150; -487.000; -472.000
878.685; -116.575; -272.000; -343.000
878.931; -135.525; -618.000; -676.000
879.176;  -90.475; -201.000; -201.000
879.422; -187.375; -933.000; -820.000
879.668;    6.950;   10.000;   79.000
879.913;   69.375;   53.000;  137.000
880.159;  -65.525; -112.000;  -17.000
880.404;  -69.675; -152.000; -162.000
880.650;  -44.850;   91.000;  141.000
880.895; -155.800; -670.000; -710.000
881.141; -138.975; -454.000; -428.000
881.386; -154.950; -503.000; -658.000
881.631;  -90.775; -311.000; -166.000
881.877;  -46.950;  112.000;  -13.000
882.122; -154.525; -684.000; -600.000
882.367;  -97.450; -136.000; -186.000
882.612;  -86.400;  -80.000; -176.000
882.858; -189.200; -877.000; -823.000
883.103;  -91.125; -297.000; -267.000
883.348; -160.700; -759.000; -852.000
883.593; -155.825; -677.000; -602.000
883.838;  -62.475; -311.000;  -24.000
884.083;   17.350;  353.000;  288.000
884.328; -106.175; -564.000; -545.000
884.573;  -66.600; -196.000; -143.000
884.818;   95.475; -694.000; -531.000
885.063;   88.500; -348.000; -315.000
885.308; -106.225; -475.000; -398.000
885.553;  -14.525;  245.000;  325.000
885.797; -124.000; -545.000; -615.000
886.042;  -62.400;    8.000;   58.000
886.287;  -95.450; -253.000; -211.000
886.532;  -53.875;   26.000;  204.000
886.776; -101.575; -407.000; -525.000
887.021; -153.400; -621.000; -574.000
887.265; -170.800; -685.000; -689.000
887.510; -130.800; -557.000; -496.000
887.755;  -99.100; -194.000; -164.000
887.999; -136.725; -552.000; -575.000
888.244;  -53.800;  -58.000;  161.000
888.488;   -5.950;  371.000;  393.000
888.732; -126.975; -368.000; -520.000
888.977; -149.300; -622.000; -567.000
889.221; -164.525; -683.000; -659.000
889.465; -137.025; -422.000; -566.000
889.710;  -67.625;  -56.000; -299.000
889.954;   -0.150;  579.000;  467.000
890.198; -158.550; -584.000; -707.000
890.442; -151.700; -716.000; -712.000
890.687; -158.600; -800.000; -753.000
890.931;  -94.725; -273.000; -210.000
891.175; -135.925; -502.000; -500.000
891.419;  -81.400; -105.000; -110.000
891.663; -100.950; -239.000; -112.000
891.907; -169.650; -801.000; -545.000
892.151; -188.500; -920.000; -815.000
892.395; -114.675; -274.000; -387.000
892.638;  -24.900;  408.000;  291.000
892.882; -178.400; -780.000; -867.000
893.126;   14.675;  758.000;  558.000
893.370;  -89.900; -167.000; -168.000
893.614; -153.575; -714.000; -715.000
893.857; -111.425; -183.000; -197.000
894.101; -139.675; -527.000; -631.000
894.345;  -65.425;  300.000;  150.000
894.588;   18.900;  569.000;  380.000
894.832;  -91.025; -178.000;  -84.000
895.075;  -93.300;   15.000;  -92.000
895.319; -137.150; -552.000; -420.000
895.563; -127.650; -413.000; -353.000
895.806; -162.350; -628.000; -741.000
896.049;  -83.725; -576.000; -368.000
896.293;   59.900;  527.000;  405.000
896.536;  -99.350; -465.000; -468.000
896.779;  -69.475; -149.000;   -1.000
897.023; -158.600; -751.000; -714.000
897.266;  -31.550;  325.000;  269.000
897.509; -193.425; -900.000; -901.000
897.752;  -50.050;  149.000;  171.000
897.996; -201.925; -972.000; -864.000
898.239;  -49.825;  168.000;  102.000
898.482; -120.625; -431.000; -453.000
898.725;  -58.175;  101.000;   53.000
898.968; -174.150; -609.000; -744.000
899.211; -138.125; -513.000; -361.000
899.454; -140.150; -633.000; -539.000
899.697;  -77.875;   90.000;  -43.000
899.940; -179.600; -761.000; -757.000
900.182; -104.975; -335.000; -405.000
900.425;  -86.700; -150.000; -298.000
900.668;  -29.125;  491.000;  350.000
900.911; -111.600; -292.000; -345.000
901.154;  -49.625;  141.000;   -3.000
901.396; -147.400; -407.000; -412.000
901.639; -146.925; -430.000; -496.000
901.882; -193.325; -790.000; -809.000
902.124;  -84.325;  -29.000; -143.000
902.367; -117.925; -315.000; -361.000
902.609; -142.825; -476.000; -453.000
902.852;  -95.325; -108.000; -260.000
903.094; -140.225; -458.000; -337.000
903.337;  -65.450;  -26.000;   53.000
903.579; -107.025; -228.000; -441.000
903.821; -159.300; -597.000; -744.000
904.064;  -63.475;   85.000;  127.000
904.306;  -80.150; -126.000; -166.000
904.548; -120.375; -152.000; -366.000
904.790; -122.500; -195.000; -340.000
905.033; -147.750; -625.000; -577.000
905.275; -136.500; -513.000; -524.000
905.517;   15.450;  468.000;  256.000
905.759;  -97.700; -667.000; -761.000
906.001; -133.850; -322.000; -369.000
906.243;  -88.550; -162.000; -224.000
906.485;   53.900; -265.000; -207.000
906.727;   13.750; -499.000; -542.000
906.969;  -63.750;  -30.000; -135.000
907.211;   37.225; -316.000; -382.000
907.453;  149.050; -188.000; -237.000
907.695;  -31.775; -158.000; -385.000
907.936;   44.475;  818.000;  706.000
908.178;  -69.875;   92.000; -135.000
908.420;  -88.725; -111.000; -162.000
908.662; -141.300; -633.000; -682.000
908.903;  -98.625; -208.000; -123.000
909.145;  -77.800; -240.000; -305.000
909.386;  -17.300;  315.000;  280.000
909.628;   31.450;  363.000;  397.000
909.870;  -14.900;   29.000;  264.000
910.111; -110.300; -809.000; -949.000
910.353;  -13.375; -123.000; -161.000
910.594;  -23.000; -574.000; -606.000
910.835;   67.125; -265.000; -326.000
911.077;  132.675; -503.000; -604.000
911.318;  267.325; -505.000; -471.000
911.559;  406.775; -577.000; -880.000
911.801; 1318.425; -284.000; -280.000
912.042;10540.175;  -50.000; -159.000
912.283;25313.475;  404.000;  371.000
912.524; 3476.200; -396.000; -457.000
912.765;  419.625; -193.000;   79.000
913.006;  205.000; -307.000; -338.000
913.247;   19.175; -270.000; -290.000
913.488;   -9.400;  -43.000;   30.000
913.729; -104.875; -373.000; -373.000
913.970;  -79.700;  -96.000; -292.000
914.211;  -73.125; -160.000; -198.000
914.452;  -70.200; -118.000;  -11.000
914.693;   -1.375;  510.000;  592.000
914.934;    2.550;  510.000;  440.000
915.175;  -81.475;   53.000;  -95.000
915.415;  -88.075; -137.000;   27.000
915.656;  -73.950;  -28.000;  192.000
915.897;  -95.325; -252.000;  -82.000
916.137;  -82.500;   74.000;   -9.000
916.378; -136.925; -573.000; -517.000
916.619;  -96.450; -159.000;  -63.000
916.859;  -26.875;  303.000;  330.000
917.100;  144.075; 1655.000; 1070.000
917.340;   47.875;  930.000;  728.000
917.581;   43.775;  965.000;  789.000
917.821;  -52.700; -171.000;  143.000
918.061;  -28.675; -199.000;  -72.000
918.302;  -70.450; -152.000; -211.000
918.542;  -35.950;  -22.000;    3.000
918.782;   24.250;  369.000;  377.000
919.023;  104.450;  360.000;  427.000
919.263; 1261.500; 8131.000;  202.000
919.503;  863.200; -137.000;  -54.000
919.743;  471.100;  390.000;  266.000
919.983;  147.250; -134.000;  -26.000
920.223;   62.750;  135.000;   14.000
920.463;  149.800;  631.000;  554.000
920.703;  125.125;   84.000;   39.000
920.943;  154.125; -110.000;   90.000
921.183;  227.325; -414.000; -405.000
921.423;  490.400;  307.000;  546.000
921.663;  752.950; -174.000; -257.000
921.903; 1597.050;  237.000;  173.000
922.143; 9239.000;  372.000;  389.000
922.383;34345.575;  158.000;  115.000
922.622;10477.650; -120.000;  -15.000
922.862; 1149.175;  796.000;  785.000
923.102;  436.050;  -51.000;   33.000
923.341;  170.725;   59.000;   74.000
923.581;   75.900;  450.000;  360.000
923.821;   -8.525;  301.000;  398.000
924.060;   23.800;  351.000;  193.000
924.300;  -60.575;  -16.000; -128.000
924.539;   -3.725;  584.000;  473.000
924.779;   11.425;  812.000;  597.000
925.018;  -61.375;  247.000;  353.000
925.257;  -11.925;  595.000;  666.000
925.497;  -38.175;  447.000;  412.000
925.736;  -92.625;  -35.000;  102.000
925.975;   -6.100;  687.000;  669.000
926.214;   10.750;  907.000;  850.000
926.454;   13.350;  706.000;  757.000
926.693;  -39.950;  419.000;  543.000
926.932;   33.750; 1021.000;  825.000
927.171;   61.850; 1107.000; 1044.000
927.410;   70.375; 1144.000;  967.000
927.649;   22.050;  924.000;  742.000
927.888;   -9.975;  590.000;  564.000
928.127;   -6.750;  680.000;  678.000
928.366;   30.750;  842.000;  826.000
928.605;   38.500;  831.000;  737.000
928.844;  224.200; 1451.000; 1393.000
929.083;  519.050;  770.000;  613.000
929.321;  263.900; 1335.000; 1359.000
929.560;   86.100; 1158.000; 1122.000
929.799;  -23.975;  574.000;  475.000
930.038;   76.050; 1025.000; 1394.000
930.276;  -59.375;  334.000;  397.000
930.515;   -7.025;  827.000;  681.000
930.753;  -27.775;  614.000;  589.000
930.992;  -20.575;  664.000;  717.000
931.230;  -15.700;  847.000;  847.000
931.469;  173.100; 2162.000;  892.000
931.707;   61.200;  840.000;  751.000
931.946;   69.375; 1278.000; 1344.000
932.184;   67.225; 1437.000; 1175.000
932.423;   23.525; 1265.000;  963.000
932.661;   83.750; 1296.000; 1428.000
932.899;   10.475;  987.000;  821.000
933.137;  -13.950;  754.000;  564.000
933.376;  125.050; 1664.000; 1335.000
933.614;  152.975; 1759.000; 1196.000
933.852;   43.350; 1357.000; 1171.000
934.090;  135.725; 1722.000; 1747.000
934.328;  102.825; 1252.000; 1457.000
934.566;   92.375; 1431.000; 1110.000
934.804;  152.975; 1263.000; 1309.000
935.042;  549.300; 1861.000; 1850.000
935.280; 2298.525; 2088.000; 2063.000
935.518; 1973.850; 2113.000; 2007.000
935.756;  399.375; 2481.000; 2316.000
935.994;  137.900; 1808.000; 1751.000
936.231;  316.125; 2890.000; 2950.000
936.469;  184.300; 2367.000; 2378.000
936.707;  158.850; 2220.000; 2167.000
936.945;  231.650; 2825.000; 2882.000
937.182;  209.300; 2679.000; 2741.000
937.420;  297.650; 3602.000; 3031.000
937.657;  396.300; 3365.000; 3478.000
937.895;  324.450; 3331.000; 3488.000
938.133;  315.175; 3540.000; 3528.000
938.370;  360.250; 3896.000; 4191.000
938.607;  399.675; 4488.000; 4205.000
938.845;  553.125; 5587.000; 5549.000
939.082;  495.575; 5387.000; 5177.000
939.320;  547.150; 5799.000; 5728.000
939.557;  647.725; 6549.000; 6491.000
939.794;  730.600; 7285.000; 7097.000
940.031;  896.675; 8421.000; 8368.000
940.269; 1070.300; 9552.000; 9107.000
940.506; 1125.825;10901.000;10507.000

