
Integration time [ms]: 200.000
Averaging Nr. [scans]: 10
Smoothing Nr. [pixels]: 0
Data measured with spectrometer [name]: 2101013U2
Wave   ;Sample   ;Dark     ;Reference
[nm]   ;[counts] ;[counts] ;[counts] 

394.013;   61.641; -450.257; -315.536
394.305;  393.138; -461.258; -419.536
394.596; 2072.494; -676.269; -527.514
394.887; 5170.017; -796.268; -654.518
395.178; 2020.960;  145.736;   11.476
395.470;  162.275; -210.263; -356.526
395.761;  381.338;  305.734;  394.479
396.052;  584.918; -545.284; -306.489
396.343;  564.516; -557.276; -454.503
396.634;  140.072; -200.279; -290.497
396.926;  127.913; -618.268; -565.517
397.217;  160.122;   11.725;  -17.504
397.508;   84.045; -366.273; -154.507
397.799;    8.472; -555.279; -571.497
398.090;  -33.536; -973.280; -902.495
398.381;  160.513;   11.708;  -11.473
398.672;  -33.885; -585.292; -742.473
398.963;   36.981; -348.279; -373.498
399.254;  162.427;   54.709; -209.475
399.545; -140.567;-1017.266; -883.520
399.836;   97.601; -407.277; -343.501
400.127;   64.480; -205.295; -209.468
400.418;  112.137; -423.274; -392.506
400.709;   94.646; -359.281; -333.493
401.000;   92.033; -268.291; -309.476
401.290;  177.491;  225.698;  115.545
401.581;  115.094; -166.286; -228.485
401.872;    3.741; -542.298; -486.462
402.163;   81.569; -313.296; -252.467
402.454;  155.328; -123.291; -163.475
402.744;   51.857; -844.297; -813.465
403.035;  576.401; -226.293;  -86.471
403.326;  767.519; -366.292; -384.474
403.617;  570.833;  204.701;  165.539
403.907;  404.326; -593.283; -679.490
404.198; 4402.426; -545.307; -599.446
404.489;11470.633; -618.283; -588.491
404.779; 3796.296; -618.302; -660.456
405.070;  393.366;  -67.304; -174.451
405.360;  596.003; -259.293; -238.472
405.651;  695.911;  125.699;   98.542
405.942;  319.787;  209.714;  127.516
406.232;  341.008; -432.285; -413.487
406.523;  765.793;  641.706;  758.530
406.813;  132.590; -579.286; -644.484
407.104;  518.011;  261.708;  144.527
407.394;  232.334; -604.299; -591.462
407.685;  286.506;  336.715;  222.513
407.975;   74.131; -400.283; -382.490
408.265;  185.348; -134.289; -190.478
408.556;  129.924; -472.291; -459.475
408.846;  300.995;  474.706;  429.530
409.137;  178.860;   -1.288; -216.480
409.427;   56.007; -193.285; -271.487
409.717;   17.749; -776.273; -692.508
410.007;  243.198;    4.715; -170.486
410.298;  128.883; -360.295; -342.469
410.588;   83.504; -495.285; -510.486
410.878;   15.376; -792.287; -873.482
411.168;  155.844; -481.298; -478.463
411.459;  204.723; -295.283; -242.489
411.749;   84.022; -609.292; -507.474
412.039;   96.758; -755.289; -386.480
412.329;  349.891;   40.722;  132.501
412.619;  330.491;  -62.286; -148.485
412.909;  676.352;  639.711;  594.521
413.199;  472.865; -130.280; -251.495
413.490;  696.039;  521.710;  352.523
413.780;  210.870;-1013.279; -913.496
414.070;  559.417;  -46.276;  235.497
414.360;  571.085; -729.278; -666.498
414.650;  633.670; -726.288; -688.482
414.940;  926.769; -538.280; -441.496
415.230; 1568.566;   50.712;   74.519
415.520;10763.292;  155.730;   66.486
415.809;42526.446; -305.281; -125.493
416.099;34257.804; -388.277; -229.501
416.389; 9503.434;  435.726;  236.494
416.679; 5777.680;   91.738;   85.473
416.969;  915.882; -527.287; -503.483
417.259; 1073.673;  341.721;  171.503
417.549; 1170.044;  522.718;  318.508
417.838; 2909.416; -205.268; -147.518
418.128;10005.647;  650.710;  492.522
418.418; 8523.358; -491.272; -579.509
418.708; 5479.034;    9.726;  -48.506
418.997;20942.728; -474.275; -480.505
419.287;22420.943; -733.273; -790.507
419.577;20866.422; -160.283; -123.489
419.866;64324.701; -588.277; -498.501
420.156;64298.387; -242.270;  -55.513
420.446;12598.170; -112.263;  -26.526
420.735; 1385.678; -376.271; -446.512
421.025; 1597.584; 1830.722;  315.502
421.314; 1019.376; -203.271; -226.512
421.604; 1845.606;   89.732;  233.484
421.893; 1104.371; -705.271; -602.511
422.183;  350.370; -487.263; -461.526
422.472;  626.673;  -36.271; -107.511
422.762;  714.841; -416.266; -379.521
423.051;  373.118; -916.276; -916.503
423.341;  497.346; -491.273; -439.507
423.630;  671.750; -121.265;   15.477
423.919;  625.127;   58.725;   49.495
424.209;  621.778;  -31.263;   56.473
424.498;  816.513;   68.732;  161.483
424.787; 1802.221; -535.267; -601.518
425.077; 5643.348;   34.735;   29.478
425.366; 7410.186; -734.262; -744.528
425.655;17188.947;  639.727;  259.493
425.945;39617.566; -313.247; -268.554
426.234;22758.717;  117.741;  300.467
426.523; 8760.325;  -86.259; -350.534
426.812;12265.735;  107.734;  159.480
427.101;17917.501; -127.269; -323.515
427.390;22603.292;  -55.270;  -86.514
427.680; 4524.452; -624.257; -411.538
427.969;  783.067; -330.255; -301.540
428.258;  482.440; -385.257; -477.536
428.547;  849.664;  449.728;  397.490
428.836; 1687.290; -421.253; -398.543
429.125; 2430.927; -199.259;  -72.534
429.414; 1195.122; -330.251; -294.548
429.703; 5406.322; -231.251; -213.548
429.992;16436.727; -938.250; -828.549
430.281;11035.060; -397.264; -331.524
430.570; 1017.508;  -21.252;   32.454
430.859;  878.924;  279.741;  352.466
431.148;  790.861;  636.752;  631.446
431.437;  497.608;  391.748;  367.454
431.725;  272.143; -544.257; -481.536
432.014;  159.000; -845.253; -756.545
432.303;  621.366; -149.239; -105.569
432.592;  874.169; -460.263; -178.525
432.881; 1675.462; -601.248; -437.554
433.169;11004.768; -343.255;  -61.540
433.458;22365.714;  445.765;  540.424
433.747; 9524.793; -397.261; -289.529
434.036; 1386.333; -275.242; -280.564
434.324; 3483.844; -395.249; -379.551
434.613; 6405.524;   40.757;  159.437
434.902; 2108.353;  333.760;  439.433
435.190;  765.365;   75.761;  295.431
435.479;  426.798;  -52.245;   83.441
435.767;  145.509; -411.244; -427.561
436.056;  296.127; -340.242; -294.563
436.345;  608.256; -372.240; -223.568
436.633;  637.738;   60.750;  383.450
436.922;  415.959;  208.760;  414.432
437.210;  682.100; -194.236;    1.426
437.499; 2099.811; -583.235; -432.576
437.787; 2353.299; -339.236;  -10.574
438.075;  659.773;   56.761;  162.430
438.364;  927.176;  -44.238;  250.429
438.652;  534.123; -286.226; -138.592
438.941;  221.772;    3.770;  269.415
439.229;   -8.396; -665.252; -466.545
439.517;   41.823; -160.234;  -85.577
439.806;  -30.255; -501.225; -290.595
440.094;  314.334;  377.766;  650.421
440.382;  225.439; -653.233; -302.580
440.670;  215.511; -361.235; -285.576
440.959;   19.069; -347.223; -170.599
441.247;   84.488; -151.229; -109.587
441.535;   99.621; -266.235;   31.423
441.823;  -36.270; -497.234; -305.578
442.111;  285.294;  173.771;  327.412
442.400;  629.697; -628.245; -335.559
442.688; 1672.433; -111.234; -620.579
442.976; 1130.192; -786.213; -450.617
443.264;  123.754; -324.224; -364.597
443.552;  123.324; -258.226;   51.408
443.840;  320.919;  602.765;  876.423
444.128;  177.538;  265.767;  269.420
444.416;  -33.402; -694.228; -312.588
444.704;   11.811; -465.219;  -92.605
444.992;  158.028;   -0.226;  240.407
445.280;   39.573; -517.230;  -94.585
445.568;   11.497; -694.212; -396.618
445.856;  389.588; -174.221;  357.398
446.143;  941.305;  -54.220;   -7.604
446.431;  766.603;  -25.228;  625.411
446.719;  402.437;  489.783;  675.391
447.007;  317.365;  481.769;  705.416
447.295;  344.965;  597.777;  871.402
447.583;   92.885; -464.229;  -34.587
447.870;  193.284; -434.221; -202.601
448.158;  501.272; -104.230;  129.415
448.446;  388.207; -800.219; -338.604
448.733;  240.556;   13.776;  269.403
449.021;  322.396;   60.788;  341.382
449.309;  260.017; -296.210;  208.379
449.596;  387.232;  128.783;   59.392
449.884;  217.575; -571.222; -325.600
450.172;  208.711; -756.227; -406.590
450.459;  759.769;  645.786;  780.387
450.747; 4070.530; -411.218; -147.608
451.034;13205.605;  493.772;  889.411
451.322;11300.473; -413.214; -170.614
451.609;  999.558;  292.777;  508.403
451.897; 1003.005; -550.203; -183.634
452.184; 3055.665; -622.223; -400.598
452.472; 2957.747;   97.792;  269.375
452.759;  609.908;  512.781;  864.395
453.047;  178.693; -407.212; -125.617
453.334;   70.619; -732.219; -216.606
453.621;   99.176; -438.214; -161.615
453.909;  207.394;   13.796;  384.368
454.196;  134.858; -299.199; -123.641
454.483;  372.624;  317.798;  540.364
454.771;  200.551; -215.208;  196.374
455.058;   47.656; -316.207;  102.374
455.345;  201.435;   71.807;  344.347
455.632;  155.661; -128.207;  235.373
455.919;   62.689;  -82.196;  182.354
456.207; -139.636; -774.198; -450.642
456.494;  -51.459; -475.200;  -66.639
456.781;  -10.882; -399.202; -198.635
457.068;   87.870; -253.206;  -29.628
457.355;  -39.329; -698.206; -401.629
457.642;  -40.721; -552.205; -290.630
457.929;  -35.378; -778.194; -417.651
458.216;   80.793; -575.212; -354.617
458.503;  392.029; -173.193;  -19.652
458.790;  362.148; -864.208; -630.625
459.077;  473.124;  -77.202;  110.364
459.364; 1360.213; -350.195; -210.649
459.651; 2901.967;  -46.206;  220.372
459.938; 1359.335; -864.209; -665.623
460.225;  226.029;  132.799;  276.363
460.512;  -86.515; -836.197; -688.645
460.799;  159.728;  -32.218;  320.392
461.086;   82.447; -370.200; -251.640
461.372;   -3.635; -509.198; -279.642
461.659;  142.391; -165.196;  108.354
461.946;   76.027; -445.193;  -54.651
462.233;  474.144;  842.800;  888.361
462.519;  488.839; -814.201; -464.639
462.806; 1579.086; -768.197; -497.645
463.093; 1435.456; -445.191;  -66.656
463.380;  -90.386; -920.186; -824.664
463.666;   80.888; -259.197;  -18.646
463.953;  156.305; -406.195; -243.648
464.239;  342.105; -173.195;  -77.648
464.526;  658.520;  413.806;  743.350
464.813;  456.772; -565.190; -304.658
465.099;  572.028;  606.807;  607.348
465.386;  538.334;  903.807;  921.348
465.672;  -11.314; -694.197; -522.645
465.959;  -13.603; -598.188; -520.662
466.245;    0.634; -468.193; -359.652
466.532;  110.602; -109.195;   63.352
466.818;   87.613; -357.186; -216.664
467.104;  -25.031; -488.182; -415.672
467.391;  -30.225; -628.189; -459.658
467.677;   46.718; -289.186;    9.335
467.964;  -39.616; -682.189; -471.660
468.250;  103.722; -331.186; -160.665
468.536;  164.376;   90.811;  180.341
468.822; -102.861; -821.184; -574.668
469.109;  276.882;  351.827;  471.311
469.395;  376.948;  729.808;  787.346
469.681;  346.181;   46.811;  156.341
469.967; 2025.787; -699.188; -382.660
470.254; 4536.898; -494.188; -306.662
470.540; 2893.289; -601.196; -476.646
470.826;  390.885; -488.181; -397.675
471.112;  502.444;  288.816;  113.331
471.398;  180.350; -253.183;  -58.670
471.684;   60.324; -626.177; -447.680
471.970;  -42.510; -918.180; -981.675
472.256;  -13.154; -521.192; -441.654
472.542;   11.698; -499.171; -434.691
472.828;  -35.036; -743.182; -607.672
473.114;   32.458; -380.166; -283.700
473.400;   -5.852; -504.175; -293.684
473.686;   69.567; -452.166; -400.701
473.972;   65.668; -230.174; -131.687
474.258;  -89.118; -925.173; -843.689
474.544;  361.813; -183.178;   -2.679
474.830;  516.850;  -65.175;   45.316
475.116;  812.874; -123.190; -196.658
475.401; 1066.093; -558.180; -467.676
475.687;  301.492; -725.180; -718.676
475.973;  -15.225; -673.181; -770.673
476.259;  423.653;  736.825;  764.315
476.544;  547.036; -539.176; -437.682
476.830; 1402.192; -398.172; -322.690
477.116; 1298.934; -430.177; -336.682
477.401;  274.993;  346.820;  358.324
477.687;  -24.552; -289.175; -405.684
477.973;   75.880;   21.819;   28.326
478.258;  -19.904; -448.163; -348.706
478.544;  113.629;   21.815;   61.334
478.829; -127.095; -818.171; -738.692
479.115; -116.908; -749.172; -651.690
479.401;  -36.538; -444.174; -449.686
479.686;   32.191; -253.180;  -74.676
479.972;  -97.880; -886.178; -776.680
480.257;   63.161; -258.166;  -65.700
480.542;   -5.489; -614.170; -469.693
480.828;  457.945; 1288.824; 1392.317
481.113;  -85.458; -464.176; -426.683
481.399;  -37.271; -236.161; -202.711
481.684; -112.240; -620.166; -462.700
481.969;   53.048; -158.159;  -73.713
482.255;  -36.774; -439.169; -285.695
482.540;  -46.779; -569.178; -441.680
482.825;   45.507; -395.187; -404.663
483.110;  189.330;  -85.169; -105.696
483.396;  320.278; -840.157; -652.718
483.681;  962.568;  543.826;  730.313
483.966;  212.839; -696.160; -700.712
484.251;    8.167; -404.174; -310.687
484.536;   29.575; -356.165; -378.703
484.822;   41.671; -205.173; -218.687
485.107;  -54.869; -599.152; -502.726
485.392;  265.983;  662.836;  541.296
485.677;  141.144;  354.832;  163.302
485.962;  164.175;  160.843;  270.283
486.247;  136.407;  -14.162;   -8.707
486.532;   72.062; -178.166; -325.701
486.817;  280.521;  381.839;  431.291
487.102;   99.408; -453.154; -514.722
487.387; 1109.681; -637.156; -652.718
487.672; 1944.390; -154.164;  -38.705
487.957; 1275.631; -394.160; -286.711
488.241;  335.555; -290.150; -314.729
488.526; 1256.633; -280.152; -148.726
488.811; 1858.323; -881.177; -818.680
489.096; 1506.611; -666.154; -702.723
489.381;  808.128;    3.847;  162.275
489.666;  662.529; -428.161; -510.710
489.950;  357.116;  558.846;  627.277
490.235;  -70.552; -480.151; -458.728
490.520; -103.773; -756.161; -723.710
490.804; -112.917; -827.156; -736.719
491.089;  -22.123; -469.149; -299.732
491.374;   86.988; -132.164;  -75.704
491.658;  -73.707; -817.147; -717.735
491.943;  179.039; -657.152; -609.727
492.227;  336.902; -178.155;  -38.721
492.512;   75.374; -294.157; -341.717
492.797; -159.032; -713.149; -716.731
493.081; -108.903; -588.147; -598.735
493.366; -107.570; -751.161; -635.711
493.650;  441.071;  831.859;  917.254
493.935;   -8.008; -648.147; -447.734
494.219;  -90.147; -778.142; -687.743
494.503; -102.539; -585.150; -487.730
494.788;   83.262;   46.842;   74.285
495.072;  209.957;  184.850;  434.271
495.356;  244.381; -463.148; -343.733
495.641;  593.806; -812.146; -736.736
495.925;  583.190; -976.156; -903.719
496.209;   14.776; -599.149; -451.732
496.494;  -97.146; -763.142; -544.744
496.778;   -5.692; -364.154; -360.722
497.062;  -94.610; -819.156; -627.719
497.346; -118.666; -869.160; -640.711
497.631;  336.286;  580.852;  560.266
497.915;  108.821;  -64.145;  175.261
498.199;   95.978; -341.157; -277.718
498.483;   24.431; -562.152; -508.725
498.767;  345.858;  301.850;  300.271
499.051;  311.973; -126.149; -100.732
499.335;    2.370; -693.149; -739.731
499.619;  -59.588; -381.129; -423.767
499.903;   34.800; -272.155;  -65.721
500.187;   -7.082; -588.153; -316.724
500.471;   -5.762; -796.152; -595.727
500.755;  167.828;   62.839;  -96.710
501.039;   10.601; -270.155; -357.721
501.323;  148.173;  -21.141;  264.254
501.607;   50.396; -447.163; -503.706
501.891;  -46.020; -607.156; -512.718
502.174;  -62.164; -726.144; -585.741
502.458;  114.044;   89.849;  370.273
502.742;   42.607; -180.138; -191.751
503.026;  157.591; -412.147; -254.734
503.310;  268.846; -437.159; -375.713
503.593;  198.394; -464.147; -325.735
503.877;  185.963; -232.133; -156.760
504.161;  235.321;    2.847;  -50.724
504.444;  104.565; -841.158; -710.716
504.728;  724.487; -487.164; -522.704
505.012; 1171.954; -257.150;  -76.729
505.295;  920.229; -417.161; -212.711
505.579;  884.290; -256.156; -496.719
505.862; 1210.015; -555.145; -333.738
506.146; 1182.450; -681.159; -758.714
506.429;  702.750;  568.841;  461.286
506.713;   75.150; -732.151; -667.728
506.996;  540.907;   90.846;  295.278
507.280;  553.980; -633.165; -474.703
507.563;  388.398; -469.155; -261.721
507.847;  159.219; -423.153; -112.724
508.130;   97.930; -665.161; -456.711
508.413;  195.154; -758.167; -577.700
508.697;  414.155; -151.167;   12.300
508.980;  275.221; -422.153; -312.724
509.263;  -32.207; -466.155; -450.720
509.547;   56.353; -124.150;   82.271
509.830;   96.033; -172.160;  140.289
510.113;  153.989;  128.844;  298.281
510.396;   32.629; -530.152; -300.725
510.680;  110.417; -818.145; -812.738
510.963;  716.313;  184.846;  180.277
511.246;  544.464; -493.150; -357.730
511.529;  379.824; -482.145;  -83.739
511.812;  613.558; -250.134;   10.241
512.095;  412.846; -740.151; -396.728
512.378;  121.899; -317.147; -245.736
512.661;   31.117; -703.137; -623.753
512.944;   26.356; -750.142; -637.744
513.227;   98.214; -170.137; -171.752
513.510;   -2.964; -479.144; -671.741
513.793;   20.879; -485.140; -435.747
514.076;  207.041;  -43.127;  -39.771
514.359;  172.177; -294.149; -135.732
514.642;  108.860; -442.142; -567.744
514.925; 1340.077;  581.860;  561.253
515.208; 1674.853; -498.134; -443.758
515.491; 1070.573; -276.133; -182.761
515.773;  603.941; -410.143; -337.742
516.056; 3556.326;  249.864;  409.246
516.339; 4504.832; -754.136; -652.755
516.622; 2808.161; -518.150; -488.730
516.904; 1561.951;  882.857;  975.257
517.187;  611.712; -730.138; -523.752
517.470;  555.350; -568.143; -510.743
517.752;  657.436; -624.136; -470.756
518.035;  533.994; -708.139; -725.749
518.318;  602.232; -799.136; -744.755
518.600; 4125.377; -300.132; -325.762
518.883; 5565.959;  310.858;   88.256
519.165; 2694.602; -585.138; -426.751
519.448;  589.877;  -61.132;  -19.762
519.730;  232.352; -573.126; -415.773
520.013;  524.367;  588.867;  664.240
520.295;  988.161;  -94.134;  -15.759
520.578; 2095.095; -335.131; -305.764
520.860; 2431.877; -254.132;   56.238
521.143; 1345.839; -763.135; -584.756
521.425;  718.670; -251.125; -279.775
521.707; 1064.942; -622.127; -380.771
521.990; 2936.043; -199.127;  167.229
522.272; 3313.282; -116.140;   -4.748
522.554; 1460.642; -237.143; -157.742
522.836;  479.958;  -24.134;   99.241
523.119;  288.190; -496.148; -189.734
523.401;  210.005; -448.130; -314.766
523.683;   83.118; -865.137; -693.753
523.965;  494.409;  408.862;  260.248
524.247;  465.900;   54.878;  170.220
524.529;  318.860; -451.134; -367.759
524.812;  597.007;   -3.130;  191.234
525.094; 1395.408; -773.138; -631.751
525.376; 2227.583; -143.124;   78.223
525.658; 1369.728; -441.136; -339.754
525.940;   37.491; -805.131; -671.764
526.222;   54.133; -188.136;  -88.755
526.504;  174.188; -190.131;   32.237
526.786;  105.064; -960.133; -647.760
527.068;  361.090; -124.123;  -67.778
527.349;   57.723; -865.137; -774.754
527.631;  201.177; -137.132;   22.238
527.913;  193.741; -664.127; -450.771
528.195;  231.660; -761.125; -639.774
528.477;  435.453;  -93.134;  -30.758
528.759;  169.007; -648.130; -522.766
529.040;   77.589; -569.123; -293.778
529.322;   90.564; -235.125;  -10.774
529.604;  166.710;  -47.130;   93.233
529.886;  118.551; -546.126; -302.773
530.167;  185.399;  232.870;  192.235
530.449;  117.099;    1.853;   63.265
530.731;   26.298; -572.122; -459.779
531.012;   81.927; -513.120; -216.784
531.294;  139.582; -118.116;  -43.792
531.575;  294.770;  290.875;  538.225
531.857;   90.246; -548.135; -266.757
532.138;  197.771; -113.141;   40.254
532.420;  308.741;  294.865;  403.244
532.701;  195.267; -722.133; -751.760
532.983;  489.472;  232.867;  182.239
533.264;  157.949; -243.126;  175.228
533.546;  -81.967; -491.136; -508.755
533.827;  106.362;  173.867;   -1.759
534.109;   48.746; -352.135;  -80.757
534.390;   91.482; -725.132; -582.762
534.671;  356.941; -270.135;  -82.756
534.953;  191.892; -751.123; -611.779
535.234;   25.561; -426.117; -255.789
535.515; -147.961; -891.119; -735.785
535.796;  -48.365; -431.128; -193.770
536.078; -222.818;-1050.124; -904.777
536.359;    5.493;  -22.123;    3.221
536.640;  -30.838; -480.125; -197.774
536.921;  266.418;  225.871;  143.232
537.202;  614.204;  -87.138;  -16.751
537.483;  722.995;  251.869;  377.236
537.764;  315.399;   17.870;   98.235
538.045; -104.048; -543.134; -371.758
538.326;  -94.780; -596.129; -447.768
538.607;    5.443; -686.127; -476.771
538.888;  304.215;   98.879;    5.218
539.169;  238.607; -704.122; -535.781
539.450;  536.816;  236.871;   16.233
539.731;  305.420; -361.121; -182.783
540.012;  233.127;  199.880;  412.216
540.293;  137.275;   82.876;  158.224
540.574;  -36.689; -895.113; -717.796
540.855;  703.018;  435.879;  377.218
541.136;  826.604;   47.878;  139.220
541.416;  413.408; -161.130; -220.766
541.697;  321.188; -274.131; -170.763
541.978; 1694.844; -270.135; -315.757
542.259; 2113.443; -211.127; -236.771
542.539; 1034.173; -191.116; -186.790
542.820;  303.469;  461.875;  480.225
543.101;  144.220;  -52.145;  -77.738
543.381;  -18.558; -638.127; -591.771
543.662;  459.439;  159.873; -254.771
543.942;  860.537; -751.127; -830.770
544.223; 1740.906;  193.878;  161.219
544.504; 1079.782; -275.124; -182.777
544.784;  966.551; -592.126; -408.773
545.065; 2650.579;  104.884; -254.791
545.345; 3110.939;  227.881;   14.215
545.626; 2121.110;  -14.113; -108.796
545.906; 1433.098;   77.869;   98.235
546.186;  622.458;   92.874;  -95.773
546.467;  310.185;   99.877;  -95.778
546.747;  590.473;  264.884;  327.210
547.027;  599.080;   91.876;  111.223
547.308;  516.036; -376.127; -530.770
547.588;  643.821;  299.871;  371.232
547.868;  362.000;  458.870;  588.235
548.149;  391.689;  609.885;  593.207
548.429;  228.140; -347.127; -299.771
548.709;  304.427; -645.120; -461.784
548.989;  817.753;   84.882;   88.213
549.269; 3474.875;   10.868;  139.239
549.550; 7810.791;  215.877;  117.222
549.830; 7144.735; -758.111; -556.799
550.110; 1391.645; -468.110; -320.801
550.390; 1358.999; -128.122;  -56.779
550.670; 1813.004; -868.114; -783.795
550.950; 1319.218; -509.121; -471.782
551.230;  404.412;  549.879;  460.218
551.510;  -12.684; -381.121; -326.782
551.790;   67.156; -173.109; -127.803
552.070;  521.285;  940.877; 1181.223
552.350;  678.845; -492.119; -377.786
552.630;  975.609;   -2.121;   77.219
552.909;  544.879;  181.884;   73.209
553.189;  413.884;  -49.132;   33.237
553.469;  287.744; -703.119; -514.786
553.749;  323.645; -469.127; -357.772
554.029;  265.667;   33.883;  -24.790
554.308;  253.395; -154.115;  -37.794
554.588;  105.634; -196.128; -204.770
554.868;  121.719; -366.121;  -47.782
555.147;  240.591; -114.115;  -46.793
555.427; 1026.283; -260.116; -250.792
555.707; 6525.688; -284.115; -200.793
555.986; 7575.240; -719.111; -538.800
556.266; 4231.971;   23.884;   72.210
556.546;  170.216; -888.121; -675.782
556.825;  429.601; -657.114; -556.794
557.105; 2997.431; -125.128;   17.230
557.384; 3393.678;  122.884;  187.209
557.664; 1338.082; -717.116; -508.792
557.943;  170.018; -557.121; -411.782
558.222;  296.157; -345.118; -344.788
558.502;  449.593; -116.115;  -76.793
558.781;  839.287;  194.885;  499.208
559.061;  636.757; -232.118; -227.788
559.340;  560.863;  302.883;  353.211
559.619; 1174.571;   93.884;  148.210
559.899; 1607.766; -239.117; -266.789
560.178; 1514.092; -778.115; -593.793
560.457; 5247.068; -623.117; -562.790
560.736; 6927.341; -472.111; -482.800
561.015; 4894.828; -500.128; -502.769
561.295;  646.784;  180.893;  215.193
561.574;  557.189;  119.885;  116.207
561.853;  818.662;  274.891;  303.197
562.132;  807.496;  -45.114;  182.206
562.411;  759.910;  396.879;  553.219
562.690;  236.286; -592.115; -458.792
562.969;  291.320;  472.888;  630.203
563.248; 1020.407; 2966.878; 2487.219
563.527;  412.340; -290.111; -408.800
563.806;  601.440; -650.127; -521.771
564.085;  681.905; -297.105; -206.810
564.364;  408.770; -594.117; -405.790
564.643;  838.910; -276.121; -223.781
564.922; 3137.954;  221.890;  397.198
565.201; 3102.359; -640.109; -700.803
565.479; 1421.784; -297.115; -219.792
565.758;  535.431; -810.128; -712.770
566.037;  772.760; -155.109; -100.803
566.316;  427.078; -286.116;  -28.791
566.595;   93.988;  -17.115;  -12.793
566.873;  193.443; -166.111;  -79.801
567.152; -131.181; -490.113; -590.797
567.431;   23.273; -113.116;    6.210
567.709;    8.084; -344.107; -212.807
567.988;  389.901; -810.114; -769.794
568.266;  794.488; -160.115;  -68.793
568.545;  667.271; -644.100; -514.819
568.824; 1004.383;  160.885;  356.208
569.102;  862.100; -351.114; -235.794
569.381;  388.782; -492.116; -407.792
569.659;  -72.286; -553.113; -553.796
569.938;   19.504; -743.122; -465.780
570.216;  146.464; -225.109; -225.804
570.494;  -57.395; -632.114; -572.795
570.773;  117.816;  202.879;  114.218
571.051;   -2.311; -373.123; -357.778
571.330;  127.411; -221.113; -174.796
571.608;   67.096; -181.098; -173.823
571.886; -152.568; -671.111; -581.799
572.164; -152.981; -739.121; -621.782
572.443;  -84.890; -562.105; -512.811
572.721;  -47.931; -399.117; -289.790
572.999;  -59.640; -280.117; -168.788
573.277;  222.901;  379.894;  620.191
573.555;  508.304;   94.894;   37.190
573.834; 2287.259;  -86.117; -114.788
574.112; 2631.688;  880.893;  811.193
574.390;  806.142; -143.111;  -96.801
574.668;   15.221;  -91.112;  -61.797
574.946;   -0.295; -165.106; -187.810
575.224;   42.759;   71.891;  -16.803
575.502;  -27.225; -200.116; -204.791
575.780; -133.578; -767.112; -829.798
576.058;  352.841; 1589.889; 1004.200
576.336;  -27.852; -210.110; -129.801
576.614;  -92.977; -511.112; -340.798
576.891;   72.594; -711.115; -823.794
577.169;  767.175; -158.108; -285.805
577.447;  982.587;  169.893;  202.193
577.725;  460.929;  629.888;  854.201
578.003;   24.726;  -71.112; -371.798
578.280;  150.923; -208.104; -242.812
578.558;   76.993; -450.115; -422.793
578.836;  194.604; -210.114; -145.795
579.114;   26.220; -630.112; -670.797
579.391;   85.662;   -6.117;  -18.789
579.669; -139.805; -595.114; -704.794
579.947;  284.682; -326.107; -127.806
580.224;  481.182; -692.107; -524.806
580.502;  522.088;  127.893;   76.193
580.779;   82.770;  -42.117;   75.210
581.057; -133.835; -584.109; -470.804
581.334; -187.756; -726.102; -695.815
581.612;   85.606;   54.895;  511.190
581.889;  -48.938;  -83.101; -129.818
582.167;  -36.818; -298.099; -190.821
582.444; -198.645; -845.102; -814.817
582.721;  217.255;  657.899;  715.183
582.999;  107.278; -326.100; -167.821
583.276;  847.995; -812.123; -713.779
583.553; 1132.548; -364.102; -294.816
583.831;  360.318; -607.104; -631.812
584.108;  144.572;  349.892;  174.195
584.385;   10.543; -122.102;  -98.815
584.662; -142.756; -651.111; -828.801
584.940;   43.243;  204.889;  204.199
585.217;   -2.687;  -73.113; -303.796
585.494;   83.655;   71.890;  118.198
585.771;  355.566; -250.109; -354.804
586.048;  759.313; -196.113;  -76.796
586.325;  470.347; -721.110; -773.801
586.602;  171.423;  230.896;  213.188
586.879;  -79.327; -499.100; -580.820
587.156;   94.407; -156.105; -331.810
587.433;  -81.248; -701.102; -667.817
587.710;  134.623;  152.888;  234.202
587.987;  528.214; -264.105; -236.811
588.264; 1264.826;  315.888;  387.202
588.541; 2282.327;  -61.104;   26.187
588.818; 4186.569;   72.892;  171.196
589.095; 3675.521; -163.104; -174.812
589.371;  618.263; -459.109; -414.804
589.648;   34.688; -581.107; -437.807
589.925;   17.206; -517.114; -621.795
590.202;  -24.277; -741.112; -607.798
590.478;  181.617; -166.105;  -73.811
590.755;  454.577; -241.108; -132.806
591.032; 4226.250; -741.110; -699.802
591.308; 5251.452; -732.094; -790.831
591.585; 2841.749; -573.110; -560.802
591.862;  196.354;-1056.102; -950.817
592.138;   62.374; -475.108; -474.805
592.415;  235.925; -486.104; -495.813
592.691; 2383.221;  460.896;  518.188
592.968; 2823.898; -208.098; -123.824
593.244; 1405.473; -695.116; -595.790
593.521;  142.154; -105.102;  -42.817
593.797;  -65.699; -810.122; -720.780
594.074;  502.316; -611.096; -588.826
594.350; 1115.332;  828.905;  729.172
594.626;  483.744; -303.111; -283.801
594.903;  143.655; -643.101; -645.817
595.179;  343.030;  243.896;  418.187
595.455;   35.789; -136.107; -150.807
595.731;   30.532;  -19.103;  -38.814
596.008;  -73.264; -464.111; -434.800
596.284;   89.777; -187.100; -242.820
596.560;   64.061; -501.093; -493.833
596.836;  343.710; -173.105;  -70.810
597.112;  541.875; -582.108; -437.805
597.388;  470.013;  -49.097;  -48.826
597.665;  246.117;  437.887;  530.203
597.941; -127.398; -572.089; -658.839
598.217;   16.054; -323.110; -293.802
598.493;  485.268;   61.891; -204.804
598.769;  820.969; -175.100;  -50.819
599.045;  516.179; -490.108; -562.806
599.321;   90.775; -193.100; -261.820
599.597;  238.267; -355.109; -476.804
599.872;  805.327;  409.896;  429.187
600.148;  611.315;  -61.097; -172.826
600.424;  520.286;   91.893;  202.193
600.700;  384.289; -170.107; -280.807
600.976;  169.707; -442.097; -464.825
601.252;  393.962; -226.109; -272.803
601.527;  290.428; -833.104; -840.813
601.803;  245.917; -453.105; -404.812
602.079;  313.869; -124.100; -118.819
602.354;  892.274; -620.092; -531.835
602.630; 1336.713; -140.113; -482.796
602.906; 3957.162; -910.101; -863.818
603.181;10695.245; -627.119; -534.786
603.457; 9154.112;   98.903; -278.826
603.733; 1370.322; -605.120; -626.783
604.008; 1625.905; -245.106; -164.810
604.284; 4652.257; -636.101; -580.817
604.559; 4116.229;   -3.112;  -42.799
604.835;  827.709; -163.105; -225.810
605.110;  653.383; -732.099; -892.821
605.385; 1092.364;  224.907;  267.167
605.661; 1093.935; -625.095; -729.829
605.936; 1804.679; -664.108; -737.806
606.211; 1630.341;  -17.103; -170.815
606.487;  328.498; -329.114; -376.794
606.762;   21.845; -791.119; -745.786
607.037;  -44.790; -501.105; -433.810
607.313;  -99.974; -589.096; -574.828
607.588;    2.905; -375.106; -137.810
607.863;   82.762;  -28.101; -143.818
608.138;  342.953;  513.890;  516.198
608.413;   26.988; -576.099; -592.822
608.688;   78.474; -203.108; -267.805
608.964;  344.097; -509.106; -218.809
609.239;  422.706; -107.105; -212.810
609.514;  443.217;  281.895;  240.188
609.789;  989.223; -187.104; -716.812
610.064; 1385.224; -435.096; -609.827
610.339; 1480.763; -855.109; -799.804
610.614; 1928.476; -131.100; -315.820
610.889; 1080.017;  215.895;  107.188
611.163;   57.318; -407.104; -591.812
611.438;  120.000;   81.886; -167.794
611.713;    2.957; -467.101; -499.817
611.988;  137.060; -144.101; -328.818
612.263;  -39.256; -771.102; -717.815
612.538;  394.113;  385.887;  251.204
612.812;  258.978; -832.100; -911.820
613.087;  226.395; -358.098; -338.823
613.362;  -83.511; -497.107; -557.807
613.637;  109.336;  261.897;  138.186
613.911;  -30.125; -256.092; -345.835
614.186;  204.487; -249.107; -292.807
614.460; 1054.506; -842.081; -758.854
614.735; 1242.234;  -55.087;  -17.843
615.010;  315.920;   43.912;  -82.841
615.284;  472.573;  360.892;  246.195
615.559;  524.274; -792.092; -955.835
615.833;  467.985;  -76.099;  -87.822
616.108;   25.390; -225.090; -390.837
616.382;  255.436;  274.913;  402.156
616.656;  234.791; -241.090; -232.837
616.931;  781.786; -785.099; -700.822
617.205; 1582.329; -973.104; -979.813
617.480; 1563.467;  -91.125;    6.225
617.754;  235.663; -396.125; -128.774
618.028;   36.022; -369.129; -382.768
618.302;  116.971;   73.892;  -25.805
618.577; -106.862; -371.103; -518.815
618.851; -114.342; -399.109; -600.803
619.125;  -71.940; -335.134; -378.759
619.399;  -26.071; -244.104; -374.813
619.673;  -85.316; -330.115; -515.792
619.947;  -67.296; -333.114; -448.795
620.222;    6.345; -198.110; -204.801
620.496;   37.318;  -47.121;  -96.782
620.770;   47.307; -187.122;  -93.781
621.044;  406.607;  323.895;  346.190
621.318; 1139.022; -653.120; -614.783
621.592; 1055.919; -430.121; -409.783
621.866;  588.730; -476.112; -572.799
622.140;   58.475; -207.116; -356.791
622.413;  149.036;  138.889;  112.200
622.687;  -54.243; -746.101; -492.817
622.961;   58.871; -130.108; -143.805
623.235; -120.963; -633.111; -661.800
623.509; -215.284; -816.105; -848.811
623.783;   67.983;  -12.107;   48.193
624.056;  -27.376; -254.120; -280.783
624.330;   99.021;   63.888;   -3.797
624.604;  124.270; -271.116; -355.790
624.877;  140.551;  180.890;   26.198
625.151;   70.497; -249.114; -238.794
625.425;  -59.768; -150.103; -283.814
625.698;  -82.063; -367.119; -374.785
625.972; -186.845; -799.110; -765.802
626.245;  178.373;  685.884;  484.210
626.519;  -54.870; -426.120; -340.784
626.792;  -55.111; -192.107; -380.807
627.066; -160.403; -485.122; -662.779
627.339; -167.351; -736.110; -663.802
627.613;  104.428;  351.880;  148.216
627.886;  109.957;  187.891; -612.803
628.160;  -12.578;  312.880; -161.783
628.433; -150.429; -695.125; -703.775
628.706; -143.870; -517.120; -615.784
628.979;   79.480;  296.876;  117.223
629.253; -155.156; -785.119; -833.786
629.526;  607.949; -334.126; -253.772
629.799;  510.690; -641.123; -479.778
630.072;  246.024; -497.128; -516.769
630.346; -169.527;-1115.116;-1080.790
630.619;  741.590; -467.107; -545.808
630.892; 1063.138;  709.889;  593.200
631.165;  567.529;  790.896;  679.187
631.438; -152.674;-1092.112;-1055.798
631.711;  128.294;  453.877;  257.221
631.984;  -99.134; -523.117; -624.789
632.257; -120.438; -636.117; -681.789
632.530;  -69.963; -412.119; -433.785
632.803;   95.794; -109.115;    7.207
633.076; -107.515; -360.123; -422.777
633.349;   66.930;  173.872;  121.231
633.622;  -55.664; -187.119; -240.785
633.895; -226.776; -903.120; -823.783
634.167; -121.548; -496.126; -525.773
634.440;    1.082;  -19.116; -137.792
634.713;   31.342;  -22.119; -120.786
634.986;  208.216;  593.871;  453.233
635.258; -110.309; -507.115; -597.793
635.531;  230.156;  742.882; -343.788
635.804;  -43.135; -303.117; -318.789
636.077; -185.624; -830.116; -852.791
636.349;  -25.911; -586.115; -474.793
636.622;  771.448; 1695.874; 1392.228
636.894;  393.330; -474.120; -909.784
637.167;  231.840; -836.127; -789.771
637.439;   73.735; -278.128; -213.770
637.712;  -84.550; -312.126; -293.772
637.984; -133.423; -635.116; -707.791
638.257;  689.286;  515.877;  488.222
638.529;  821.072; -881.125; -924.776
638.802;  324.024; -508.128; -449.769
639.074; -221.794; -927.122; -952.781
639.346; -252.951; -942.135; -930.757
639.619;   33.958;  -79.142; -319.744
639.891;   20.497;  -83.122; -168.779
640.163; -156.300; -689.122; -756.780
640.435;   76.502;  273.878;  103.220
640.708;   50.505;  -72.122; -132.780
640.980;  -61.593; -366.122; -362.781
641.252;  350.610;  -25.121;  -71.781
641.524; 2848.612;  580.879;  573.219
641.796; 2722.115;-1094.121; -907.782
642.068;  521.717; -191.121; -300.782
642.340; -105.880; -486.121; -566.783
642.613;  140.922;  294.880;  323.217
642.885; -168.975; -787.120; -878.783
643.157;  -82.072; -810.120; -658.784
643.428;  166.930;  170.880;  218.216
643.700; -127.567; -498.120; -425.784
643.972;  -55.165;  -16.119; -133.785
644.244; -164.262; -474.119; -559.785
644.516;  -52.360; -250.119; -114.786
644.788;  171.843;  662.881;  548.214
645.060;  -27.655;  -12.119; -124.786
645.332; -149.852; -525.118; -535.787
645.603;  132.751;  479.882;  342.213
645.875;  -90.447; -334.118; -369.787
646.147;  377.356; 1487.882; 1242.212
646.418; -134.042; -931.117; -918.788
646.690;  189.661; -714.117; -715.789
646.962;   49.363; -413.117; -451.789
647.233;   41.566;   15.883;   11.211
647.505; -186.632; -595.117; -475.790
647.776;  106.371;  328.884;  229.210
648.048;  -17.026; -248.116; -418.790
648.320; -153.624; -752.116; -679.791
648.591; -272.521;-1055.116; -958.791
648.862; -150.219; -505.116; -577.792
649.134;   59.684;  115.885;  198.208
649.405;  -84.514; -661.115; -618.792
649.677;  -77.111; -475.115; -598.793
649.948;   23.191; -181.115; -296.793
650.219;   28.094;  -37.115; -147.793
650.491; -124.504; -431.114; -520.794
650.762; -209.101; -705.114; -731.794
651.033; -133.298; -437.114; -424.795
651.304; -202.796; -743.114; -728.795
651.576;  -90.193; -680.114; -645.795
651.847;  -44.691; -250.113; -140.796
652.118;  -18.088;  -32.113; -189.796
652.389; -207.286; -639.113; -722.796
652.660;  -33.383; -147.113;  -89.797
652.931; -243.481; -897.112; -871.797
653.202; -109.678; -382.112; -541.798
653.473; -129.775; -633.112; -533.798
653.744;  242.727; -595.112; -590.798
654.015;  194.730; -356.112; -303.799
654.286; -115.868; -642.111; -663.799
654.557;  -98.365; -586.111; -521.799
654.828; -282.263;-1114.111;-1088.800
655.099; -124.960; -404.111; -291.800
655.370; -145.058; -427.111; -543.801
655.641; -204.555; -656.110; -714.801
655.911; -178.552; -618.110; -638.801
656.182;  153.150;  437.890;  387.198
656.453;  223.753;  830.890;  746.198
656.724; -139.145; -466.110; -426.802
656.994; -145.642; -553.109; -568.803
657.265; -205.340; -862.109; -873.803
657.536; -125.337; -500.109; -377.804
657.806; -192.435; -561.109; -593.804
658.077; -255.932; -866.109; -950.804
658.347; -151.530; -523.108; -598.805
658.618; -193.327; -646.108; -694.805
658.888;    5.376;  -41.108;  112.195
659.159; -142.022; -432.108; -548.806
659.429;  -23.219; -292.108; -349.806
659.700;   21.783; -435.107; -390.807
659.970;  -34.414; -370.107; -359.807
660.241;   -6.912; -754.107; -921.807
660.511;  763.891; -147.107; -174.808
660.781;  140.393; -793.106; -748.808
661.052;  -79.504; -222.106; -381.808
661.322;    4.499;   21.894;   -9.809
661.592;   50.901;  257.894;  148.191
661.862; -107.396; -369.106; -382.810
662.133; -151.594; -551.105; -502.810
662.403; -195.291; -770.105; -676.810
662.673;  -76.789; -256.105; -213.811
662.943; -132.586; -612.105; -551.811
663.213;    5.316;  -85.105;  -81.811
663.483; -126.581; -593.104; -568.812
663.753;  -57.978; -194.104; -152.812
664.023;   55.624;   68.896;  -32.813
664.293;  -90.773; -319.104; -126.813
664.563; -197.871; -694.104; -648.813
664.833; -198.668; -743.103; -608.814
665.103; -220.066; -730.103; -793.814
665.373; -229.263; -766.103; -806.814
665.643; -167.161; -863.103; -918.815
665.913;   46.642; -534.103; -714.815
666.182;  202.944; -685.102; -719.816
666.452;  434.547;  -22.102;  -89.816
666.722;  -60.750; -724.102; -784.816
666.992; -247.548; -948.102; -921.817
667.261; -169.945; -824.102; -808.817
667.531;  358.557;  134.899;   45.183
667.801;  777.960; -440.101; -412.818
668.070;  415.762;  714.899;  697.182
668.340; -161.935; -883.101; -840.819
668.609;  254.867;  588.900;  301.181
668.879; -131.730; -490.100; -558.819
669.149; -110.327; -539.100; -516.820
669.418; -180.925; -698.100; -726.820
669.688;   -3.722; -482.100; -666.820
669.957;  114.780; -423.099; -546.821
670.226;  -31.917; -268.099; -331.821
670.496; -152.215; -431.099; -635.822
670.765; -129.412; -418.099; -501.822
671.034; -224.410; -872.099; -828.822
671.304;   27.693;   55.902; -111.823
671.573; -273.004;-1085.098; -957.823
671.842;  137.998; -380.098; -294.823
672.112;   16.901; -692.098; -586.824
672.381;   31.203; -239.098; -214.824
672.650; -229.094;-1005.097;-1021.825
672.919; -164.992; -631.097; -507.825
673.188; -164.589; -681.097; -878.825
673.457; -290.987;-1101.097;-1143.826
673.726; -126.184; -579.096; -646.826
673.995;  -65.581; -533.096; -479.826
674.265;  -21.979; -263.096; -333.827
674.534;   25.824; -183.096; -235.827
674.802;    9.826; -618.096; -703.828
675.071; 1660.529; -886.095; -801.828
675.340; 5976.731; -464.095; -339.828
675.609; 2068.734;  103.905;   82.171
675.878;   97.036; -949.095; -893.829
676.147;   83.339;  -26.095;   -8.829
676.416;  220.441; -210.094; -294.830
676.685; 1221.744; 1000.906; -622.830
676.953;  144.447; -603.094; -452.831
677.222;  -34.551; -193.094; -273.831
677.491;    2.952;  -24.094; -127.831
677.759;   18.754;   11.907;  172.168
678.028;  -10.443; -279.093; -222.832
678.297;   48.359;   71.907;  197.168
678.565; -251.338; -898.093; -944.833
678.834;  -72.536; -311.093; -268.833
679.102; -112.233; -411.092; -391.834
679.371; -248.530; -898.092; -727.834
679.639; -246.828; -797.092; -786.834
679.908; -236.625; -794.092; -724.835
680.176; -299.423; -895.091; -941.835
680.445;  -84.820; -346.091; -352.835
680.713;   17.582;  -58.091;  -23.836
680.982; -183.315; -523.091; -525.836
681.250; -185.113; -578.091; -507.837
681.518; -169.510; -534.090; -751.837
681.787;  -37.507; -204.090; -167.837
682.055; -122.605; -490.090; -422.838
682.323; -239.302; -993.090; -992.838
682.591;   72.700; -216.090; -538.838
682.859;  156.103;    9.911;  -35.839
683.128;   86.405;  232.911;  497.161
683.396; -298.792;-1102.089;-1122.840
683.664;  -57.490; -241.089;   21.160
683.932;   51.713;  144.911;  -76.840
684.200; -162.985; -576.088; -320.841
684.468;   -8.882;  -73.088; -124.841
684.736;  -51.479; -214.088; -175.841
685.004; -211.177;-1024.088; -982.842
685.272;  -96.974; -880.088; -774.842
685.540;  -79.872; -499.087; -557.843
685.808; -112.969; -651.087; -682.843
686.076; -198.667; -894.087; -969.843
686.343; -111.564; -601.087; -815.844
686.611;   89.838; -195.087; -224.844
686.879;  799.541; -530.086; -553.844
687.147; 4927.344; -483.086; -480.845
687.414; 1403.746;  -12.086; -169.845
687.682;   11.249; -658.086; -757.846
687.950;  543.551;  259.915;  263.154
688.217;    0.454; -792.085; -760.846
688.485;  -32.144; -632.085; -636.847
688.753;  813.359;  -11.085; -102.847
689.020;  164.561; -820.085; -851.847
689.288; -135.436; -853.084; -787.848
689.555;  -11.533; -195.084; -148.848
689.823;  -48.431; -241.084; -345.849
690.090; -151.528; -546.084; -651.849
690.358; -278.326; -877.084; -897.849
690.625;   52.277;  120.917;   45.150
690.892; -111.521; -403.083; -369.850
691.160;   11.182;   72.917;  -35.850
691.427;   69.284;  141.917;  130.149
691.694; -237.513; -855.083; -929.851
691.962; -244.411;-1177.082;-1060.852
692.229;   69.592;  127.918;   56.148
692.496;  155.095;  130.918;  -49.852
692.763;   33.697; -164.082; -201.853
693.031; -104.200; -739.082; -716.853
693.298;  -76.198; -509.081; -368.853
693.565;  569.205; -155.081; -163.854
693.832; 1968.107;   -5.081;   -9.854
694.099;  239.410; -643.081; -642.855
694.366; -117.288; -882.081; -896.855
694.633; -132.285; -920.080; -633.855
694.900; 1539.818; 4367.920; -114.856
695.167;  678.820; -214.080; -380.856
695.434;  104.023; -646.080; -623.856
695.701;  375.325;  121.921;  -61.857
695.968;  733.428; -365.079; -361.857
696.234; 1651.330; -415.079; -646.858
696.501;15359.633; -776.079; -614.858
696.768; 7326.135; -554.079; -617.858
697.035;  433.638; -632.078; -667.859
697.302;   74.341; -448.078; -552.859
697.568;   31.143; -458.078; -497.859
697.835;  -81.254; -683.078; -624.860
698.102;  -40.752; -498.078; -407.860
698.368;  195.351;  384.923;  396.139
698.635;  -47.747;  -47.077; -424.861
698.901;   40.956; -240.077; -348.861
699.168;  107.658; -534.077; -456.862
699.435;  136.061;  -72.077;  -13.862
699.701; -219.937; -868.076; -764.862
699.968;  -58.034;  144.924; -441.863
700.234; -174.931; -783.076; -822.863
700.500;  -90.429; -448.076; -539.864
700.767;   36.174;   -1.075;   26.136
701.033; -245.924;-1015.075; -963.864
701.299;  -95.521; -450.075; -483.865
701.566;  254.481;  950.925;  763.135
701.832;   90.784;  -31.075;  -76.865
702.098; -171.114;-1054.074;-1034.866
702.365; -181.311;-1098.074;-1030.866
702.631;  -54.908;-1038.074;-1063.867
702.897; 2152.894; -765.074; -676.867
703.163; 3208.097;  348.926;  254.133
703.429;  256.199; -256.073; -273.868
703.695; -101.498; -796.073; -792.868
703.961;   47.704; -214.073; -210.868
704.227;  -97.193; -630.073; -725.869
704.493;  298.909;  613.927;  510.131
704.759;  -36.088; -565.072; -540.870
705.025;   45.515; -203.072; -194.870
705.291;  -10.783; -666.072; -562.870
705.557;  392.120;  719.928;   34.129
705.823;   43.322; -742.072; -694.871
706.089;  228.225; -307.071; -326.871
706.355;  588.327; -315.071; -244.872
706.620; 8233.030; -776.071; -729.872
706.886;10821.032; -309.071; -362.873
707.152; 1016.935; -818.070; -973.873
707.418;  -86.063;-1153.070;-1186.873
707.683;    3.540; -550.070; -530.874
707.949;  -44.157; -547.070; -578.874
708.215;   17.645; -129.070; -207.874
708.480;  -23.452; -520.069; -420.875
708.746;  151.650;   68.931;   28.125
709.011;  -86.547; -578.069; -612.876
709.277; -108.245; -538.069; -543.876
709.542;  -46.142; -428.069; -387.876
709.808;   32.460;  -59.068;   89.123
710.073; -125.937; -577.068; -695.877
710.339;  -10.734; -242.068; -228.877
710.604;  129.268; -780.068; -845.878
710.869;  447.571; -277.068; -366.878
711.135; -118.827; -715.067; -628.879
711.400; -139.924; -507.067; -608.879
711.665; -102.922; -404.067; -479.879
711.931; -163.319; -661.067; -677.880
712.196; -198.117; -876.067; -954.880
712.461;  191.186; -402.066; -490.880
712.726;  197.089; -727.066; -771.881
712.991; -137.509; -647.066; -664.881
713.256;  -22.206; -350.066; -332.882
713.521; -120.204; -417.065; -381.882
713.787; -106.401; -454.065; -472.882
714.052;   16.201; -214.065; -400.883
714.317; -211.096;-1045.065; -981.883
714.581; 1556.706; -374.065; -268.883
714.846; 1855.709; -822.064; -888.884
715.111;  246.111;  261.936;  257.116
715.376;   -6.486;  -86.064; -223.885
715.641;  -11.283; -365.064; -367.885
715.906;  455.819;   15.936; -551.885
716.171;  251.722;  221.937;  209.114
716.436;  110.724;  -78.063; -104.886
716.700; -191.973; -818.063; -692.886
716.965; -188.771; -794.063; -807.887
717.230; -104.668; -339.063; -392.887
717.494;  -17.166;  -40.062; -134.888
717.759; -168.963; -784.062; -640.888
718.024;   68.540;  269.938;  250.112
718.288;  187.642;  685.938;  395.111
718.553; -255.855; -803.062; -977.889
718.817; -264.453; -883.061; -899.889
719.082;   -9.450; -115.061; -125.890
719.346; -226.948;-1000.061; -947.890
719.611;  -42.745; -300.061; -255.891
719.875; -147.443; -568.060; -537.891
720.140;  -93.140; -453.060; -603.891
720.404;  110.263; -136.060; -249.892
720.668; 1332.665; -475.060; -411.892
720.933;  501.368;  146.940;  137.108
721.197; -164.230; -667.059; -600.893
721.461; -250.227; -851.059; -826.893
721.725;   24.875;  -21.059; -250.894
721.990;  -68.622; -284.059; -204.894
722.254;  -36.020;  -26.059; -108.894
722.518;  -87.617; -286.058; -442.895
722.782; -143.715; -743.058; -594.895
723.046;  279.988;  614.942;  570.105
723.310;  108.791;  374.942;  210.104
723.574; -138.407; -654.058; -614.896
723.838; -206.204; -576.057; -642.897
724.102;  -37.002; -226.057; -239.897
724.366; -256.299;-1032.057; -978.897
724.630; -145.597; -749.057; -571.898
724.894; -118.294; -722.057; -514.898
725.158;    3.508;   38.944; -295.898
725.422;  -71.089; -394.056; -327.899
725.685; -101.386; -441.056; -349.899
725.949; -147.784; -566.056; -519.900
726.213; -145.781; -732.056; -811.900
726.477;  231.921;-1020.055; -933.900
726.740;  232.924; -274.055; -104.901
727.004;  541.326; -384.055; -510.901
727.268; 4800.529; -442.055; -400.901
727.531; 1113.131; -961.055; -775.902
727.795;  -95.766; -713.054; -673.902
728.059;  -96.363; -552.054; -557.903
728.322; -160.461; -841.054; -669.903
728.586;    6.542; -692.054; -701.903
728.849; -150.156; -695.053; -756.904
729.112; -177.553; -812.053; -912.904
729.376; -234.451; -959.053; -905.904
729.639; -132.348; -536.053; -536.905
729.903; -174.146; -733.053; -699.905
730.166;  -70.043; -437.052; -399.906
730.429;  -29.941; -317.052; -468.906
730.693;  -98.438; -355.052; -894.906
730.956;  438.865;  810.948;  651.093
731.219; 1037.567; -310.052; -103.907
731.482;  140.970;-1003.051; -894.907
731.745;   76.772; -794.051; -935.908
732.009;   81.775;  -30.051;   50.092
732.272; -160.023; -904.051; -771.909
732.535;  -81.220; -300.051; -310.909
732.798; -287.418;-1083.050;-1166.909
733.061; -122.915; -430.050; -456.910
733.324;   70.288;   31.950; -180.910
733.587;  195.190;  290.950;  365.090
733.850; -107.207; -973.049;-1050.911
734.113;  105.095;   33.951;   32.089
734.376;   46.198; -328.049; -447.912
734.639;  463.900; 1188.951; 1011.088
734.901;  185.003; -180.049; -402.912
735.164;  848.905; -883.048; -837.913
735.427; 1890.508; -166.048; -355.913
735.690;  205.511; -205.048; -234.913
735.952;  -81.087; -923.048; -925.914
736.215;  -85.284;-1113.048;-1009.914
736.478;   40.218; -771.047; -774.915
736.740;  385.221;   33.953;  129.085
737.003; 1260.623; -658.047; -672.915
737.266; 6105.726;  -94.047;   46.084
737.528;  636.428; -682.047; -660.916
737.791;  480.531; -316.046; -327.916
738.053; 1296.133;  465.954;  649.083
738.316;16735.136; -162.046; -136.917
738.578;10059.139; -770.046; -736.918
738.841;  638.241; -382.046; -446.918
739.103;  308.044; -875.045; -777.918
739.365;  775.146;   79.955;  -69.919
739.628;  -12.151; -884.045; -805.919
739.890;  -74.249; -758.045; -710.919
740.152;  -36.646; -692.044; -754.920
740.414;   -3.744; -408.044; -359.920
740.677;  -72.141; -785.044; -634.921
740.939;  -51.938; -587.044; -487.921
741.201;  448.564; -432.044; -572.921
741.463;   67.667; -689.043; -745.922
741.725;   80.769;  -21.043; -199.922
741.987;  141.772;  220.957;  116.078
742.249;    8.474; -751.043; -859.923
742.511;  331.677; -703.043; -794.923
742.773;   38.279; -546.042; -546.924
743.035;  325.882;  796.958;  533.076
743.297;  -69.615; -963.042;-1013.924
743.559; 1213.087; -278.042; -262.925
743.821;   85.790; -735.042; -744.925
744.083;    9.692;  -44.041; -149.925
744.345; -137.205; -869.041; -892.926
744.607;  137.497;   75.959;  122.074
744.868;  -64.900; -490.041; -554.927
745.130; -196.998; -994.041;-1008.927
745.392;  136.605;   -1.040;  -44.927
745.653;   -9.493; -411.040; -378.928
745.915;  344.610;  896.960;  631.072
746.177;  101.813;   35.960;  -43.928
746.438;  -29.485; -428.040; -543.929
746.700;  -97.482; -947.039; -988.929
746.961;   -8.280; -659.039; -740.930
747.223;  248.423; -190.039;  -74.930
747.484;  164.325; -391.039; -471.930
747.746;  260.028;  -23.038; -106.931
748.007;  135.230; -647.038; -689.931
748.269;  539.333; -468.038; -440.931
748.530;  718.136; -852.038; -638.932
748.791;  428.238; -354.038; -420.932
749.053;  761.341;  286.963;  163.067
749.314;  750.243; -236.037; -169.933
749.575;  764.346; -945.037; -905.933
749.836; 1344.348; -217.037;   86.066
750.098; 4510.351;  -60.037;  -21.934
750.359;55241.753;  414.964;  555.066
750.620;12380.456; -121.036; -220.935
750.881; 1626.259; -585.036; -513.935
751.142; 2175.761; -950.036; -938.936
751.403;25871.064; -789.036; -705.936
751.664; 9526.866;-1034.035; -999.936
751.925;  779.269; -175.035; -262.937
752.186;  503.471; -298.035; -278.937
752.447;  267.574; -590.035; -445.937
752.708;  131.976; -532.035; -648.938
752.969;   45.179; -566.034; -576.938
753.230;   -0.919; -777.034; -672.939
753.491;    5.984; -650.034; -631.939
753.751;  159.487;  109.966;   19.061
754.012;  194.689;  258.967;  181.060
754.273;  160.992; -174.033;  -71.940
754.534;   26.294; -487.033; -580.940
754.794; -184.103; -926.033; -911.941
755.055;  350.999; 1051.967;  881.059
755.316;  -49.398; -700.032; -566.942
755.576;  -30.496; -606.032; -576.942
755.837;  -40.993; -527.032; -695.942
756.097;  -36.890; -530.032; -564.943
756.358; -106.788; -725.032; -770.943
756.618;  -78.385; -705.031; -641.943
756.879;   28.517; -254.031; -349.944
757.139; -232.280;-1098.031;-1116.944
757.400;  -99.678; -538.031; -553.945
757.660;    0.625; -365.031; -401.945
757.920;   36.327; -266.030; -228.945
758.181;  -30.170; -468.030; -351.946
758.441; -168.367; -870.030; -809.946
758.701;    0.235; -308.030; -215.946
758.961;  -27.962; -220.030; -278.947
759.222;  -75.460; -574.029; -502.947
759.482; -127.757; -683.029; -723.948
759.742; -139.855; -706.029; -547.948
760.002;   46.748;  -83.029; -143.948
760.262;   97.550;   50.972;  182.051
760.522;  -41.847; -498.028; -574.949
760.782; -105.444; -738.028; -612.949
761.042;  -37.542; -618.028; -573.950
761.302;  111.961;   55.972;  -18.950
761.562;  151.363; -164.027; -154.951
761.822;  126.466; -710.027; -551.951
762.082; -130.532;-1104.027;-1093.951
762.342;  141.971; -328.027; -403.952
762.601;  110.773; -567.027; -506.952
762.861;  576.476; -281.026; -207.952
763.121;  679.278; -406.026; -411.953
763.381;12086.481; -499.026; -485.953
763.640;10856.584; -139.026; -307.954
763.900;  561.286; -242.026; -203.954
764.160;  170.789; -458.025; -491.954
764.419;  -31.709; -726.025; -782.955
764.679; -103.206; -795.025; -726.955
764.939;  -19.504; -124.025; -210.955
765.198; -104.801; -608.025; -563.956
765.458; -130.899; -710.024; -612.956
765.717; -121.396; -454.024; -590.957
765.976;  -79.293; -428.024; -411.957
766.236;  -84.991; -475.024; -610.957
766.495;   70.212;  260.977;   73.042
766.755; -153.286;-1090.023; -987.958
767.014;    4.617; -594.023; -665.958
767.273;  -57.381; -373.023; -397.959
767.533;  -61.778; -228.023; -307.959
767.792;   -4.276; -151.022; -188.960
768.051;  -58.973; -228.022; -276.960
768.310; -153.870; -546.022; -650.960
768.569;   50.432; -161.022;    4.039
768.828;   -8.465; -285.022; -363.961
769.088; -212.463;-1050.021; -942.961
769.347; -155.660; -755.021; -599.962
769.606; -182.358; -876.021; -857.962
769.865; -242.855;-1016.021;-1033.963
770.124;   43.147; -411.021; -336.963
770.383;  -77.050; -778.020; -910.963
770.641;   -3.248; -398.020; -400.964
770.900; -141.045; -953.020; -846.964
771.159;  -95.042; -851.020; -951.964
771.418;  -39.040; -917.020; -779.965
771.677;  228.163; -224.019; -293.965
771.936;  211.965; -794.019; -865.966
772.194; 3793.668; -465.019; -437.966
772.453;15148.070; -213.019; -391.966
772.712; 1134.073;  416.982;  329.033
772.970;  241.875;   32.982;   63.033
773.229;  163.778;  -22.018;  102.033
773.488; -150.619; -814.018; -770.968
773.746;  154.683;  296.982;  335.032
774.005;   64.386;  190.983;  -22.969
774.263;   31.588;  243.983;  177.031
774.522; -152.809; -422.017; -548.969
774.780;  -84.507; -484.017; -417.970
775.039; -134.604; -551.017; -531.970
775.297;   -0.002; -135.016; -351.970
775.555; -149.899; -489.016; -612.971
775.814; -197.896; -618.016; -570.971
776.072; -179.594; -749.016; -740.971
776.330; -186.291; -630.016; -520.972
776.589; -154.089; -703.015; -721.972
776.847; -210.686; -645.015; -624.973
777.105; -284.284;-1016.015;-1032.973
777.363; -106.681; -459.015; -454.973
777.621; -218.679; -660.015; -717.974
777.879;    2.824;  -42.014;   32.026
778.138; -152.174; -554.014; -717.974
778.396; -156.371; -585.014; -526.975
778.654; -292.668;-1015.014; -970.975
778.912;  -70.966; -269.014; -371.976
779.170; -216.563; -880.013; -803.976
779.427; -255.461; -922.013; -897.976
779.685; -238.858; -880.013; -832.977
779.943; -133.656; -654.013; -593.977
780.201; -283.553; -964.012; -883.978
780.459; -192.351; -651.012; -610.978
780.717; -113.648; -440.012; -390.978
780.974; -150.045; -449.012; -490.979
781.232;  -77.043; -358.012; -338.979
781.490; -107.740; -551.011; -472.979
781.747; -129.038; -555.011; -476.980
782.005;  117.565;  462.989;  254.020
782.263; -281.033; -542.011;-1004.981
782.520; -120.130; -326.011; -501.981
782.778; -284.828;-1013.010;-1051.981
783.035; -276.225; -962.010; -938.982
783.293;  -51.222; -248.010; -206.982
783.550;  -50.320; -134.010; -198.982
783.808; -198.517; -764.010; -776.983
784.065; -280.715; -745.009; -874.983
784.322;  -27.912;   25.991;  -86.984
784.580; -256.610; -915.009; -771.984
784.837; -119.407; -392.009; -466.984
785.094; -208.605; -783.009; -762.985
785.352;  -76.702; -304.008; -404.985
785.609; -179.300; -934.008; -839.985
785.866; -122.897; -345.008; -401.986
786.123;  -97.294; -639.008; -583.986
786.380; -156.392; -665.008; -604.987
786.637;  -40.289; -225.007; -380.987
786.895;  -18.487; -456.007; -543.987
787.152;   -7.884; -135.007; -267.988
787.409;  -50.982; -123.007; -225.988
787.666; -112.379; -299.006; -378.988
787.923; -152.477; -616.006; -695.989
788.179; -160.874; -551.006; -584.989
788.436; -158.371; -585.006; -585.990
788.693;  -45.369;  -92.006;  -87.990
788.950;  309.934; -125.005; -112.990
789.207;  280.136; -381.005; -372.991
789.464;  -48.861; -161.005; -301.991
789.720;   56.341;  150.995;  110.009
789.977; -270.156;-1003.005; -671.992
790.234;  -22.454;   44.996;  -66.992
790.490; -240.451; -884.004;-1031.993
790.747;   -6.848;  -85.004;   22.007
791.004;    2.554; -426.004; -348.993
791.260;  -96.443; -430.004; -560.994
791.517; -151.841; -843.003; -788.994
791.773;  -57.738; -379.003; -342.994
792.030; -164.836; -596.003; -660.995
792.286; -176.333; -686.003; -636.995
792.543;   29.269;  -74.002; -159.995
792.799;  -60.628; -584.002; -382.996
793.055; -272.826;-1179.002;-1210.996
793.312; -164.223; -827.002; -816.997
793.568;  -84.320; -746.002; -599.997
793.824;    8.182; -226.001; -284.997
794.081;   59.685; -447.001; -508.998
794.337;  105.187; -664.001; -561.998
794.593; 2629.690; -319.001; -271.999
794.849; 9415.392; -746.001; -772.999
795.105;  489.995; -270.000; -261.999
795.361;   -0.703; -490.000; -457.000
795.617; -124.400; -875.000; -945.000
795.873;  -58.900; -360.000; -407.000
796.129;  -51.100; -368.000; -306.000
796.385;    7.800; -124.000; -156.000
796.641;  197.500;  412.000;  550.000
796.897; -126.900; -666.000; -635.000
797.153;  196.900;  453.000;  357.000
797.409; -174.400; -785.000; -868.000
797.665; -127.900; -625.000; -732.000
797.921; -150.600; -775.000; -762.000
798.176; -126.300; -744.000; -747.000
798.432; -108.100; -824.000; -596.000
798.688; -148.000;-1174.000;-1078.000
798.943;  141.600; -165.000; -147.000
799.199;  -19.400;-1005.000; -959.000
799.455;  395.700;  369.000;  316.000
799.710;  157.600; -813.000; -380.000
799.966;  442.400; -162.000; -160.000
800.221;  726.600; -638.000; -721.000
800.477;16773.200; -743.000; -710.000
800.732;11415.500; -773.000; -800.000
800.988;  917.900;  205.000;  -19.000
801.243; 3118.900; -454.000; -344.000
801.498;10190.600; -814.000; -739.000
801.754;  586.100; -289.000; -163.000
802.009;  133.100; -257.000; -335.000
802.264; -113.700; -967.000;-1033.000
802.520;  100.500;  222.000;   -3.000
802.775;  -62.000; -524.000; -359.000
803.030;  152.600;  395.000;  356.000
803.285; -170.900; -840.000; -903.000
803.540;  -66.000; -686.000; -699.000
803.795;  -74.000; -648.000; -583.000
804.051;  -21.100; -279.000; -346.000
804.306;  132.500;  168.000;  128.000
804.561;  338.400;  451.000;  362.000
804.816;  304.200;  714.000;  861.000
805.071;   62.000; -185.000; -280.000
805.325;  354.500; -257.000; -427.000
805.580; -202.100; -841.000; -877.000
805.835;  -10.200; -204.000; -297.000
806.090; -126.500; -760.000; -676.000
806.345;  -16.600; -344.000; -264.000
806.600;  -35.000; -549.000; -632.000
806.854;  -29.400; -408.000; -538.000
807.109;  -22.200; -493.000; -577.000
807.364;   51.900; -407.000; -328.000
807.618;   20.900; -415.000; -381.000
807.873;   81.200; -470.000; -494.000
808.128;  187.900; -257.000; -518.000
808.382;  193.800; -224.000; -332.000
808.637;   83.800; -440.000; -511.000
808.891;  345.500; -257.000; -180.000
809.146;  123.700; -902.000; -794.000
809.400;  373.900; -848.000; -923.000
809.654;  498.900; -779.000; -551.000
809.909;  741.600; -841.000; -927.000
810.163;12339.900; -813.000; -651.000
810.418;24417.400; -940.000; -861.000
810.672; 1441.400; -685.000; -690.000
810.926; 1045.200; -993.000; -973.000
811.180; 2260.600; -439.000; -372.000
811.434;47668.500;  240.000;  135.000
811.689;14418.100; -231.000; -365.000
811.943;  821.800; -936.000; -953.000
812.197;  409.300; -893.000; -671.000
812.451;  167.000; -379.000; -514.000
812.705;  -51.100; -809.000; -619.000
812.959;  -76.000; -263.000; -388.000
813.213;   53.800; -283.000; -209.000
813.467;  202.900;  470.000;  253.000
813.721; -160.100; -764.000; -792.000
813.975; -199.800; -826.000; -877.000
814.229;  141.700;  430.000;  353.000
814.482;  -93.900; -517.000; -566.000
814.736; -178.600; -766.000; -744.000
814.990; -218.800; -779.000; -872.000
815.244;  -11.100; -228.000; -285.000
815.497; -144.000; -636.000; -601.000
815.751;   -8.900; -141.000;   82.000
816.005; -142.400; -470.000; -586.000
816.258; -115.900; -510.000; -363.000
816.512; -178.200; -693.000; -610.000
816.766;   55.700;  121.000;  157.000
817.019;  115.200;  148.000;  149.000
817.273; -194.200;-1000.000; -802.000
817.526;  -26.100; -206.000; -173.000
817.779;  -74.300;-1049.000; -960.000
818.033; -104.800; -693.000; -807.000
818.286; -190.000; -725.000; -792.000
818.540; -110.200; -403.000; -403.000
818.793; -102.900; -402.000; -489.000
819.046; -135.100; -582.000; -520.000
819.299;  -19.200; -157.000; -166.000
819.553; -165.100; -552.000; -592.000
819.806; -268.500;-1016.000; -838.000
820.059;  -51.500; -334.000; -354.000
820.312;   72.900;  152.000;  185.000
820.565;   37.800;  110.000;  -27.000
820.818;  -50.100;  -59.000; -173.000
821.071; -287.700;-1041.000; -957.000
821.324; -179.000; -536.000; -540.000
821.577; -164.400; -457.000; -483.000
821.830;  -72.400; -270.000; -172.000
822.083; -218.600; -733.000; -288.000
822.336;  -40.800; -261.000; -167.000
822.589; -226.000; -805.000; -688.000
822.842; -248.700; -875.000; -770.000
823.094; -319.900;-1076.000;-1114.000
823.347; -229.000; -925.000; -729.000
823.600;   76.100;  402.000;  187.000
823.853;  -55.400; -311.000; -267.000
824.105;  -86.800; -331.000; -575.000
824.358; -173.800; -617.000; -716.000
824.611;   83.400;  234.000;   40.000
824.863;  -82.100; -612.000; -591.000
825.116;  108.700;  -33.000;   27.000
825.368;  117.100; -366.000; -372.000
825.621;  259.800; -186.000; -240.000
825.873;  113.100; -704.000; -737.000
826.126; 1055.800; -669.000; -641.000
826.378;18275.100; -389.000; -505.000
826.630; 3117.100; -890.000; -898.000
826.883;   13.300; -754.000; -693.000
827.135;   96.800; -279.000; -270.000
827.387; -199.000; -893.000; -839.000
827.639;    9.300;  -86.000;   32.000
827.892; -226.900; -742.000; -582.000
828.144; -242.700; -848.000; -804.000
828.396;  -16.800;  104.000;  -80.000
828.648; -142.000; -440.000; -333.000
828.900; -238.700; -702.000; -795.000
829.152; -177.900; -684.000; -683.000
829.404;  -67.400; -215.000; -267.000
829.656;  -32.100;  321.000;  214.000
829.908;   25.200;  393.000;  229.000
830.160; -284.700;-1064.000;-1047.000
830.412; -147.800; -481.000; -430.000
830.664; -185.600; -557.000; -665.000
830.916; -100.600; -268.000; -206.000
831.167; -309.000;-1073.000; -951.000
831.419; -178.300; -623.000; -566.000
831.671; -224.600; -764.000; -809.000
831.923;  -86.000; -311.000; -447.000
832.174;  -84.700; -273.000; -331.000
832.426; -164.000; -493.000; -582.000
832.678; -310.200;-1043.000;-1091.000
832.929; -288.400; -947.000; -935.000
833.181;  -96.300; -575.000; -677.000
833.432;  -59.400;  -59.000; -186.000
833.684;   43.800;  112.000;  -27.000
833.935; -186.200; -610.000; -566.000
834.187; -189.400; -829.000; -823.000
834.438;  -16.900;  -58.000;  -25.000
834.689;  -38.200; -255.000; -123.000
834.941;  -46.300; -343.000; -244.000
835.192; -171.900; -590.000; -533.000
835.443; -121.600; -419.000; -506.000
835.695;   11.200;  138.000;  -16.000
835.946; -125.200; -608.000; -378.000
836.197; -168.700; -599.000; -622.000
836.448; -108.800; -528.000; -395.000
836.699;  -55.500; -253.000; -341.000
836.950;   45.200;   72.000;    7.000
837.201; -236.300;-1003.000; -987.000
837.452;  -57.900; -356.000; -170.000
837.703; -167.300; -791.000; -737.000
837.954;  -30.100; -205.000; -365.000
838.205; -133.900;-1029.000;-1008.000
838.456;  267.200; -196.000; -282.000
838.707;   26.200; -423.000; -519.000
838.958;    0.700; -634.000; -647.000
839.209;  473.100;   18.000;   40.000
839.460;  189.800; -439.000; -201.000
839.710;  288.300; -135.000; -297.000
839.961;  708.200;  730.000;  612.000
840.212;  539.500; -382.000; -497.000
840.462; 1942.400; -328.000; -277.000
840.713;28752.300; -571.000; -536.000
840.964; 8617.500;  -62.000; -143.000
841.214;  711.200; -384.000; -624.000
841.465;  876.000; -214.000; -141.000
841.715;  772.400; -417.000; -380.000
841.966; 1025.100; -746.000; -685.000
842.216;17419.400; -330.000; -431.000
842.466;49092.800; -169.000; -313.000
842.717; 1875.000; -964.000; -952.000
842.967;  507.500; -635.000; -641.000
843.217;  479.200;   20.000;   28.000
843.468;  125.100; -104.000; -132.000
843.718;  -29.700; -718.000; -726.000
843.968; -165.200; -837.000; -765.000
844.218;   72.000; -315.000; -262.000
844.469;  -83.700; -577.000; -561.000
844.719; -136.800; -537.000; -682.000
844.969; -154.300; -550.000; -580.000
845.219; -234.700; -814.000; -862.000
845.469; -110.600; -392.000; -342.000
845.719; -219.200; -792.000; -884.000
845.969;    2.200;  119.000;  174.000
846.219; -180.400; -738.000; -720.000
846.469;  111.500;  464.000;  432.000
846.718;  -16.100; -115.000;   31.000
846.968; -237.200; -827.000; -827.000
847.218;  -32.800; -224.000; -371.000
847.468; -174.800; -586.000; -555.000
847.718; -231.100; -827.000; -798.000
847.967; -240.900; -826.000; -915.000
848.217; -128.800; -449.000; -569.000
848.467;  -71.400; -405.000; -376.000
848.716; -173.100; -708.000; -725.000
848.966;   46.800; -372.000; -358.000
849.215; -100.500; -428.000; -419.000
849.465; -171.500; -785.000; -615.000
849.714; -268.800;-1132.000;-1150.000
849.964;  -83.900; -551.000; -613.000
850.213;  -20.100; -393.000; -355.000
850.463;  177.000;  137.000;  340.000
850.712;    4.300; -542.000; -567.000
850.961;   -1.300; -739.000; -678.000
851.211;  204.800; -513.000; -504.000
851.460;  220.400; -635.000; -650.000
851.709;  927.300;  -25.000;   18.000
851.958;17909.600; -912.000; -750.000
852.208;16203.400; -859.000; -879.000
852.457;  655.100; -181.000;  -13.000
852.706;   62.400; -791.000; -823.000
852.955;   35.400; -507.000; -528.000
853.204;  -94.600; -521.000; -461.000
853.453; -138.200; -418.000; -458.000
853.702; -211.500; -660.000; -750.000
853.951; -152.600; -532.000; -520.000
854.200; -168.900; -613.000; -562.000
854.449; -220.700; -695.000; -661.000
854.698; -116.000; -340.000; -279.000
854.946;  -80.300; -181.000; -284.000
855.195; -217.700; -843.000; -868.000
855.444; -143.300; -395.000; -420.000
855.693; -160.900; -345.000; -432.000
855.941; -152.900; -387.000; -516.000
856.190;  -51.300; -256.000; -382.000
856.439; -224.100; -652.000; -703.000
856.687;  -41.900;  -99.000;  -72.000
856.936; -168.400; -621.000; -323.000
857.184; -303.100;-1067.000;-1020.000
857.433; -128.900; -423.000; -512.000
857.681; -247.300; -989.000; -953.000
857.930;  -70.300; -282.000; -433.000
858.178; -292.100; -856.000; -929.000
858.427; -273.700; -802.000; -781.000
858.675; -165.400; -377.000; -544.000
858.923; -172.100; -527.000; -819.000
859.172; -299.800;-1094.000;-1070.000
859.420; -121.300; -339.000; -239.000
859.668; -236.200; -624.000; -628.000
859.916;   46.900;  109.000;  115.000
860.164; -178.900; -699.000; -603.000
860.413;  557.100; -878.000; -696.000
860.661;  293.900; -709.000; -577.000
860.909;  -94.800; -339.000; -325.000
861.157; -113.100; -277.000; -444.000
861.405; -169.500; -534.000; -670.000
861.653;   82.300;  310.000;  310.000
861.901;  353.700; -543.000; -613.000
862.149;  -74.100; -801.000; -824.000
862.396;  -78.800; -297.000; -187.000
862.644; -152.700; -368.000; -347.000
862.892;   29.700;   98.000;  138.000
863.140; -158.000; -549.000; -530.000
863.388; -282.700; -815.000; -759.000
863.635; -191.100; -642.000; -601.000
863.883;   59.300;  231.000;  190.000
864.131; -137.200; -288.000; -357.000
864.378; -210.700; -675.000; -540.000
864.626; -128.800; -347.000; -415.000
864.873; -191.000; -556.000; -505.000
865.121; -225.000; -714.000; -799.000
865.368;  -26.800; -173.000;   75.000
865.616;  -46.100;  -33.000;  -40.000
865.863;  -74.200; -462.000; -506.000
866.111; -194.500; -795.000; -824.000
866.358;   39.200; -426.000; -420.000
866.605; 3703.500;  -64.000; -804.000
866.853; 2693.900; -621.000; -537.000
867.100; -109.600; -728.000; -775.000
867.347; -159.900; -672.000; -611.000
867.594; -123.500; -740.000; -714.000
867.841;  160.600;   97.000;   17.000
868.089; -245.500; -746.000; -698.000
868.336; -142.100; -477.000; -420.000
868.583; -214.300; -637.000; -741.000
868.830;  -56.300; -131.000; -170.000
869.077; -259.500; -859.000; -787.000
869.324; -191.800; -502.000; -458.000
869.571; -208.000; -398.000; -430.000
869.818; -147.900; -485.000; -439.000
870.065; -160.400; -439.000; -513.000
870.311; -157.900; -456.000; -542.000
870.558; -149.200; -332.000; -311.000
870.805;  -98.100; -320.000; -384.000
871.052; -127.600; -494.000; -369.000
871.298;  -59.100; -204.000; -131.000
871.545;  -73.000; -151.000; -185.000
871.792; -155.000; -173.000; -222.000
872.038;  -56.600;   43.000; -126.000
872.285; -148.100; -496.000; -387.000
872.532; -121.500; -357.000; -387.000
872.778;   66.100;  556.000;  403.000
873.025; -138.700; -384.000; -359.000
873.271;  137.100;  501.000;  578.000
873.517;   30.500; -133.000; -209.000
873.764;  -26.300; -193.000;  -80.000
874.010;  -70.400; -143.000; -230.000
874.257;   28.500;  123.000;   90.000
874.503; -203.900; -579.000; -479.000
874.749;  -53.200;   31.000;  275.000
874.995;  -45.600;  -80.000;  -20.000
875.242; -163.500; -540.000; -478.000
875.488; -142.500; -414.000; -439.000
875.734;  -50.000; -106.000; -234.000
875.980;  386.400; -872.000;-1032.000
876.226;  532.800; -157.000; -255.000
876.472;   46.200;  343.000;  237.000
876.718;    3.400;  184.000;  158.000
876.964;  -20.400;   56.000;   55.000
877.210; -239.700; -547.000; -677.000
877.456; -182.000; -630.000; -557.000
877.702; -296.000; -821.000; -832.000
877.948; -145.200; -377.000; -497.000
878.193;  112.400;  361.000;  255.000
878.439; -109.300; -487.000; -472.000
878.685; -120.300; -272.000; -343.000
878.931; -186.700; -618.000; -676.000
879.176;  -87.500; -201.000; -201.000
879.422; -267.000; -933.000; -820.000
879.668;  153.300;   10.000;   79.000
879.913;  248.700;   53.000;  137.000
880.159;  -66.500; -112.000;  -17.000
880.404;  -38.200; -152.000; -162.000
880.650;   14.700;   91.000;  141.000
880.895; -258.000; -670.000; -710.000
881.141; -173.500; -454.000; -428.000
881.386; -208.600; -503.000; -658.000
881.631; -138.800; -311.000; -166.000
881.877;    7.500;  112.000;  -13.000
882.122; -208.900; -684.000; -600.000
882.367;  -60.900; -136.000; -186.000
882.612;  -86.000;  -80.000; -176.000
882.858; -273.900; -877.000; -823.000
883.103; -103.300; -297.000; -267.000
883.348; -231.800; -759.000; -852.000
883.593; -249.900; -677.000; -602.000
883.838;  -16.800; -311.000;  -24.000
884.083;   96.400;  353.000;  288.000
884.328; -126.400; -564.000; -545.000
884.573;  -50.300; -196.000; -143.000
884.818;  398.400; -694.000; -531.000
885.063;  228.900; -348.000; -315.000
885.308; -138.300; -475.000; -398.000
885.553;   31.000;  245.000;  325.000
885.797; -178.800; -545.000; -615.000
886.042;  -33.300;    8.000;   58.000
886.287;  -87.800; -253.000; -211.000
886.532;  -45.000;   26.000;  204.000
886.776; -134.000; -407.000; -525.000
887.021; -202.700; -621.000; -574.000
887.265; -236.500; -685.000; -689.000
887.510; -187.200; -557.000; -496.000
887.755; -105.000; -194.000; -164.000
887.999; -231.800; -552.000; -575.000
888.244;  -63.900;  -58.000;  161.000
888.488;   63.300;  371.000;  393.000
888.732; -179.500; -368.000; -520.000
888.977; -212.900; -622.000; -567.000
889.221; -249.400; -683.000; -659.000
889.465; -192.700; -422.000; -566.000
889.710;  -90.800;  -56.000; -299.000
889.954;  104.400;  579.000;  467.000
890.198; -212.100; -584.000; -707.000
890.442; -246.200; -716.000; -712.000
890.687; -247.300; -800.000; -753.000
890.931; -112.500; -273.000; -210.000
891.175; -206.000; -502.000; -500.000
891.419;  -66.500; -105.000; -110.000
891.663;  -86.500; -239.000; -112.000
891.907; -273.100; -801.000; -545.000
892.151; -268.200; -920.000; -815.000
892.395; -153.200; -274.000; -387.000
892.638;   47.200;  408.000;  291.000
892.882; -297.900; -780.000; -867.000
893.126;  138.400;  758.000;  558.000
893.370; -108.200; -167.000; -168.000
893.614; -221.600; -714.000; -715.000
893.857; -140.200; -183.000; -197.000
894.101; -191.800; -527.000; -631.000
894.345;  -26.500;  300.000;  150.000
894.588;  107.600;  569.000;  380.000
894.832;  -89.500; -178.000;  -84.000
895.075;  -51.000;   15.000;  -92.000
895.319; -180.900; -552.000; -420.000
895.563; -166.700; -413.000; -353.000
895.806; -207.500; -628.000; -741.000
896.049;  -58.200; -576.000; -368.000
896.293;  239.500;  527.000;  405.000
896.536; -120.300; -465.000; -468.000
896.779;  -88.900; -149.000;   -1.000
897.023; -188.300; -751.000; -714.000
897.266;   26.200;  325.000;  269.000
897.509; -268.800; -900.000; -901.000
897.752;  -22.200;  149.000;  171.000
897.996; -327.400; -972.000; -864.000
898.239;  -24.800;  168.000;  102.000
898.482; -183.900; -431.000; -453.000
898.725;   13.900;  101.000;   53.000
898.968; -254.600; -609.000; -744.000
899.211; -146.300; -513.000; -361.000
899.454; -198.700; -633.000; -539.000
899.697;  -59.000;   90.000;  -43.000
899.940; -232.900; -761.000; -757.000
900.182; -161.000; -335.000; -405.000
900.425;  -75.600; -150.000; -298.000
900.668;   41.000;  491.000;  350.000
900.911; -124.300; -292.000; -345.000
901.154;  -32.000;  141.000;   -3.000
901.396; -217.400; -407.000; -412.000
901.639; -215.300; -430.000; -496.000
901.882; -297.100; -790.000; -809.000
902.124;  -91.200;  -29.000; -143.000
902.367; -136.500; -315.000; -361.000
902.609; -211.000; -476.000; -453.000
902.852;  -67.200; -108.000; -260.000
903.094; -187.400; -458.000; -337.000
903.337;  -18.900;  -26.000;   53.000
903.579; -160.300; -228.000; -441.000
903.821; -234.800; -597.000; -744.000
904.064;  -45.000;   85.000;  127.000
904.306; -100.900; -126.000; -166.000
904.548; -136.100; -152.000; -366.000
904.790; -127.300; -195.000; -340.000
905.033; -176.700; -625.000; -577.000
905.275; -200.100; -513.000; -524.000
905.517;  190.000;  468.000;  256.000
905.759; -148.700; -667.000; -761.000
906.001; -134.800; -322.000; -369.000
906.243;  -76.400; -162.000; -224.000
906.485;  282.900; -265.000; -207.000
906.727;  145.500; -499.000; -542.000
906.969;  -30.300;  -30.000; -135.000
907.211;  277.600; -316.000; -382.000
907.453;  496.900; -188.000; -237.000
907.695;   21.300; -158.000; -385.000
907.936;  185.000;  818.000;  706.000
908.178;  -57.100;   92.000; -135.000
908.420;  -81.800; -111.000; -162.000
908.662; -234.400; -633.000; -682.000
908.903; -114.600; -208.000; -123.000
909.145;  -45.300; -240.000; -305.000
909.386;   95.200;  315.000;  280.000
909.628;  136.700;  363.000;  397.000
909.870;   50.200;   29.000;  264.000
910.111; -181.400; -809.000; -949.000
910.353;    4.300; -123.000; -161.000
910.594;  -12.100; -574.000; -606.000
910.835;  162.200; -265.000; -326.000
911.077;  228.900; -503.000; -604.000
911.318;  425.800; -505.000; -471.000
911.559;  679.500; -577.000; -880.000
911.801; 2258.900; -284.000; -280.000
912.042;19817.200;  -50.000; -159.000
912.283;41301.800;  404.000;  371.000
912.524; 4797.000; -396.000; -457.000
912.765;  773.500; -193.000;   79.000
913.006;  377.300; -307.000; -338.000
913.247;   71.300; -270.000; -290.000
913.488;   71.300;  -43.000;   30.000
913.729; -143.000; -373.000; -373.000
913.970;  -77.700;  -96.000; -292.000
914.211;  -81.600; -160.000; -198.000
914.452;  -57.400; -118.000;  -11.000
914.693;   94.300;  510.000;  592.000
914.934;  105.800;  510.000;  440.000
915.175;  -72.200;   53.000;  -95.000
915.415;  -52.100; -137.000;   27.000
915.656;  -65.300;  -28.000;  192.000
915.897; -119.000; -252.000;  -82.000
916.137;  -79.500;   74.000;   -9.000
916.378; -209.100; -573.000; -517.000
916.619;  -98.600; -159.000;  -63.000
916.859;   53.400;  303.000;  330.000
917.100;  368.700; 1655.000; 1070.000
917.340;  188.500;  930.000;  728.000
917.581;  173.800;  965.000;  789.000
917.821;    7.000; -171.000;  143.000
918.061;   18.400; -199.000;  -72.000
918.302;  -77.000; -152.000; -211.000
918.542;   -4.000;  -22.000;    3.000
918.782;  182.900;  369.000;  377.000
919.023;  279.200;  360.000;  427.000
919.263; 2773.300; 8131.000;  202.000
919.503; 1691.200; -137.000;  -54.000
919.743; 1097.100;  390.000;  266.000
919.983;  412.500; -134.000;  -26.000
920.223;  157.700;  135.000;   14.000
920.463;  300.700;  631.000;  554.000
920.703;  234.100;   84.000;   39.000
920.943;  271.400; -110.000;   90.000
921.183;  315.300; -414.000; -405.000
921.423;  835.100;  307.000;  546.000
921.663; 1156.500; -174.000; -257.000
921.903; 2628.900;  237.000;  173.000
922.143;15742.200;  372.000;  389.000
922.383;53019.300;  158.000;  115.000
922.622;13629.600; -120.000;  -15.000
922.862; 1752.900;  796.000;  785.000
923.102;  703.200;  -51.000;   33.000
923.341;  280.400;   59.000;   74.000
923.581;  198.500;  450.000;  360.000
923.821;  107.300;  301.000;  398.000
924.060;  107.000;  351.000;  193.000
924.300;  -71.500;  -16.000; -128.000
924.539;   50.800;  584.000;  473.000
924.779;  101.400;  812.000;  597.000
925.018;  -19.200;  247.000;  353.000
925.257;  105.900;  595.000;  666.000
925.497;   37.800;  447.000;  412.000
925.736;  -90.700;  -35.000;  102.000
925.975;   87.500;  687.000;  669.000
926.214;  161.600;  907.000;  850.000
926.454;  129.500;  706.000;  757.000
926.693;   -8.100;  419.000;  543.000
926.932;  178.800; 1021.000;  825.000
927.171;  238.700; 1107.000; 1044.000
927.410;  219.600; 1144.000;  967.000
927.649;  140.700;  924.000;  742.000
927.888;   47.200;  590.000;  564.000
928.127;   52.400;  680.000;  678.000
928.366;  124.400;  842.000;  826.000
928.605;  143.100;  831.000;  737.000
928.844;  547.300; 1451.000; 1393.000
929.083; 1122.000;  770.000;  613.000
929.321;  573.300; 1335.000; 1359.000
929.560;  260.700; 1158.000; 1122.000
929.799;    4.800;  574.000;  475.000
930.038;  275.300; 1025.000; 1394.000
930.276;  -43.800;  334.000;  397.000
930.515;   60.400;  827.000;  681.000
930.753;   37.500;  614.000;  589.000
930.992;   35.600;  664.000;  717.000
931.230;   54.900;  847.000;  847.000
931.469;  445.300; 2162.000;  892.000
931.707;  247.100;  840.000;  751.000
931.946;  196.500; 1278.000; 1344.000
932.184;  222.500; 1437.000; 1175.000
932.423;  161.300; 1265.000;  963.000
932.661;  270.600; 1296.000; 1428.000
932.899;  140.400;  987.000;  821.000
933.137;  108.400;  754.000;  564.000
933.376;  369.300; 1664.000; 1335.000
933.614;  383.600; 1759.000; 1196.000
933.852;  178.400; 1357.000; 1171.000
934.090;  383.000; 1722.000; 1747.000
934.328;  288.700; 1252.000; 1457.000
934.566;  270.300; 1431.000; 1110.000
934.804;  304.500; 1263.000; 1309.000
935.042;  903.100; 1861.000; 1850.000
935.280; 3169.700; 2088.000; 2063.000
935.518; 2442.400; 2113.000; 2007.000
935.756;  647.100; 2481.000; 2316.000
935.994;  414.100; 1808.000; 1751.000
936.231;  777.900; 2890.000; 2950.000
936.469;  493.800; 2367.000; 2378.000
936.707;  404.700; 2220.000; 2167.000
936.945;  550.200; 2825.000; 2882.000
937.182;  518.700; 2679.000; 2741.000
937.420;  722.900; 3602.000; 3031.000
937.657;  864.900; 3365.000; 3478.000
937.895;  796.400; 3331.000; 3488.000
938.133;  691.800; 3540.000; 3528.000
938.370;  798.000; 3896.000; 4191.000
938.607;  884.800; 4488.000; 4205.000
938.845; 1261.100; 5587.000; 5549.000
939.082; 1066.100; 5387.000; 5177.000
939.320; 1234.200; 5799.000; 5728.000
939.557; 1394.200; 6549.000; 6491.000
939.794; 1544.000; 7285.000; 7097.000
940.031; 1927.400; 8421.000; 8368.000
940.269; 2232.700; 9552.000; 9107.000
940.506; 2382.700;10901.000;10507.000

