
Integration time [ms]: 200.000
Averaging Nr. [scans]: 10
Smoothing Nr. [pixels]: 0
Data measured with spectrometer [name]: 2101013U2
Wave   ;Sample   ;Dark     ;Reference
[nm]   ;[counts] ;[counts] ;[counts] 

394.013;  138.220; -450.257; -315.536
394.305;  435.816; -461.258; -419.536
394.596; 1799.348; -676.269; -527.514
394.887; 4214.275; -796.268; -654.518
395.178; 1691.825;  145.736;   11.476
395.470;  162.443; -210.263; -356.526
395.761;  471.699;  305.734;  394.479
396.052;  673.844; -545.284; -306.489
396.343;  684.858; -557.276; -454.503
396.634;  246.907; -200.279; -290.497
396.926;  231.171; -618.268; -565.517
397.217;  255.465;   11.725;  -17.504
397.508;  114.191; -366.273; -154.507
397.799;   96.907; -555.279; -571.497
398.090;  -13.503; -973.280; -902.495
398.381;  235.421;   11.708;  -11.473
398.672;   -9.277; -585.292; -742.473
398.963;  125.816; -348.279; -373.498
399.254;  221.038;   54.709; -209.475
399.545;  -89.306;-1017.266; -883.520
399.836;  148.540; -407.277; -343.501
400.127;  137.282; -205.295; -209.468
400.418;  132.582; -423.274; -392.506
400.709;  158.676; -359.281; -333.493
401.000;  169.544; -268.291; -309.476
401.290;  220.479;  225.698;  115.545
401.581;  157.215; -166.286; -228.485
401.872;   43.737; -542.298; -486.462
402.163;  118.770; -313.296; -252.467
402.454;  206.739; -123.291; -163.475
402.744;  122.556; -844.297; -813.465
403.035;  751.607; -226.293;  -86.471
403.326;  988.728; -366.292; -384.474
403.617;  691.728;  204.701;  165.539
403.907;  430.153; -593.283; -679.490
404.198; 3846.104; -545.307; -599.446
404.489; 9828.061; -618.283; -588.491
404.779; 3620.584; -618.302; -660.456
405.070;  459.450;  -67.304; -174.451
405.360;  611.510; -259.293; -238.472
405.651;  667.303;  125.699;   98.542
405.942;  388.308;  209.714;  127.516
406.232;  565.431; -432.285; -413.487
406.523;  965.498;  641.706;  758.530
406.813;  179.111; -579.286; -644.484
407.104;  758.619;  261.708;  144.527
407.394;  403.330; -604.299; -591.462
407.685;  320.630;  336.715;  222.513
407.975;   94.559; -400.283; -382.490
408.265;  232.562; -134.289; -190.478
408.556;  146.634; -472.291; -459.475
408.846;  345.000;  474.706;  429.530
409.137;  198.876;   -1.288; -216.480
409.427;  100.331; -193.285; -271.487
409.717;   65.696; -776.273; -692.508
410.007;  294.320;    4.715; -170.486
410.298;  208.987; -360.295; -342.469
410.588;  160.727; -495.285; -510.486
410.878;   57.194; -792.287; -873.482
411.168;  212.241; -481.298; -478.463
411.459;  225.450; -295.283; -242.489
411.749;  136.832; -609.292; -507.474
412.039;  124.173; -755.289; -386.480
412.329;  387.828;   40.722;  132.501
412.619;  380.112;  -62.286; -148.485
412.909;  708.767;  639.711;  594.521
413.199;  676.198; -130.280; -251.495
413.490;  803.352;  521.710;  352.523
413.780;  198.304;-1013.279; -913.496
414.070;  620.559;  -46.276;  235.497
414.360;  636.622; -729.278; -666.498
414.650;  716.188; -726.288; -688.482
414.940;  908.903; -538.280; -441.496
415.230; 1540.283;   50.712;   74.519
415.520;10406.247;  155.730;   66.486
415.809;38813.976; -305.281; -125.493
416.099;30793.643; -388.277; -229.501
416.389; 8252.078;  435.726;  236.494
416.679; 4958.649;   91.738;   85.473
416.969;  914.902; -527.287; -503.483
417.259; 1044.707;  341.721;  171.503
417.549; 1194.874;  522.718;  318.508
417.838; 2675.474; -205.268; -147.518
418.128; 8594.960;  650.710;  492.522
418.418; 7414.306; -491.272; -579.509
418.708; 5043.178;    9.726;  -48.506
418.997;18153.472; -474.275; -480.505
419.287;18918.490; -733.273; -790.507
419.577;17813.549; -160.283; -123.489
419.866;56692.540; -588.277; -498.501
420.156;58862.140; -242.270;  -55.513
420.446;11618.337; -112.263;  -26.526
420.735; 1616.230; -376.271; -446.512
421.025; 1632.821; 1830.722;  315.502
421.314; 1375.927; -203.271; -226.512
421.604; 2841.562;   89.732;  233.484
421.893; 1689.721; -705.271; -602.511
422.183;  461.137; -487.263; -461.526
422.472;  676.524;  -36.271; -107.511
422.762;  822.904; -416.266; -379.521
423.051;  446.460; -916.276; -916.503
423.341;  577.293; -491.273; -439.507
423.630;  739.113; -121.265;   15.477
423.919;  721.170;   58.725;   49.495
424.209;  659.946;  -31.263;   56.473
424.498;  859.970;   68.732;  161.483
424.787; 1746.881; -535.267; -601.518
425.077; 5406.211;   34.735;   29.478
425.366; 7699.955; -734.262; -744.528
425.655;15382.494;  639.727;  259.493
425.945;30611.766; -313.247; -268.554
426.234;17923.592;  117.741;  300.467
426.523; 8274.901;  -86.259; -350.534
426.812;11462.097;  107.734;  159.480
427.101;16083.357; -127.269; -323.515
427.390;20573.546;  -55.270;  -86.514
427.680; 5047.233; -624.257; -411.538
427.969;  942.251; -330.255; -301.540
428.258;  580.719; -385.257; -477.536
428.547; 1053.213;  449.728;  397.490
428.836; 2288.577; -421.253; -398.543
429.125; 3307.604; -199.259;  -72.534
429.414; 1575.914; -330.251; -294.548
429.703; 5292.614; -231.251; -213.548
429.992;14782.020; -938.250; -828.549
430.281;10093.325; -397.264; -331.524
430.570; 1170.698;  -21.252;   32.454
430.859; 1176.200;  279.741;  352.466
431.148; 1039.659;  636.752;  631.446
431.437;  658.498;  391.748;  367.454
431.725;  318.822; -544.257; -481.536
432.014;  232.089; -845.253; -756.545
432.303;  717.082; -149.239; -105.569
432.592; 1133.836; -460.263; -178.525
432.881; 1755.661; -601.248; -437.554
433.169; 9882.352; -343.255;  -61.540
433.458;19211.938;  445.765;  540.424
433.747; 8626.264; -397.261; -289.529
434.036; 1686.343; -275.242; -280.564
434.324; 3439.540; -395.249; -379.551
434.613; 5823.332;   40.757;  159.437
434.902; 2248.966;  333.760;  439.433
435.190; 1289.080;   75.761;  295.431
435.479;  754.803;  -52.245;   83.441
435.767;  267.516; -411.244; -427.561
436.056;  480.736; -340.242; -294.563
436.345;  659.870; -372.240; -223.568
436.633;  717.632;   60.750;  383.450
436.922;  621.474;  208.760;  414.432
437.210; 1439.721; -194.236;    1.426
437.499; 4115.334; -583.235; -432.576
437.787; 4578.621; -339.236;  -10.574
438.075; 1203.990;   56.761;  162.430
438.364; 1508.494;  -44.238;  250.429
438.652;  986.364; -286.226; -138.592
438.941;  329.406;    3.770;  269.415
439.229;   55.694; -665.252; -466.545
439.517;  113.748; -160.234;  -85.577
439.806;    8.290; -501.225; -290.595
440.094;  384.261;  377.766;  650.421
440.382;  438.067; -653.233; -302.580
440.670;  432.834; -361.235; -285.576
440.959;  102.219; -347.223; -170.599
441.247;  182.724; -151.229; -109.587
441.535;  208.045; -266.235;   31.423
441.823;   88.756; -497.234; -305.578
442.111;  390.731;  173.771;  327.412
442.400; 1062.002; -628.245; -335.559
442.688; 2849.660; -111.234; -620.579
442.976; 2115.162; -786.213; -450.617
443.264;  230.701; -324.224; -364.597
443.552;  259.966; -258.226;   51.408
443.840;  392.943;  602.765;  876.423
444.128;  263.765;  265.767;  269.420
444.416;   24.036; -694.228; -312.588
444.704;   45.867; -465.219;  -92.605
444.992;  185.571;   -0.226;  240.407
445.280;   93.807; -517.230;  -94.585
445.568;  115.967; -694.212; -396.618
445.856;  654.341; -174.221;  357.398
446.143; 1453.861;  -54.220;   -7.604
446.431; 1262.642;  -25.228;  625.411
446.719;  526.398;  489.783;  675.391
447.007;  392.398;  481.769;  705.416
447.295;  391.214;  597.777;  871.402
447.583;  152.721; -464.229;  -34.587
447.870;  265.836; -434.221; -202.601
448.158;  758.605; -104.230;  129.415
448.446;  605.062; -800.219; -338.604
448.733;  329.103;   13.776;  269.403
449.021;  476.267;   60.788;  341.382
449.309;  346.591; -296.210;  208.379
449.596;  404.092;  128.783;   59.392
449.884;  273.025; -571.222; -325.600
450.172;  240.050; -756.227; -406.590
450.459;  749.934;  645.786;  780.387
450.747; 3772.790; -411.218; -147.608
451.034;11283.844;  493.772;  889.411
451.322; 9373.639; -413.214; -170.614
451.609;  946.806;  292.777;  508.403
451.897;  934.294; -550.203; -183.634
452.184; 2812.114; -622.223; -400.598
452.472; 2745.926;   97.792;  269.375
452.759;  715.164;  512.781;  864.395
453.047;  231.563; -407.212; -125.617
453.334;  200.376; -732.219; -216.606
453.621;  222.043; -438.214; -161.615
453.909;  285.781;   13.796;  384.368
454.196;  270.055; -299.199; -123.641
454.483;  457.815;  317.798;  540.364
454.771;  287.831; -215.208;  196.374
455.058;  119.336; -316.207;  102.374
455.345;  267.045;   71.807;  344.347
455.632;  151.042; -128.207;  235.373
455.919;  135.691;  -82.196;  182.354
456.207;  -85.738; -774.198; -450.642
456.494;   22.835; -475.200;  -66.639
456.781;   20.508; -399.202; -198.635
457.068;  134.952; -253.206;  -29.628
457.355;   48.054; -698.206; -401.629
457.642;   -1.037; -552.205; -290.630
457.929;   20.330; -778.194; -417.651
458.216;  129.863; -575.212; -354.617
458.503;  386.438; -173.193;  -19.652
458.790;  368.127; -864.208; -630.625
459.077;  503.016;  -77.202;  110.364
459.364; 1338.519; -350.195; -210.649
459.651; 2663.849;  -46.206;  220.372
459.938; 1274.412; -864.209; -665.623
460.225;  321.021;  132.799;  276.363
460.512;  -35.413; -836.197; -688.645
460.799;  261.088;  -32.218;  320.392
461.086;  166.242; -370.200; -251.640
461.372;  140.563; -509.198; -279.642
461.659;  270.893; -165.196;  108.354
461.946;  175.835; -445.193;  -54.651
462.233;  540.138;  842.800;  888.361
462.519;  644.633; -814.201; -464.639
462.806; 1585.088; -768.197; -497.645
463.093; 1451.769; -445.191;  -66.656
463.380;  -37.664; -920.186; -824.664
463.666;  133.491; -259.197;  -18.646
463.953;  174.710; -406.195; -243.648
464.239;  330.010; -173.195;  -77.648
464.526;  767.928;  413.806;  743.350
464.813;  633.788; -565.190; -304.658
465.099;  713.037;  606.807;  607.348
465.386;  734.643;  903.807;  921.348
465.672;   93.688; -694.197; -522.645
465.959;  130.017; -598.188; -520.662
466.245;  104.744; -468.193; -359.652
466.532;  277.207; -109.195;   63.352
466.818;  196.536; -357.186; -216.664
467.104;   61.801; -488.182; -415.672
467.391;   22.691; -628.189; -459.658
467.677;  126.142; -289.186;    9.335
467.964;   92.402; -682.189; -471.660
468.250;  218.646; -331.186; -160.665
468.536;  213.293;   90.811;  180.341
468.822;  -11.435; -821.184; -574.668
469.109;  337.633;  351.827;  471.311
469.395;  483.159;  729.808;  787.346
469.681;  439.198;   46.811;  156.341
469.967; 2127.106; -699.188; -382.660
470.254; 4194.718; -494.188; -306.662
470.540; 2747.991; -601.196; -476.646
470.826;  391.219; -488.181; -397.675
471.112;  484.971;  288.816;  113.331
471.398;  227.179; -253.183;  -58.670
471.684;  138.766; -626.177; -447.680
471.970;   -7.374; -918.180; -981.675
472.256;   96.558; -521.192; -441.654
472.542;   61.851; -499.171; -434.691
472.828;   70.295; -743.182; -607.672
473.114;  156.522; -380.166; -283.700
473.400;  109.392; -504.175; -293.684
473.686;  124.032; -452.166; -400.701
473.972;  153.116; -230.174; -131.687
474.258;  -69.167; -925.173; -843.689
474.544;  333.152; -183.178;   -2.679
474.830;  489.695;  -65.175;   45.316
475.116;  740.590; -123.190; -196.658
475.401;  923.029; -558.180; -467.676
475.687;  273.728; -725.180; -718.676
475.973;   31.508; -673.181; -770.673
476.259;  515.799;  736.825;  764.315
476.544;  660.579; -539.176; -437.682
476.830; 1187.444; -398.172; -322.690
477.116; 1041.276; -430.177; -336.682
477.401;  297.229;  346.820;  358.324
477.687;  -28.107; -289.175; -405.684
477.973;  101.313;   21.819;   28.326
478.258;   14.065; -448.163; -348.706
478.544;  118.855;   21.815;   61.334
478.829; -106.840; -818.171; -738.692
479.115;  -36.756; -749.172; -651.690
479.401;   15.909; -444.174; -449.686
479.686;  115.027; -253.180;  -74.676
479.972;  -71.640; -886.178; -776.680
480.257;  136.324; -258.166;  -65.700
480.542;   34.966; -614.170; -469.693
480.828;  535.790; 1288.824; 1392.317
481.113;  -28.714; -464.176; -426.683
481.399;   39.904; -236.161; -202.711
481.684;  -51.277; -620.166; -462.700
481.969;  102.426; -158.159;  -73.713
482.255;   20.983; -439.169; -285.695
482.540;   24.561; -569.178; -441.680
482.825;   57.728; -395.187; -404.663
483.110;  168.789;  -85.169; -105.696
483.396;  303.461; -840.157; -652.718
483.681;  838.616;  543.826;  730.313
483.966;  264.616; -696.160; -700.712
484.251;   59.415; -404.174; -310.687
484.536;   40.041; -356.165; -378.703
484.822;   86.020; -205.173; -218.687
485.107;  -14.477; -599.152; -502.726
485.392;  286.550;  662.836;  541.296
485.677;  150.505;  354.832;  163.302
485.962;  259.557;  160.843;  270.283
486.247;  216.278;  -14.162;   -8.707
486.532;  141.326; -178.166; -325.701
486.817;  316.495;  381.839;  431.291
487.102;  196.795; -453.154; -514.722
487.387; 1022.664; -637.156; -652.718
487.672; 1706.258; -154.164;  -38.705
487.957; 1111.906; -394.160; -286.711
488.241;  345.350; -290.150; -314.729
488.526; 1169.625; -280.152; -148.726
488.811; 1754.864; -881.177; -818.680
489.096; 1306.300; -666.154; -702.723
489.381;  794.019;    3.847;  162.275
489.666;  543.903; -428.161; -510.710
489.950;  351.305;  558.846;  627.277
490.235;  -31.058; -480.151; -458.728
490.520;  -72.298; -756.161; -723.710
490.804;  -70.933; -827.156; -736.719
491.089;   -4.124; -469.149; -299.732
491.374;   70.056; -132.164;  -75.704
491.658;  -11.605; -817.147; -717.735
491.943;  282.832; -657.152; -609.727
492.227;  475.289; -178.155;  -38.721
492.512;  152.656; -294.157; -341.717
492.797;  -98.334; -713.149; -716.731
493.081;  -60.701; -588.147; -598.735
493.366;  -37.096; -751.161; -635.711
493.650;  457.186;  831.859;  917.254
493.935;   66.894; -648.147; -447.734
494.219;  -90.835; -778.142; -687.743
494.503;  -56.742; -585.150; -487.730
494.788;   92.543;   46.842;   74.285
495.072;  234.252;  184.850;  434.271
495.356;  298.881; -463.148; -343.733
495.641;  737.310; -812.146; -736.736
495.925;  701.975; -976.156; -903.719
496.209;  125.875; -599.149; -451.732
496.494;  -55.534; -763.142; -544.744
496.778;   52.396; -364.154; -360.722
497.062; -120.225; -819.156; -627.719
497.346;  -69.191; -869.160; -640.711
497.631;  290.887;  580.852;  560.266
497.915;  189.327;  -64.145;  175.261
498.199;  146.161; -341.157; -277.718
498.483;  107.723; -562.152; -508.725
498.767;  359.454;  301.850;  300.271
499.051;  326.271; -126.149; -100.732
499.335;   51.768; -693.149; -739.731
499.619;  -51.550; -381.129; -423.767
499.903;   67.186; -272.155;  -65.721
500.187;   93.407; -588.153; -316.724
500.471;   34.231; -796.152; -595.727
500.755;  251.702;   62.839;  -96.710
501.039;   90.787; -270.155; -357.721
501.323;  233.589;  -21.141;  264.254
501.607;  102.866; -447.163; -503.706
501.891;   27.763; -607.156; -512.718
502.174;  -10.855; -726.144; -585.741
502.458;  176.638;   89.849;  370.273
502.742;  108.927; -180.138; -191.751
503.026;  177.893; -412.147; -254.734
503.310;  280.724; -437.159; -375.713
503.593;  204.096; -464.147; -325.735
503.877;  251.693; -232.133; -156.760
504.161;  354.211;    2.847;  -50.724
504.444;  199.846; -841.158; -710.716
504.728;  734.955; -487.164; -522.704
505.012; 1042.849; -257.150;  -76.729
505.295;  930.904; -417.161; -212.711
505.579;  819.974; -256.156; -496.719
505.862; 1135.821; -555.145; -333.738
506.146; 1036.328; -681.159; -758.714
506.429;  726.029;  568.841;  461.286
506.713;   92.945; -732.151; -667.728
506.996;  562.595;   90.846;  295.278
507.280;  485.847; -633.165; -474.703
507.563;  387.184; -469.155; -261.721
507.847;  146.409; -423.153; -112.724
508.130;  154.905; -665.161; -456.711
508.413;  169.017; -758.167; -577.700
508.697;  416.617; -151.167;   12.300
508.980;  272.111; -422.153; -312.724
509.263;   10.978; -466.155; -450.720
509.547;   98.849; -124.150;   82.271
509.830;  125.209; -172.160;  140.289
510.113;  195.574;  128.844;  298.281
510.396;   98.420; -530.152; -300.725
510.680;  398.823; -818.145; -812.738
510.963; 1429.902;  184.846;  180.277
511.246; 1204.461; -493.150; -357.730
511.529;  536.231; -482.145;  -83.739
511.812;  544.587; -250.134;   10.241
512.095;  343.940; -740.151; -396.728
512.378;  152.502; -317.147; -245.736
512.661;   64.540; -703.137; -623.753
512.944;   73.768; -750.142; -637.744
513.227;  157.835; -170.137; -171.752
513.510;   82.645; -479.144; -671.741
513.793;   71.896; -485.140; -435.747
514.076;  262.384;  -43.127;  -39.771
514.359;  238.676; -294.149; -135.732
514.642;  171.173; -442.142; -567.744
514.925; 1266.593;  581.860;  561.253
515.208; 1410.182; -498.134; -443.758
515.491; 1032.704; -276.133; -182.761
515.773;  633.751; -410.143; -337.742
516.056; 3258.850;  249.864;  409.246
516.339; 4156.257; -754.136; -652.755
516.622; 3368.658; -518.150; -488.730
516.904; 2462.162;  882.857;  975.257
517.187; 1137.533; -730.138; -523.752
517.470;  667.761; -568.143; -510.743
517.752;  635.061; -624.136; -470.756
518.035;  509.213; -708.139; -725.749
518.318;  605.557; -799.136; -744.755
518.600; 3630.810; -300.132; -325.762
518.883; 4669.972;  310.858;   88.256
519.165; 2400.521; -585.138; -426.751
519.448;  669.909;  -61.132;  -19.762
519.730;  333.796; -573.126; -415.773
520.013;  677.198;  588.867;  664.240
520.295; 1787.090;  -94.134;  -15.759
520.578; 3817.230; -335.131; -305.764
520.860; 4106.010; -254.132;   56.238
521.143; 2153.665; -763.135; -584.756
521.425;  809.317; -251.125; -279.775
521.707; 1115.985; -622.127; -380.771
521.990; 2794.386; -199.127;  167.229
522.272; 2987.098; -116.140;   -4.748
522.554; 1572.752; -237.143; -157.742
522.836;  716.887;  -24.134;   99.241
523.119;  410.891; -496.148; -189.734
523.401;  278.242; -448.130; -314.766
523.683;  123.041; -865.137; -693.753
523.965;  507.630;  408.862;  260.248
524.247;  442.552;   54.878;  170.220
524.529;  336.390; -451.134; -367.759
524.812;  609.445;   -3.130;  191.234
525.094; 1287.829; -773.138; -631.751
525.376; 1955.832; -143.124;   78.223
525.658; 1240.352; -441.136; -339.754
525.940;   38.125; -805.131; -671.764
526.222;  112.258; -188.136;  -88.755
526.504;  262.522; -190.131;   32.237
526.786;  361.794; -960.133; -647.760
527.068;  611.441; -124.123;  -67.778
527.349;  272.447; -865.137; -774.754
527.631;  272.709; -137.132;   22.238
527.913;  220.084; -664.127; -450.771
528.195;  216.006; -761.125; -639.774
528.477;  403.282;  -93.134;  -30.758
528.759;  162.144; -648.130; -522.766
529.040;   91.439; -569.123; -293.778
529.322;  138.110; -235.125;  -10.774
529.604;  302.248;  -47.130;   93.233
529.886;  244.796; -546.126; -302.773
530.167;  280.735;  232.870;  192.235
530.449;   94.901;    1.853;   63.265
530.731;   35.151; -572.122; -459.779
531.012;  113.584; -513.120; -216.784
531.294;  146.048; -118.116;  -43.792
531.575;  304.517;  290.875;  538.225
531.857;   85.874; -548.135; -266.757
532.138;  230.986; -113.141;   40.254
532.420;  358.467;  294.865;  403.244
532.701;  394.598; -722.133; -751.760
532.983;  705.003;  232.867;  182.239
533.264;  253.993; -243.126;  175.228
533.546;  -36.542; -491.136; -508.755
533.827;  112.992;  173.867;   -1.759
534.109;  102.973; -352.135;  -80.757
534.390;  176.716; -725.132; -582.762
534.671;  439.267; -270.135;  -82.756
534.953;  217.744; -751.123; -611.779
535.234;   83.124; -426.117; -255.789
535.515; -135.402; -891.119; -735.785
535.796;  -16.123; -431.128; -193.770
536.078; -181.368;-1050.124; -904.777
536.359;   64.545;  -22.123;    3.221
536.640;   14.709; -480.125; -197.774
536.921;  332.257;  225.871;  143.232
537.202;  602.924;  -87.138;  -16.751
537.483;  718.630;  251.869;  377.236
537.764;  322.735;   17.870;   98.235
538.045;  -22.620; -543.134; -371.758
538.326;  -13.340; -596.129; -447.768
538.607;   22.486; -686.127; -476.771
538.888;  261.370;   98.879;    5.218
539.169;  283.961; -704.122; -535.781
539.450;  558.555;  236.871;   16.233
539.731;  385.176; -361.121; -182.783
540.012;  264.684;  199.880;  412.216
540.293;  199.723;   82.876;  158.224
540.574;   18.582; -895.113; -717.796
540.855;  837.174;  435.879;  377.218
541.136;  903.857;   47.878;  139.220
541.416;  507.346; -161.130; -220.766
541.697;  339.222; -274.131; -170.763
541.978; 1567.671; -270.135; -315.757
542.259; 1887.786; -211.127; -236.771
542.539; 1028.738; -191.116; -186.790
542.820;  390.417;  461.875;  480.225
543.101;  254.826;  -52.145;  -77.738
543.381;   30.385; -638.127; -591.771
543.662;  517.582;  159.873; -254.771
543.942;  892.679; -751.127; -830.770
544.223; 1611.859;  193.878;  161.219
544.504; 1017.031; -275.124; -182.777
544.784; 1008.096; -592.126; -408.773
545.065; 2614.544;  104.884; -254.791
545.345; 2944.898;  227.881;   14.215
545.626; 2071.480;  -14.113; -108.796
545.906; 1337.534;   77.869;   98.235
546.186;  598.703;   92.874;  -95.773
546.467;  379.735;   99.877;  -95.778
546.747;  551.838;  264.884;  327.210
547.027;  613.329;   91.876;  111.223
547.308;  465.077; -376.127; -530.770
547.588;  670.361;  299.871;  371.232
547.868;  406.136;  458.870;  588.235
548.149;  386.956;  609.885;  593.207
548.429;  182.383; -347.127; -299.771
548.709;  321.584; -645.120; -461.784
548.989;  780.514;   84.882;   88.213
549.269; 3338.207;   10.868;  139.239
549.550; 7173.842;  215.877;  117.222
549.830; 6212.010; -758.111; -556.799
550.110; 1320.422; -468.110; -320.801
550.390; 1368.451; -128.122;  -56.779
550.670; 1614.974; -868.114; -783.795
550.950; 1268.073; -509.121; -471.782
551.230;  401.867;  549.879;  460.218
551.510;   13.671; -381.121; -326.782
551.790;   83.435; -173.109; -127.803
552.070;  546.035;  940.877; 1181.223
552.350;  590.405; -492.119; -377.786
552.630;  904.063;   -2.121;   77.219
552.909;  559.845;  181.884;   73.209
553.189;  389.717;  -49.132;   33.237
553.469;  276.104; -703.119; -514.786
553.749;  271.288; -469.127; -357.772
554.029;  289.030;   33.883;  -24.790
554.308;  249.863; -154.115;  -37.794
554.588;  138.375; -196.128; -204.770
554.868;  115.574; -366.121;  -47.782
555.147;  238.558; -114.115;  -46.793
555.427; 1060.449; -260.116; -250.792
555.707; 5987.855; -284.115; -200.793
555.986; 6551.415; -719.111; -538.800
556.266; 3729.836;   23.884;   72.210
556.546;  139.671; -888.121; -675.782
556.825;  407.770; -657.114; -556.794
557.105; 2757.572; -125.128;   17.230
557.384; 2999.143;  122.884;  187.209
557.664; 1234.148; -717.116; -508.792
557.943;  200.073; -557.121; -411.782
558.222;  248.119; -345.118; -344.788
558.502;  442.061; -116.115;  -76.793
558.781;  806.353;  194.885;  499.208
559.061;  592.818; -232.118; -227.788
559.340;  513.226;  302.883;  353.211
559.619; 1079.535;   93.884;  148.210
559.899; 1488.930; -239.117; -266.789
560.178; 1349.060; -778.115; -593.793
560.457; 4847.232; -623.117; -562.790
560.736; 6155.917; -472.111; -482.800
561.015; 4274.568; -500.128; -502.769
561.295;  636.567;  180.893;  215.193
561.574;  567.456;  119.885;  116.207
561.853;  824.642;  274.891;  303.197
562.132;  771.764;  -45.114;  182.206
562.411;  731.264;  396.879;  553.219
562.690;  158.453; -592.115; -458.792
562.969;  286.592;  472.888;  630.203
563.248;  996.160; 2966.878; 2487.219
563.527;  411.016; -290.111; -408.800
563.806;  566.783; -650.127; -521.771
564.085;  630.092; -297.105; -206.810
564.364;  357.535; -594.117; -405.790
564.643;  799.165; -276.121; -223.781
564.922; 2776.432;  221.890;  397.198
565.201; 2546.338; -640.109; -700.803
565.479; 1243.951; -297.115; -219.792
565.758;  479.772; -810.128; -712.770
566.037;  681.339; -155.109; -100.803
566.316;  415.344; -286.116;  -28.791
566.595;   69.255;  -17.115;  -12.793
566.873;  215.719; -166.111;  -79.801
567.152;  -94.709; -490.113; -590.797
567.431;   70.337; -113.116;    6.210
567.709;   62.067; -344.107; -212.807
567.988;  412.170; -810.114; -769.794
568.266;  774.855; -160.115;  -68.793
568.545;  586.268; -644.100; -514.819
568.824;  914.450;  160.885;  356.208
569.102;  741.369; -351.114; -235.794
569.381;  346.848; -492.116; -407.792
569.659;  -63.115; -553.113; -553.796
569.938;   64.657; -743.122; -465.780
570.216;  159.944; -225.109; -225.804
570.494;  -44.825; -632.114; -572.795
570.773;  113.571;  202.879;  114.218
571.051;   44.040; -373.123; -357.778
571.330;   85.481; -221.113; -174.796
571.608;   79.497; -181.098; -173.823
571.886; -115.793; -671.111; -581.799
572.164; -131.326; -739.121; -621.782
572.443;  -61.702; -562.105; -512.811
572.721;  -52.968; -399.117; -289.790
572.999;  -34.678; -280.117; -168.788
573.277;  216.187;  379.894;  620.191
573.555;  494.990;   94.894;   37.190
573.834; 1949.021;  -86.117; -114.788
574.112; 2274.571;  880.893;  811.193
574.390;  746.118; -143.111;  -96.801
574.668;   26.493;  -91.112;  -61.797
574.946;    6.391; -165.106; -187.810
575.224;   24.137;   71.891;  -16.803
575.502;  -16.460; -200.116; -204.791
575.780; -142.205; -767.112; -829.798
576.058;  320.216; 1589.889; 1004.200
576.336;   -2.775; -210.110; -129.801
576.614;  -56.105; -511.112; -340.798
576.891;   74.262; -711.115; -823.794
577.169;  708.157; -158.108; -285.805
577.447;  898.770;  169.893;  202.193
577.725;  450.602;  629.888;  854.201
578.003;   50.799;  -71.112; -371.798
578.280;  179.812; -208.104; -242.812
578.558;  112.061; -450.115; -422.793
578.836;  287.874; -210.114; -145.795
579.114;  101.392; -630.112; -670.797
579.391;  158.024;   -6.117;  -18.789
579.669; -100.836; -595.114; -704.794
579.947;  306.165; -326.107; -127.806
580.224;  397.265; -692.107; -524.806
580.502;  480.071;  127.893;   76.193
580.779;   55.534;  -42.117;   75.210
581.057; -104.556; -584.109; -470.804
581.334; -162.664; -726.102; -695.815
581.612;  114.992;   54.895;  511.190
581.889;   -7.942;  -83.101; -129.818
582.167;  -18.919; -298.099; -190.821
582.444; -160.251; -845.102; -814.817
582.721;  251.650;  657.899;  715.183
582.999;   85.077; -326.100; -167.821
583.276;  740.147; -812.123; -713.779
583.553;  988.742; -364.102; -294.816
583.831;  322.807; -607.104; -631.812
584.108;  138.153;  349.892;  174.195
584.385;   29.935; -122.102;  -98.815
584.662; -123.080; -651.111; -828.801
584.940;   97.319;  204.889;  204.199
585.217;  -43.115;  -73.113; -303.796
585.494;   98.633;   71.890;  118.198
585.771;  375.345; -250.109; -354.804
586.048;  722.884; -196.113;  -76.796
586.325;  446.924; -721.110; -773.801
586.602;  196.913;  230.896;  213.188
586.879;  -45.729; -499.100; -580.820
587.156;   71.293; -156.105; -331.810
587.433;  -81.454; -701.102; -667.817
587.710;  139.496;  152.888;  234.202
587.987;  524.802; -264.105; -236.811
588.264; 1252.899;  315.888;  387.202
588.541; 2257.017;  -61.104;   26.187
588.818; 4133.649;   72.892;  171.196
589.095; 3601.509; -163.104; -174.812
589.371;  578.742; -459.109; -414.804
589.648;   23.971; -581.107; -437.807
589.925;   73.376; -517.114; -621.795
590.202;    1.995; -741.112; -607.798
590.478;  142.905; -166.105;  -73.811
590.755;  471.659; -241.108; -132.806
591.032; 3818.427; -741.110; -699.802
591.308; 4689.362; -732.094; -790.831
591.585; 2641.527; -573.110; -560.802
591.862;  135.948;-1056.102; -950.817
592.138;  117.455; -475.108; -474.805
592.415;  271.614; -486.104; -495.813
592.691; 2404.011;  460.896;  518.188
592.968; 2739.200; -208.098; -123.824
593.244; 1315.037; -695.116; -595.790
593.521;  127.949; -105.102;  -42.817
593.797;  -47.347; -810.122; -720.780
594.074;  504.521; -611.096; -588.826
594.350; 1116.539;  828.905;  729.172
594.626;  493.020; -303.111; -283.801
594.903;  146.450; -643.101; -645.817
595.179;  325.020;  243.896;  418.187
595.455;   50.473; -136.107; -150.807
595.731;   72.023;  -19.103;  -38.814
596.008;  -58.589; -464.111; -434.800
596.284;   60.675; -187.100; -242.820
596.560;   49.173; -501.093; -493.833
596.836;  329.097; -173.105;  -70.810
597.112;  500.256; -582.108; -437.805
597.388;  451.117;  -49.097;  -48.826
597.665;  242.289;  437.887;  530.203
597.941; -111.080; -572.089; -658.839
598.217;   32.932; -323.110; -293.802
598.493;  431.848;   61.891; -204.804
598.769;  771.066; -175.100;  -50.819
599.045;  414.661; -490.108; -562.806
599.321;   94.173; -193.100; -261.820
599.597;  194.747; -355.109; -476.804
599.872;  788.917;  409.896;  429.187
600.148;  547.620;  -61.097; -172.826
600.424;  500.769;   91.893;  202.193
600.700;  356.872; -170.107; -280.807
600.976;  208.410; -442.097; -464.825
601.252;  392.441; -226.109; -272.803
601.527;  262.318; -833.104; -840.813
601.803;  208.306; -453.105; -404.812
602.079;  322.866; -124.100; -118.819
602.354;  859.189; -620.092; -531.835
602.630; 1200.785; -140.113; -482.796
602.906; 3775.758; -910.101; -863.818
603.181; 9715.604; -627.119; -534.786
603.457; 8391.616;   98.903; -278.826
603.733; 1291.578; -605.120; -626.783
604.008; 1656.292; -245.106; -164.810
604.284; 4475.552; -636.101; -580.817
604.559; 3972.102;   -3.112;  -42.799
604.835;  780.396; -163.105; -225.810
605.110;  617.082; -732.099; -892.821
605.385; 1062.277;  224.907;  267.167
605.661;  965.843; -625.095; -729.829
605.936; 1608.061; -664.108; -737.806
606.211; 1508.134;  -17.103; -170.815
606.487;  318.567; -329.114; -376.794
606.762;    4.905; -791.119; -745.786
607.037;  -33.503; -501.105; -433.810
607.313;  -80.068; -589.096; -574.828
607.588;    1.691; -375.106; -137.810
607.863;   72.557;  -28.101; -143.818
608.138;  333.130;  513.890;  516.198
608.413;   32.488; -576.099; -592.822
608.688;   85.255; -203.108; -267.805
608.964;  295.982; -509.106; -218.809
609.239;  400.692; -107.105; -212.810
609.514;  482.705;  281.895;  240.188
609.789; 1017.412; -187.104; -716.812
610.064; 1319.330; -435.096; -609.827
610.339; 1319.442; -855.109; -799.804
610.614; 1600.174; -131.100; -315.820
610.889;  990.606;  215.895;  107.188
611.163;   38.007; -407.104; -591.812
611.438;  132.869;   81.886; -167.794
611.713;    3.852; -467.101; -499.817
611.988;   72.256; -144.101; -328.818
612.263;  -41.664; -771.102; -717.815
612.538;  357.784;  385.887;  251.204
612.812;  208.776; -832.100; -911.820
613.087;  189.597; -358.098; -338.823
613.362;  -81.627; -497.107; -557.807
613.637;  103.327;  261.897;  138.186
613.911;  -25.910; -256.092; -345.835
614.186;  200.670; -249.107; -292.807
614.460;  943.143; -842.081; -758.854
614.735; 1147.358;  -55.087;  -17.843
615.010;  296.342;   43.912;  -82.841
615.284;  473.754;  360.892;  246.195
615.559;  493.088; -792.092; -955.835
615.833;  461.985;  -76.099;  -87.822
616.108;   19.807; -225.090; -390.837
616.382;  277.361;  274.913;  402.156
616.656;  253.608; -241.090; -232.837
616.931;  767.786; -785.099; -700.822
617.205; 1541.019; -973.104; -979.813
617.480; 1402.714;  -91.125;    6.225
617.754;  234.010; -396.125; -128.774
618.028;   38.962; -369.129; -382.768
618.302;  149.352;   73.892;  -25.805
618.577;  -78.771; -371.103; -518.815
618.851;  -92.064; -399.109; -600.803
619.125;  -49.910; -335.134; -378.759
619.399;  -50.780; -244.104; -374.813
619.673;  -37.850; -330.115; -515.792
619.947;  -81.626; -333.114; -448.795
620.222;  -44.878; -198.110; -204.801
620.496;   27.574;  -47.121;  -96.782
620.770;   31.460; -187.122;  -93.781
621.044;  407.693;  323.895;  346.190
621.318; 1084.279; -653.120; -614.783
621.592;  996.275; -430.121; -409.783
621.866;  468.604; -476.112; -572.799
622.140;   65.140; -207.116; -356.791
622.413;  130.611;  138.889;  112.200
622.687;  -55.748; -746.101; -492.817
622.961;   47.752; -130.108; -143.805
623.235;  -99.688; -633.111; -661.800
623.509; -191.495; -816.105; -848.811
623.783;   40.866;  -12.107;   48.193
624.056;   -5.620; -254.120; -280.783
624.330;   90.993;   63.888;   -3.797
624.604;  121.635; -271.116; -355.790
624.877;  149.529;  180.890;   26.198
625.151;   76.665; -249.114; -238.794
625.425;  -55.878; -150.103; -283.814
625.698;  -96.004; -367.119; -374.785
625.972; -161.367; -799.110; -765.802
626.245;  182.538;  685.884;  484.210
626.519;  -66.413; -426.120; -340.784
626.792;  -31.728; -192.107; -380.807
627.066; -117.051; -485.122; -662.779
627.339; -154.874; -736.110; -663.802
627.613;  131.285;  351.880;  148.216
627.886;  166.836;  187.891; -612.803
628.160;  -24.522;  312.880; -161.783
628.433; -175.381; -695.125; -703.775
628.706; -154.813; -517.120; -615.784
628.979;   91.929;  296.876;  117.223
629.253; -153.597; -785.119; -833.786
629.526;  560.093; -334.126; -253.772
629.799;  402.941; -641.123; -479.778
630.072;  208.564; -497.128; -516.769
630.346; -148.662;-1115.116;-1080.790
630.619;  695.374; -467.107; -545.808
630.892;  958.613;  709.889;  593.200
631.165;  559.619;  790.896;  679.187
631.438; -192.301;-1092.112;-1055.798
631.711;  147.646;  453.877;  257.221
631.984; -106.370; -523.117; -624.789
632.257; -140.076; -636.117; -681.789
632.530;  -65.704; -412.119; -433.785
632.803;  100.162; -109.115;    7.207
633.076;  -95.265; -360.123; -422.777
633.349;   62.171;  173.872;  121.231
633.622;  -33.506; -187.119; -240.785
633.895; -230.020; -903.120; -823.783
634.167;  -83.703; -496.126; -525.773
634.440;    0.948;  -19.116; -137.792
634.713;   10.402;  -22.119; -120.786
634.986;  161.054;  593.871;  453.233
635.258; -138.741; -507.115; -597.793
635.531;  251.918;  742.882; -343.788
635.804;   -5.272; -303.117; -318.789
636.077; -160.758; -830.116; -852.791
636.349;  -46.944; -586.115; -474.793
636.622;  753.192; 1695.874; 1392.228
636.894;  320.087; -474.120; -909.784
637.167;  174.482; -836.127; -789.771
637.439;   62.776; -278.128; -213.770
637.712;  -43.605; -312.126; -293.772
637.984; -115.457; -635.116; -707.791
638.257;  720.736;  515.877;  488.222
638.529;  874.820; -881.125; -924.776
638.802;  356.864; -508.128; -449.769
639.074; -202.241; -927.122; -952.781
639.346; -203.124; -942.135; -930.757
639.619;    8.570;  -79.142; -319.744
639.891;    2.049;  -83.122; -168.779
640.163; -121.848; -689.122; -756.780
640.435;   86.055;  273.878;  103.220
640.708;   56.458;  -72.122; -132.780
640.980;  -17.739; -366.122; -362.781
641.252;  349.164;  -25.121;  -71.781
641.524; 3078.767;  580.879;  573.219
641.796; 2759.170;-1094.121; -907.782
642.068;  535.473; -191.121; -300.782
642.340;  -91.624; -486.121; -566.783
642.613;  104.879;  294.880;  323.217
642.885; -207.018; -787.120; -878.783
643.157;  -93.715; -810.120; -658.784
643.428;  140.888;  170.880;  218.216
643.700;  -86.909; -498.120; -425.784
643.972;   -3.406;  -16.119; -133.785
644.244; -145.603; -474.119; -559.785
644.516;  -49.700; -250.119; -114.786
644.788;  181.602;  662.881;  548.214
645.060;    2.505;  -12.119; -124.786
645.332; -135.892; -525.118; -535.787
645.603;  123.611;  479.882;  342.213
645.875; -112.786; -334.118; -369.787
646.147;  370.617; 1487.882; 1242.212
646.418; -150.680; -931.117; -918.788
646.690;  161.323; -714.117; -715.789
646.962;   34.626; -413.117; -451.789
647.233;   33.429;   15.883;   11.211
647.505; -153.368; -595.117; -475.790
647.776;   94.235;  328.884;  229.210
648.048;  -14.162; -248.116; -418.790
648.320; -116.259; -752.116; -679.791
648.591; -267.756;-1055.116; -958.791
648.862; -102.753; -505.116; -577.792
649.134;  100.250;  115.885;  198.208
649.405;  -94.847; -661.115; -618.792
649.677;  -85.944; -475.115; -598.793
649.948;   13.259; -181.115; -296.793
650.219;   24.062;  -37.115; -147.793
650.491; -128.235; -431.114; -520.794
650.762; -171.032; -705.114; -731.794
651.033; -144.129; -437.114; -424.795
651.304; -180.226; -743.114; -728.795
651.576;  -92.823; -680.114; -645.795
651.847;  -54.720; -250.113; -140.796
652.118;    7.083;  -32.113; -189.796
652.389; -156.114; -639.113; -722.796
652.660;  -29.711; -147.113;  -89.797
652.931; -265.808; -897.112; -871.797
653.202; -131.905; -382.112; -541.798
653.473;  -97.502; -633.112; -533.798
653.744;  214.801; -595.112; -590.798
654.015;  214.804; -356.112; -303.799
654.286; -111.693; -642.111; -663.799
654.557; -103.790; -586.111; -521.799
654.828; -261.788;-1114.111;-1088.800
655.099; -123.685; -404.111; -291.800
655.370; -140.082; -427.111; -543.801
655.641; -197.379; -656.110; -714.801
655.911; -171.976; -618.110; -638.801
656.182;  119.727;  437.890;  387.198
656.453;  252.330;  830.890;  746.198
656.724;  -84.867; -466.110; -426.802
656.994; -134.964; -553.109; -568.803
657.265; -165.161; -862.109; -873.803
657.536; -134.558; -500.109; -377.804
657.806; -175.555; -561.109; -593.804
658.077; -207.452; -866.109; -950.804
658.347; -154.649; -523.108; -598.805
658.618; -187.746; -646.108; -694.805
658.888;   -3.843;  -41.108;  112.195
659.159; -126.540; -432.108; -548.806
659.429;   -5.337; -292.108; -349.806
659.700;   36.666; -435.107; -390.807
659.970;  -36.631; -370.107; -359.807
660.241;   14.672; -754.107; -921.807
660.511;  748.475; -147.107; -174.808
660.781;  129.278; -793.106; -748.808
661.052;  -59.519; -222.106; -381.808
661.322;   -2.416;   21.894;   -9.809
661.592;   92.087;  257.894;  148.191
661.862; -119.410; -369.106; -382.810
662.133; -165.307; -551.105; -502.810
662.403; -205.204; -770.105; -676.810
662.673;  -75.401; -256.105; -213.811
662.943; -171.598; -612.105; -551.811
663.213;   25.405;  -85.105;  -81.811
663.483; -135.592; -593.104; -568.812
663.753;  -64.089; -194.104; -152.812
664.023;   31.614;   68.896;  -32.813
664.293;  -91.383; -319.104; -126.813
664.563; -142.480; -694.104; -648.813
664.833; -203.478; -743.103; -608.814
665.103; -222.375; -730.103; -793.814
665.373; -200.272; -766.103; -806.814
665.643; -179.769; -863.103; -918.815
665.913;   63.434; -534.103; -714.815
666.182;  195.137; -685.102; -719.816
666.452;  426.340;  -22.102;  -89.816
666.722;  -67.957; -724.102; -784.816
666.992; -222.054; -948.102; -921.817
667.261; -189.351; -824.102; -808.817
667.531;  424.752;  134.899;   45.183
667.801;  907.055; -440.101; -412.818
668.070;  473.658;  714.899;  697.182
668.340; -160.339; -883.101; -840.819
668.609;  192.364;  588.900;  301.181
668.879; -111.933; -490.100; -558.819
669.149; -122.430; -539.100; -516.820
669.418; -162.827; -698.100; -726.820
669.688;  -64.724; -482.100; -666.820
669.957;   84.179; -423.099; -546.821
670.226;  -16.818; -268.099; -331.821
670.496; -137.415; -431.099; -635.822
670.765;  -92.712; -418.099; -501.822
671.034; -238.409; -872.099; -828.822
671.304;   28.994;   55.902; -111.823
671.573; -250.303;-1085.098; -957.823
671.842;  129.000; -380.098; -294.823
672.112;   10.003; -692.098; -586.824
672.381;   24.706; -239.098; -214.824
672.650; -250.191;-1005.097;-1021.825
672.919; -119.788; -631.097; -507.825
673.188; -177.885; -681.097; -878.825
673.457; -295.482;-1101.097;-1143.826
673.726; -159.879; -579.096; -646.826
673.995;  -50.376; -533.096; -479.826
674.265;  -12.873; -263.096; -333.827
674.534;   32.330; -183.096; -235.827
674.802;  -33.368; -618.096; -703.828
675.071; 1608.135; -886.095; -801.828
675.340; 5646.438; -464.095; -339.828
675.609; 1985.441;  103.905;   82.171
675.878;  115.044; -949.095; -893.829
676.147;   77.047;  -26.095;   -8.829
676.416;  189.750; -210.094; -294.830
676.685; 1209.953; 1000.906; -622.830
676.953;  158.456; -603.094; -452.831
677.222;  -32.741; -193.094; -273.831
677.491;   11.262;  -24.094; -127.831
677.759;   38.065;   11.907;  172.168
678.028;   -6.732; -279.093; -222.832
678.297;   27.871;   71.907;  197.168
678.565; -249.526; -898.093; -944.833
678.834;  -93.723; -311.093; -268.833
679.102; -117.520; -411.092; -391.834
679.371; -249.617; -898.092; -727.834
679.639; -235.014; -797.092; -786.834
679.908; -214.611; -794.092; -724.835
680.176; -240.908; -895.091; -941.835
680.445; -124.305; -346.091; -352.835
680.713;   33.898;  -58.091;  -23.836
680.982; -127.899; -523.091; -525.836
681.250; -161.396; -578.091; -507.837
681.518; -177.293; -534.090; -751.837
681.787;  -33.990; -204.090; -167.837
682.055;  -96.687; -490.090; -422.838
682.323; -293.984; -993.090; -992.838
682.591;   54.619; -216.090; -538.838
682.859;  161.322;    9.911;  -35.839
683.128;   78.025;  232.911;  497.161
683.396; -306.772;-1102.089;-1122.840
683.664;  -18.469; -241.089;   21.160
683.932;   25.134;  144.911;  -76.840
684.200; -124.263; -576.088; -320.841
684.468;    1.140;  -73.088; -124.841
684.736;  -14.058; -214.088; -175.841
685.004; -238.855;-1024.088; -982.842
685.272;  -65.552; -880.088; -774.842
685.540; -146.349; -499.087; -557.843
685.808; -133.146; -651.087; -682.843
686.076; -199.343; -894.087; -969.843
686.343;  -97.540; -601.087; -815.844
686.611;   56.063; -195.087; -224.844
686.879;  823.566; -530.086; -553.844
687.147; 4774.069; -483.086; -480.845
687.414; 1376.172;  -12.086; -169.845
687.682;  -13.525; -658.086; -757.846
687.950;  497.878;  259.915;  263.154
688.217;    4.681; -792.085; -760.846
688.485;   18.984; -632.085; -636.847
688.753;  811.187;  -11.085; -102.847
689.020;  155.790; -820.085; -851.847
689.288; -183.407; -853.084; -787.848
689.555;  -13.604; -195.084; -148.848
689.823;  -64.501; -241.084; -345.849
690.090; -139.898; -546.084; -651.849
690.358; -309.195; -877.084; -897.849
690.625;   60.608;  120.917;   45.150
690.892; -119.189; -403.083; -369.850
691.160;   25.714;   72.917;  -35.850
691.427;   67.917;  141.917;  130.149
691.694; -216.080; -855.083; -929.851
691.962; -235.777;-1177.082;-1060.852
692.229;   60.626;  127.918;   56.148
692.496;  151.229;  130.918;  -49.852
692.763;   41.932; -164.082; -201.853
693.031;  -80.365; -739.082; -716.853
693.298;  -38.462; -509.081; -368.853
693.565;  537.541; -155.081; -163.854
693.832; 1778.844;   -5.081;   -9.854
694.099;  237.747; -643.081; -642.855
694.366; -115.250; -882.081; -896.855
694.633;  -92.848; -920.080; -633.855
694.900; 1539.955; 4367.920; -114.856
695.167;  657.858; -214.080; -380.856
695.434;  153.261; -646.080; -623.856
695.701;  372.564;  121.921;  -61.857
695.968;  739.567; -365.079; -361.857
696.234; 1943.670; -415.079; -646.858
696.501;18483.373; -776.079; -614.858
696.768; 9050.776; -554.079; -617.858
697.035;  614.179; -632.078; -667.859
697.302;   93.782; -448.078; -552.859
697.568;   86.585; -458.078; -497.859
697.835;  -39.612; -683.078; -624.860
698.102;    7.791; -498.078; -407.860
698.368;  206.594;  384.923;  396.139
698.635;   -8.203;  -47.077; -424.861
698.901;   15.900; -240.077; -348.861
699.168;  110.203; -534.077; -456.862
699.435;  155.306;  -72.077;  -13.862
699.701; -228.091; -868.076; -764.862
699.968;  -58.888;  144.924; -441.863
700.234; -145.485; -783.076; -822.863
700.500;  -69.582; -448.076; -539.864
700.767;   44.721;   -1.075;   26.136
701.033; -207.576;-1015.075; -963.864
701.299;  -87.173; -450.075; -483.865
701.566;  284.330;  950.925;  763.135
701.832;   87.833;  -31.075;  -76.865
702.098; -185.664;-1054.074;-1034.866
702.365; -114.261;-1098.074;-1030.866
702.631;  -34.458;-1038.074;-1063.867
702.897; 2383.845; -765.074; -676.867
703.163; 3470.348;  348.926;  254.133
703.429;  285.151; -256.073; -273.868
703.695;  -68.246; -796.073; -792.868
703.961;   78.757; -214.073; -210.868
704.227;  -50.640; -630.073; -725.869
704.493;  317.362;  613.927;  510.131
704.759;   22.865; -565.072; -540.870
705.025;  108.968; -203.072; -194.870
705.291;   11.271; -666.072; -562.870
705.557;  437.174;  719.928;   34.129
705.823;  103.477; -742.072; -694.871
706.089;  357.780; -307.071; -326.871
706.355;  834.083; -315.071; -244.872
706.620;11357.586; -776.071; -729.872
706.886;13957.889; -309.071; -362.873
707.152; 1297.792; -818.070; -973.873
707.418;   -8.605;-1153.070;-1186.873
707.683;   61.598; -550.070; -530.874
707.949;  -14.299; -547.070; -578.874
708.215;   55.204; -129.070; -207.874
708.480;  -18.693; -520.069; -420.875
708.746;  210.110;   68.931;   28.125
709.011;  -53.387; -578.069; -612.876
709.277;  -98.384; -538.069; -543.876
709.542;  -53.681; -428.069; -387.876
709.808;   71.422;  -59.068;   89.123
710.073; -135.775; -577.068; -695.877
710.339;  -13.972; -242.068; -228.877
710.604;  137.731; -780.068; -845.878
710.869;  610.434; -277.068; -366.878
711.135; -114.263; -715.067; -628.879
711.400; -129.460; -507.067; -608.879
711.665;  -85.857; -404.067; -479.879
711.931; -126.454; -661.067; -677.880
712.196; -195.251; -876.067; -954.880
712.461;  191.552; -402.066; -490.880
712.726;  201.755; -727.066; -771.881
712.991; -125.042; -647.066; -664.881
713.256;  -40.539; -350.066; -332.882
713.521;  -66.636; -417.065; -381.882
713.787;  -53.433; -454.065; -472.882
714.052;  -29.931; -214.065; -400.883
714.317; -127.828;-1045.065; -981.883
714.581; 2123.075; -374.065; -268.883
714.846; 2538.478; -822.064; -888.884
715.111;  308.581;  261.936;  257.116
715.376;   10.484;  -86.064; -223.885
715.641;   25.687; -365.064; -367.885
715.906;  477.690;   15.936; -551.885
716.171;  298.393;  221.937;  209.114
716.436;  124.796;  -78.063; -104.886
716.700; -148.701; -818.063; -692.886
716.965; -193.398; -794.063; -807.887
717.230;  -78.695; -339.063; -392.887
717.494;   27.608;  -40.062; -134.888
717.759; -170.089; -784.062; -640.888
718.024;   63.914;  269.938;  250.112
718.288;  188.917;  685.938;  395.111
718.553; -239.080; -803.062; -977.889
718.817; -232.077; -883.061; -899.889
719.082;  -17.774; -115.061; -125.890
719.346; -225.071;-1000.061; -947.890
719.611;  -75.068; -300.061; -255.891
719.875; -144.465; -568.060; -537.891
720.140; -115.462; -453.060; -603.891
720.404;   96.041; -136.060; -249.892
720.668; 1266.544; -475.060; -411.892
720.933;  532.947;  146.940;  137.108
721.197; -150.650; -667.059; -600.893
721.461; -245.247; -851.059; -826.893
721.725;   40.456;  -21.059; -250.894
721.990;  -63.141; -284.059; -204.894
722.254;  -25.138;  -26.059; -108.894
722.518;  -71.435; -286.058; -442.895
722.782; -134.632; -743.058; -594.895
723.046;  256.471;  614.942;  570.105
723.310;  106.674;  374.942;  210.104
723.574; -168.923; -654.058; -614.896
723.838; -165.821; -576.057; -642.897
724.102;  -37.118; -226.057; -239.897
724.366; -250.415;-1032.057; -978.897
724.630; -135.812; -749.057; -571.898
724.894; -139.709; -722.057; -514.898
725.158;    3.394;   38.944; -295.898
725.422;  -51.803; -394.056; -327.899
725.685;  -47.900; -441.056; -349.899
725.949; -101.597; -566.056; -519.900
726.213; -116.094; -732.056; -811.900
726.477;  214.009;-1020.055; -933.900
726.740;  270.812; -274.055; -104.901
727.004;  687.715; -384.055; -510.901
727.268; 6185.218; -442.055; -400.901
727.531; 1583.721; -961.055; -775.902
727.795;  -26.876; -713.054; -673.902
728.059;  -51.273; -552.054; -557.903
728.322; -113.070; -841.054; -669.903
728.586;   16.933; -692.054; -701.903
728.849; -123.364; -695.053; -756.904
729.112; -185.461; -812.053; -912.904
729.376; -199.858; -959.053; -905.904
729.639; -103.055; -536.053; -536.905
729.903; -163.352; -733.053; -699.905
730.166;  -31.449; -437.052; -399.906
730.429;  -21.746; -317.052; -468.906
730.693;  -83.743; -355.052; -894.906
730.956;  468.660;  810.948;  651.093
731.219; 1106.863; -310.052; -103.907
731.482;  168.466;-1003.051; -894.907
731.745;   62.069; -794.051; -935.908
732.009;   95.172;  -30.051;   50.092
732.272; -140.225; -904.051; -771.909
732.535;   -6.722; -300.051; -310.909
732.798; -274.519;-1083.050;-1166.909
733.061;  -50.916; -430.050; -456.910
733.324;   64.387;   31.950; -180.910
733.587;  173.889;  290.950;  365.090
733.850;  -83.808; -973.049;-1050.911
734.113;  116.695;   33.951;   32.089
734.376;   14.098; -328.049; -447.912
734.639;  486.001; 1188.951; 1011.088
734.901;  140.504; -180.049; -402.912
735.164;  902.307; -883.048; -837.913
735.427; 1940.410; -166.048; -355.913
735.690;  250.613; -205.048; -234.913
735.952;  -65.884; -923.048; -925.914
736.215;  -24.381;-1113.048;-1009.914
736.478;   90.922; -771.047; -774.915
736.740;  383.625;   33.953;  129.085
737.003; 1256.328; -658.047; -672.915
737.266; 6019.131;  -94.047;   46.084
737.528;  723.334; -682.047; -660.916
737.791;  574.037; -316.046; -327.916
738.053; 1616.040;  465.954;  649.083
738.316;19780.943; -162.046; -136.917
738.578;12402.446; -770.046; -736.918
738.841;  814.049; -382.046; -446.918
739.103;  356.852; -875.045; -777.918
739.365;  869.555;   79.955;  -69.919
739.628;   29.858; -884.045; -805.919
739.890;   -2.739; -758.045; -710.919
740.152;  -41.036; -692.044; -754.920
740.414;    6.567; -408.044; -359.920
740.677;  -37.230; -785.044; -634.921
740.939;  -55.827; -587.044; -487.921
741.201;  438.176; -432.044; -572.921
741.463;   63.879; -689.043; -745.922
741.725;   74.782;  -21.043; -199.922
741.987;  167.385;  220.957;  116.078
742.249;   12.688; -751.043; -859.923
742.511;  378.091; -703.043; -794.923
742.773;    7.694; -546.042; -546.924
743.035;  294.197;  796.958;  533.076
743.297;  -24.701; -963.042;-1013.924
743.559; 1273.902; -278.042; -262.925
743.821;   73.905; -735.042; -744.925
744.083;   50.608;  -44.041; -149.925
744.345; -124.389; -869.041; -892.926
744.607;  139.014;   75.959;  122.074
744.868;  -61.483; -490.041; -554.927
745.130; -180.680; -994.041;-1008.927
745.392;  123.623;   -1.040;  -44.927
745.653;   20.026; -411.040; -378.928
745.915;  375.229;  896.960;  631.072
746.177;  186.132;   35.960;  -43.928
746.438;   23.335; -428.040; -543.929
746.700;  -86.162; -947.039; -988.929
746.961;   54.841; -659.039; -740.930
747.223;  314.544; -190.039;  -74.930
747.484;  183.647; -391.039; -471.930
747.746;  302.050;  -23.038; -106.931
748.007;  191.653; -647.038; -689.931
748.269;  532.156; -468.038; -440.931
748.530;  763.159; -852.038; -638.932
748.791;  447.962; -354.038; -420.932
749.053;  812.865;  286.963;  163.067
749.314;  820.068; -236.037; -169.933
749.575;  899.771; -945.037; -905.933
749.836; 1460.574; -217.037;   86.066
750.098; 4777.177;  -60.037;  -21.934
750.359;58112.580;  414.964;  555.066
750.620;13849.383; -121.036; -220.935
750.881; 1815.786; -585.036; -513.935
751.142; 2437.689; -950.036; -938.936
751.403;29629.192; -789.036; -705.936
751.664;11658.795;-1034.035; -999.936
751.925;  885.998; -175.035; -262.937
752.186;  549.001; -298.035; -278.937
752.447;  315.104; -590.035; -445.937
752.708;  116.807; -532.035; -648.938
752.969;   65.709; -566.034; -576.938
753.230;   42.712; -777.034; -672.939
753.491;   38.715; -650.034; -631.939
753.751;  179.218;  109.966;   19.061
754.012;  235.621;  258.967;  181.060
754.273;  129.424; -174.033;  -71.940
754.534;   32.227; -487.033; -580.940
754.794; -132.370; -926.033; -911.941
755.055;  390.833; 1051.967;  881.059
755.316;  -26.464; -700.032; -566.942
755.576;   -1.561; -606.032; -576.942
755.837;  -64.558; -527.032; -695.942
756.097;  -48.655; -530.032; -564.943
756.358;  -95.452; -725.032; -770.943
756.618;  -34.449; -705.031; -641.943
756.879;   32.654; -254.031; -349.944
757.139; -194.043;-1098.031;-1116.944
757.400;  -75.840; -538.031; -553.945
757.660;    5.863; -365.031; -401.945
757.920;   49.166; -266.030; -228.945
758.181;   -7.531; -468.030; -351.946
758.441; -142.228; -870.030; -809.946
758.701;  -10.725; -308.030; -215.946
758.961;   12.178; -220.030; -278.947
759.222;  -62.519; -574.029; -502.947
759.482; -108.916; -683.029; -723.948
759.742; -124.513; -706.029; -547.948
760.002;   79.890;  -83.029; -143.948
760.262;  104.793;   50.972;  182.051
760.522;  -50.204; -498.028; -574.949
760.782;  -47.201; -738.028; -612.949
761.042;  -16.498; -618.028; -573.950
761.302;  145.605;   55.972;  -18.950
761.562;  130.408; -164.027; -154.951
761.822;  193.011; -710.027; -551.951
762.082;  -61.086;-1104.027;-1093.951
762.342;  151.517; -328.027; -403.952
762.601;  173.919; -567.027; -506.952
762.861;  615.822; -281.026; -207.952
763.121;  828.625; -406.026; -411.953
763.381;13979.028; -499.026; -485.953
763.640;13134.631; -139.026; -307.954
763.900;  642.334; -242.026; -203.954
764.160;  205.937; -458.025; -491.954
764.419;  -18.660; -726.025; -782.955
764.679;  -99.257; -795.025; -726.955
764.939;   66.946; -124.025; -210.955
765.198;  -86.951; -608.025; -563.956
765.458;  -95.248; -710.024; -612.956
765.717; -106.345; -454.024; -590.957
765.976;  -78.442; -428.024; -411.957
766.236;  -96.839; -475.024; -610.957
766.495;  124.764;  260.977;   73.042
766.755; -173.833;-1090.023; -987.958
767.014;   31.870; -594.023; -665.958
767.273;  -57.327; -373.023; -397.959
767.533;  -38.624; -228.023; -307.959
767.792;    6.979; -151.022; -188.960
768.051;  -30.218; -228.022; -276.960
768.310; -105.015; -546.022; -650.960
768.569;   44.988; -161.022;    4.039
768.828;    7.791; -285.022; -363.961
769.088; -166.006;-1050.021; -942.961
769.347; -101.103; -755.021; -599.962
769.606; -121.800; -876.021; -857.962
769.865; -190.797;-1016.021;-1033.963
770.124;   69.806; -411.021; -336.963
770.383;  -72.691; -778.020; -910.963
770.641;   39.912; -398.020; -400.964
770.900;  -78.185; -953.020; -846.964
771.159;  -30.882; -851.020; -951.964
771.418;   56.621; -917.020; -779.965
771.677;  285.424; -224.019; -293.965
771.936;  312.326; -794.019; -865.966
772.194; 5222.029; -465.019; -437.966
772.453;19734.732; -213.019; -391.966
772.712; 1465.635;  416.982;  329.033
772.970;  316.838;   32.982;   63.033
773.229;  218.941;  -22.018;  102.033
773.488; -102.956; -814.018; -770.968
773.746;  204.647;  296.982;  335.032
774.005;   69.550;  190.983;  -22.969
774.263;   79.753;  243.983;  177.031
774.522; -168.044; -422.017; -548.969
774.780;  -80.641; -484.017; -417.970
775.039; -102.338; -551.017; -531.970
775.297;   -1.235; -135.016; -351.970
775.555; -161.032; -489.016; -612.971
775.814; -176.129; -618.016; -570.971
776.072; -174.126; -749.016; -740.971
776.330; -146.923; -630.016; -520.972
776.589; -157.420; -703.015; -721.972
776.847; -189.617; -645.015; -624.973
777.105; -256.914;-1016.015;-1032.973
777.363; -124.411; -459.015; -454.973
777.621; -236.208; -660.015; -717.974
777.879;   17.195;  -42.014;   32.026
778.138; -135.702; -554.014; -717.974
778.396; -145.499; -585.014; -526.975
778.654; -298.396;-1015.014; -970.975
778.912;  -35.393; -269.014; -371.976
779.170; -201.790; -880.013; -803.976
779.427; -248.387; -922.013; -897.976
779.685; -220.584; -880.013; -832.977
779.943; -120.881; -654.013; -593.977
780.201; -241.078; -964.012; -883.978
780.459; -167.175; -651.012; -610.978
780.717;  -96.072; -440.012; -390.978
780.974; -126.569; -449.012; -490.979
781.232;  -82.566; -358.012; -338.979
781.490; -116.764; -551.011; -472.979
781.747; -123.861; -555.011; -476.980
782.005;  117.542;  462.989;  254.020
782.263; -272.855; -542.011;-1004.981
782.520;  -92.652; -326.011; -501.981
782.778; -279.149;-1013.010;-1051.981
783.035; -264.346; -962.010; -938.982
783.293;  -63.743; -248.010; -206.982
783.550;  -11.240; -134.010; -198.982
783.808; -199.037; -764.010; -776.983
784.065; -263.634; -745.009; -874.983
784.322;  -14.531;   25.991;  -86.984
784.580; -197.628; -915.009; -771.984
784.837; -130.425; -392.009; -466.984
785.094; -184.722; -783.009; -762.985
785.352; -119.319; -304.008; -404.985
785.609; -181.416; -934.008; -839.985
785.866;  -99.213; -345.008; -401.986
786.123; -152.510; -639.008; -583.986
786.380; -133.907; -665.008; -604.987
786.637;  -37.404; -225.007; -380.987
786.895;  -36.901; -456.007; -543.987
787.152;  -45.598; -135.007; -267.988
787.409;  -24.395; -123.007; -225.988
787.666; -121.192; -299.006; -378.988
787.923; -178.589; -616.006; -695.989
788.179; -133.886; -551.006; -584.989
788.436; -157.583; -585.006; -585.990
788.693;   10.820;  -92.006;  -87.990
788.950;  274.623; -125.005; -112.990
789.207;  313.426; -381.005; -372.991
789.464;  -22.571; -161.005; -301.991
789.720;   71.832;  150.995;  110.009
789.977; -295.565;-1003.005; -671.992
790.234;   15.738;   44.996;  -66.992
790.490; -254.059; -884.004;-1031.993
790.747;   19.344;  -85.004;   22.007
791.004;   -3.754; -426.004; -348.993
791.260; -117.851; -430.004; -560.994
791.517; -152.948; -843.003; -788.994
791.773;  -51.845; -379.003; -342.994
792.030; -147.742; -596.003; -660.995
792.286; -146.239; -686.003; -636.995
792.543;   35.964;  -74.002; -159.995
792.799;  -65.933; -584.002; -382.996
793.055; -292.430;-1179.002;-1210.996
793.312; -145.527; -827.002; -816.997
793.568;  -86.024; -746.002; -599.997
793.824;   84.479; -226.001; -284.997
794.081;   60.582; -447.001; -508.998
794.337;  143.385; -664.001; -561.998
794.593; 2856.488; -319.001; -271.999
794.849;10910.791; -746.001; -772.999
795.105;  596.394; -270.000; -261.999
795.361;   59.397; -490.000; -457.000
795.617; -116.200; -875.000; -945.000
795.873;  -50.500; -360.000; -407.000
796.129;  -44.900; -368.000; -306.000
796.385;    2.500; -124.000; -156.000
796.641;  200.700;  412.000;  550.000
796.897; -125.400; -666.000; -635.000
797.153;  186.300;  453.000;  357.000
797.409; -163.900; -785.000; -868.000
797.665;  -98.900; -625.000; -732.000
797.921; -118.500; -775.000; -762.000
798.176;  -49.600; -744.000; -747.000
798.432;  -79.800; -824.000; -596.000
798.688; -102.600;-1174.000;-1078.000
798.943;  199.100; -165.000; -147.000
799.199;   56.500;-1005.000; -959.000
799.455;  517.700;  369.000;  316.000
799.710;  278.100; -813.000; -380.000
799.966;  574.800; -162.000; -160.000
800.221;  931.200; -638.000; -721.000
800.477;20288.800; -743.000; -710.000
800.732;14594.200; -773.000; -800.000
800.988; 1239.700;  205.000;  -19.000
801.243; 4471.600; -454.000; -344.000
801.498;15444.300; -814.000; -739.000
801.754;  940.300; -289.000; -163.000
802.009;  259.900; -257.000; -335.000
802.264;  -24.200; -967.000;-1033.000
802.520;  128.300;  222.000;   -3.000
802.775;  -29.400; -524.000; -359.000
803.030;  179.600;  395.000;  356.000
803.285; -169.300; -840.000; -903.000
803.540;  -74.000; -686.000; -699.000
803.795;  -64.900; -648.000; -583.000
804.051;   11.900; -279.000; -346.000
804.306;  101.300;  168.000;  128.000
804.561;  308.100;  451.000;  362.000
804.816;  367.900;  714.000;  861.000
805.071;   59.900; -185.000; -280.000
805.325;  397.200; -257.000; -427.000
805.580; -158.100; -841.000; -877.000
805.835;   41.100; -204.000; -297.000
806.090; -102.300; -760.000; -676.000
806.345;   32.800; -344.000; -264.000
806.600;   -5.900; -549.000; -632.000
806.854;   -5.600; -408.000; -538.000
807.109;   33.700; -493.000; -577.000
807.364;   56.000; -407.000; -328.000
807.618;   63.900; -415.000; -381.000
807.873;  115.100; -470.000; -494.000
808.128;  169.400; -257.000; -518.000
808.382;  234.900; -224.000; -332.000
808.637;  155.200; -440.000; -511.000
808.891;  362.200; -257.000; -180.000
809.146;  191.600; -902.000; -794.000
809.400;  465.300; -848.000; -923.000
809.654;  606.000; -779.000; -551.000
809.909;  863.700; -841.000; -927.000
810.163;12470.800; -813.000; -651.000
810.418;26096.000; -940.000; -861.000
810.672; 1731.600; -685.000; -690.000
810.926; 1293.700; -993.000; -973.000
811.180; 2821.600; -439.000; -372.000
811.434;58191.000;  240.000;  135.000
811.689;19156.900; -231.000; -365.000
811.943; 1056.700; -936.000; -953.000
812.197;  570.400; -893.000; -671.000
812.451;  280.900; -379.000; -514.000
812.705;   -9.900; -809.000; -619.000
812.959;   81.700; -263.000; -388.000
813.213;   60.700; -283.000; -209.000
813.467;  207.600;  470.000;  253.000
813.721; -140.400; -764.000; -792.000
813.975; -198.800; -826.000; -877.000
814.229;  180.100;  430.000;  353.000
814.482;  -64.400; -517.000; -566.000
814.736; -185.900; -766.000; -744.000
814.990; -194.900; -779.000; -872.000
815.244;  -24.200; -228.000; -285.000
815.497; -102.300; -636.000; -601.000
815.751;   16.900; -141.000;   82.000
816.005; -112.400; -470.000; -586.000
816.258;  -54.700; -510.000; -363.000
816.512; -131.900; -693.000; -610.000
816.766;   89.800;  121.000;  157.000
817.019;  102.800;  148.000;  149.000
817.273; -174.400;-1000.000; -802.000
817.526;    0.700; -206.000; -173.000
817.779;  -92.800;-1049.000; -960.000
818.033; -118.000; -693.000; -807.000
818.286; -171.200; -725.000; -792.000
818.540; -131.100; -403.000; -403.000
818.793;  -77.600; -402.000; -489.000
819.046; -136.900; -582.000; -520.000
819.299;  -11.300; -157.000; -166.000
819.553; -160.100; -552.000; -592.000
819.806; -260.900;-1016.000; -838.000
820.059;  -50.800; -334.000; -354.000
820.312;  110.100;  152.000;  185.000
820.565;   44.600;  110.000;  -27.000
820.818;  -20.400;  -59.000; -173.000
821.071; -266.800;-1041.000; -957.000
821.324; -139.400; -536.000; -540.000
821.577; -111.200; -457.000; -483.000
821.830;  -71.800; -270.000; -172.000
822.083; -198.600; -733.000; -288.000
822.336;  -33.200; -261.000; -167.000
822.589; -194.500; -805.000; -688.000
822.842; -232.100; -875.000; -770.000
823.094; -304.900;-1076.000;-1114.000
823.347; -209.000; -925.000; -729.000
823.600;  100.000;  402.000;  187.000
823.853;  -36.900; -311.000; -267.000
824.105; -127.900; -331.000; -575.000
824.358; -150.200; -617.000; -716.000
824.611;  129.300;  234.000;   40.000
824.863;  -64.200; -612.000; -591.000
825.116;  144.500;  -33.000;   27.000
825.368;  144.000; -366.000; -372.000
825.621;  283.700; -186.000; -240.000
825.873;  156.200; -704.000; -737.000
826.126; 1203.700; -669.000; -641.000
826.378;21313.200; -389.000; -505.000
826.630; 4039.700; -890.000; -898.000
826.883;  130.200; -754.000; -693.000
827.135;  154.000; -279.000; -270.000
827.387; -161.000; -893.000; -839.000
827.639;    8.800;  -86.000;   32.000
827.892; -192.800; -742.000; -582.000
828.144; -215.900; -848.000; -804.000
828.396;   28.100;  104.000;  -80.000
828.648; -126.300; -440.000; -333.000
828.900; -235.900; -702.000; -795.000
829.152; -170.100; -684.000; -683.000
829.404;  -55.200; -215.000; -267.000
829.656;   68.500;  321.000;  214.000
829.908;   56.000;  393.000;  229.000
830.160; -286.800;-1064.000;-1047.000
830.412; -126.500; -481.000; -430.000
830.664; -177.100; -557.000; -665.000
830.916;  -94.700; -268.000; -206.000
831.167; -295.700;-1073.000; -951.000
831.419; -166.500; -623.000; -566.000
831.671; -207.900; -764.000; -809.000
831.923;  -82.500; -311.000; -447.000
832.174;  -94.900; -273.000; -331.000
832.426; -168.500; -493.000; -582.000
832.678; -309.000;-1043.000;-1091.000
832.929; -238.700; -947.000; -935.000
833.181; -103.600; -575.000; -677.000
833.432;  -29.400;  -59.000; -186.000
833.684;   42.900;  112.000;  -27.000
833.935; -162.500; -610.000; -566.000
834.187; -225.100; -829.000; -823.000
834.438;   -0.800;  -58.000;  -25.000
834.689;  -43.600; -255.000; -123.000
834.941;  -43.300; -343.000; -244.000
835.192; -149.800; -590.000; -533.000
835.443;  -91.100; -419.000; -506.000
835.695;   43.400;  138.000;  -16.000
835.946; -125.600; -608.000; -378.000
836.197; -150.700; -599.000; -622.000
836.448; -117.500; -528.000; -395.000
836.699;  -33.400; -253.000; -341.000
836.950;   60.200;   72.000;    7.000
837.201; -258.600;-1003.000; -987.000
837.452;    0.000; -356.000; -170.000
837.703; -151.600; -791.000; -737.000
837.954;  -25.800; -205.000; -365.000
838.205; -133.900;-1029.000;-1008.000
838.456;  324.400; -196.000; -282.000
838.707;   28.500; -423.000; -519.000
838.958;   39.400; -634.000; -647.000
839.209;  531.800;   18.000;   40.000
839.460;  225.300; -439.000; -201.000
839.710;  342.700; -135.000; -297.000
839.961;  822.500;  730.000;  612.000
840.212;  626.900; -382.000; -497.000
840.462; 2268.000; -328.000; -277.000
840.713;33592.000; -571.000; -536.000
840.964;10671.900;  -62.000; -143.000
841.214;  833.300; -384.000; -624.000
841.465;  961.400; -214.000; -141.000
841.715;  820.200; -417.000; -380.000
841.966; 1085.300; -746.000; -685.000
842.216;16935.600; -330.000; -431.000
842.466;50236.700; -169.000; -313.000
842.717; 2116.300; -964.000; -952.000
842.967;  557.000; -635.000; -641.000
843.217;  476.400;   20.000;   28.000
843.468;  123.400; -104.000; -132.000
843.718;   -4.700; -718.000; -726.000
843.968; -150.800; -837.000; -765.000
844.218;   74.300; -315.000; -262.000
844.469;  -45.500; -577.000; -561.000
844.719; -130.000; -537.000; -682.000
844.969; -128.800; -550.000; -580.000
845.219; -258.500; -814.000; -862.000
845.469;  -82.700; -392.000; -342.000
845.719; -216.400; -792.000; -884.000
845.969;   43.500;  119.000;  174.000
846.219; -195.700; -738.000; -720.000
846.469;  137.600;  464.000;  432.000
846.718;  -46.500; -115.000;   31.000
846.968; -198.200; -827.000; -827.000
847.218;  -25.500; -224.000; -371.000
847.468; -156.400; -586.000; -555.000
847.718; -240.000; -827.000; -798.000
847.967; -204.100; -826.000; -915.000
848.217; -109.200; -449.000; -569.000
848.467;  -59.000; -405.000; -376.000
848.716; -143.100; -708.000; -725.000
848.966;   29.700; -372.000; -358.000
849.215;  -65.500; -428.000; -419.000
849.465; -149.000; -785.000; -615.000
849.714; -233.100;-1132.000;-1150.000
849.964; -109.400; -551.000; -613.000
850.213;   -4.400; -393.000; -355.000
850.463;  251.500;  137.000;  340.000
850.712;   41.600; -542.000; -567.000
850.961;   78.100; -739.000; -678.000
851.211;  224.600; -513.000; -504.000
851.460;  361.000; -635.000; -650.000
851.709; 1128.800;  -25.000;   18.000
851.958;20959.600; -912.000; -750.000
852.208;20161.200; -859.000; -879.000
852.457;  862.300; -181.000;  -13.000
852.706;  180.900; -791.000; -823.000
852.955;   63.700; -507.000; -528.000
853.204;  -89.000; -521.000; -461.000
853.453;  -75.000; -418.000; -458.000
853.702; -168.400; -660.000; -750.000
853.951; -159.200; -532.000; -520.000
854.200; -170.400; -613.000; -562.000
854.449; -216.300; -695.000; -661.000
854.698; -107.100; -340.000; -279.000
854.946;  -56.500; -181.000; -284.000
855.195; -239.200; -843.000; -868.000
855.444; -125.100; -395.000; -420.000
855.693; -192.600; -345.000; -432.000
855.941; -142.800; -387.000; -516.000
856.190;  -72.600; -256.000; -382.000
856.439; -188.300; -652.000; -703.000
856.687;  -85.300;  -99.000;  -72.000
856.936; -142.400; -621.000; -323.000
857.184; -311.900;-1067.000;-1020.000
857.433; -123.000; -423.000; -512.000
857.681; -256.600; -989.000; -953.000
857.930; -102.700; -282.000; -433.000
858.178; -267.300; -856.000; -929.000
858.427; -249.300; -802.000; -781.000
858.675; -168.100; -377.000; -544.000
858.923; -158.300; -527.000; -819.000
859.172; -277.700;-1094.000;-1070.000
859.420; -104.800; -339.000; -239.000
859.668; -231.000; -624.000; -628.000
859.916;   -2.300;  109.000;  115.000
860.164; -233.100; -699.000; -603.000
860.413;  479.500; -878.000; -696.000
860.661;  284.300; -709.000; -577.000
860.909; -113.800; -339.000; -325.000
861.157; -117.300; -277.000; -444.000
861.405; -171.600; -534.000; -670.000
861.653;   99.900;  310.000;  310.000
861.901;  295.700; -543.000; -613.000
862.149;  -45.100; -801.000; -824.000
862.396;  -77.200; -297.000; -187.000
862.644; -120.800; -368.000; -347.000
862.892;   11.100;   98.000;  138.000
863.140; -146.200; -549.000; -530.000
863.388; -259.000; -815.000; -759.000
863.635; -172.500; -642.000; -601.000
863.883;   39.900;  231.000;  190.000
864.131; -121.200; -288.000; -357.000
864.378; -198.600; -675.000; -540.000
864.626; -121.800; -347.000; -415.000
864.873; -162.500; -556.000; -505.000
865.121; -216.300; -714.000; -799.000
865.368;  -29.000; -173.000;   75.000
865.616;    1.100;  -33.000;  -40.000
865.863;  -80.300; -462.000; -506.000
866.111; -181.200; -795.000; -824.000
866.358;  161.900; -426.000; -420.000
866.605; 5716.800;  -64.000; -804.000
866.853; 4484.700; -621.000; -537.000
867.100;  -22.100; -728.000; -775.000
867.347; -129.200; -672.000; -611.000
867.594; -110.700; -740.000; -714.000
867.841;  178.100;   97.000;   17.000
868.089; -232.500; -746.000; -698.000
868.336; -135.400; -477.000; -420.000
868.583; -197.800; -637.000; -741.000
868.830;  -65.800; -131.000; -170.000
869.077; -259.400; -859.000; -787.000
869.324; -171.700; -502.000; -458.000
869.571; -191.000; -398.000; -430.000
869.818; -171.700; -485.000; -439.000
870.065; -167.100; -439.000; -513.000
870.311; -138.900; -456.000; -542.000
870.558; -118.100; -332.000; -311.000
870.805; -118.200; -320.000; -384.000
871.052; -146.000; -494.000; -369.000
871.298;  -33.200; -204.000; -131.000
871.545;  -89.200; -151.000; -185.000
871.792; -114.800; -173.000; -222.000
872.038;  -70.700;   43.000; -126.000
872.285; -173.100; -496.000; -387.000
872.532; -142.000; -357.000; -387.000
872.778;  122.600;  556.000;  403.000
873.025; -145.200; -384.000; -359.000
873.271;  122.800;  501.000;  578.000
873.517;   -4.700; -133.000; -209.000
873.764;  -10.500; -193.000;  -80.000
874.010;  -69.700; -143.000; -230.000
874.257;   12.300;  123.000;   90.000
874.503; -168.400; -579.000; -479.000
874.749;  -68.100;   31.000;  275.000
874.995;  -63.600;  -80.000;  -20.000
875.242; -185.300; -540.000; -478.000
875.488; -168.200; -414.000; -439.000
875.734;  -55.100; -106.000; -234.000
875.980;  348.400; -872.000;-1032.000
876.226;  524.900; -157.000; -255.000
876.472;   72.100;  343.000;  237.000
876.718;  -26.500;  184.000;  158.000
876.964;  -29.000;   56.000;   55.000
877.210; -235.800; -547.000; -677.000
877.456; -207.900; -630.000; -557.000
877.702; -284.700; -821.000; -832.000
877.948; -159.800; -377.000; -497.000
878.193;  106.100;  361.000;  255.000
878.439; -131.100; -487.000; -472.000
878.685; -113.200; -272.000; -343.000
878.931; -211.300; -618.000; -676.000
879.176;  -94.500; -201.000; -201.000
879.422; -294.300; -933.000; -820.000
879.668;  241.600;   10.000;   79.000
879.913;  222.500;   53.000;  137.000
880.159;  -46.200; -112.000;  -17.000
880.404;  -39.900; -152.000; -162.000
880.650;  -21.100;   91.000;  141.000
880.895; -225.700; -670.000; -710.000
881.141; -160.900; -454.000; -428.000
881.386; -222.700; -503.000; -658.000
881.631; -143.100; -311.000; -166.000
881.877;    2.800;  112.000;  -13.000
882.122; -195.700; -684.000; -600.000
882.367; -126.100; -136.000; -186.000
882.612;  -54.500;  -80.000; -176.000
882.858; -272.600; -877.000; -823.000
883.103; -114.900; -297.000; -267.000
883.348; -213.600; -759.000; -852.000
883.593; -204.600; -677.000; -602.000
883.838;  -30.000; -311.000;  -24.000
884.083;   93.200;  353.000;  288.000
884.328; -118.000; -564.000; -545.000
884.573;  -32.400; -196.000; -143.000
884.818;  414.300; -694.000; -531.000
885.063;  273.700; -348.000; -315.000
885.308; -154.200; -475.000; -398.000
885.553;   46.500;  245.000;  325.000
885.797; -177.300; -545.000; -615.000
886.042;  -23.600;    8.000;   58.000
886.287; -106.100; -253.000; -211.000
886.532;  -43.200;   26.000;  204.000
886.776; -120.800; -407.000; -525.000
887.021; -209.000; -621.000; -574.000
887.265; -230.500; -685.000; -689.000
887.510; -188.200; -557.000; -496.000
887.755;  -94.600; -194.000; -164.000
887.999; -195.700; -552.000; -575.000
888.244;  -24.900;  -58.000;  161.000
888.488;   79.400;  371.000;  393.000
888.732; -185.900; -368.000; -520.000
888.977; -160.000; -622.000; -567.000
889.221; -257.700; -683.000; -659.000
889.465; -171.000; -422.000; -566.000
889.710;  -85.400;  -56.000; -299.000
889.954;  107.800;  579.000;  467.000
890.198; -213.700; -584.000; -707.000
890.442; -230.700; -716.000; -712.000
890.687; -258.600; -800.000; -753.000
890.931; -104.600; -273.000; -210.000
891.175; -193.000; -502.000; -500.000
891.419;  -95.200; -105.000; -110.000
891.663; -121.000; -239.000; -112.000
891.907; -255.700; -801.000; -545.000
892.151; -300.800; -920.000; -815.000
892.395; -166.100; -274.000; -387.000
892.638;   38.900;  408.000;  291.000
892.882; -291.800; -780.000; -867.000
893.126;   75.800;  758.000;  558.000
893.370; -137.400; -167.000; -168.000
893.614; -206.900; -714.000; -715.000
893.857; -107.200; -183.000; -197.000
894.101; -199.400; -527.000; -631.000
894.345;  -40.700;  300.000;  150.000
894.588;   86.100;  569.000;  380.000
894.832;  -86.100; -178.000;  -84.000
895.075;  -89.400;   15.000;  -92.000
895.319; -179.900; -552.000; -420.000
895.563; -171.700; -413.000; -353.000
895.806; -216.900; -628.000; -741.000
896.049; -102.800; -576.000; -368.000
896.293;  219.500;  527.000;  405.000
896.536;  -98.700; -465.000; -468.000
896.779;  -84.200; -149.000;   -1.000
897.023; -219.400; -751.000; -714.000
897.266;   19.300;  325.000;  269.000
897.509; -301.200; -900.000; -901.000
897.752;  -11.500;  149.000;  171.000
897.996; -315.800; -972.000; -864.000
898.239;   16.400;  168.000;  102.000
898.482; -147.300; -431.000; -453.000
898.725;  -11.500;  101.000;   53.000
898.968; -265.900; -609.000; -744.000
899.211; -151.000; -513.000; -361.000
899.454; -156.600; -633.000; -539.000
899.697;  -55.200;   90.000;  -43.000
899.940; -260.500; -761.000; -757.000
900.182; -138.300; -335.000; -405.000
900.425; -137.700; -150.000; -298.000
900.668;   82.200;  491.000;  350.000
900.911; -137.400; -292.000; -345.000
901.154;    5.100;  141.000;   -3.000
901.396; -234.900; -407.000; -412.000
901.639; -203.000; -430.000; -496.000
901.882; -274.400; -790.000; -809.000
902.124;  -95.600;  -29.000; -143.000
902.367; -170.300; -315.000; -361.000
902.609; -192.400; -476.000; -453.000
902.852;  -97.000; -108.000; -260.000
903.094; -191.300; -458.000; -337.000
903.337;  -28.900;  -26.000;   53.000
903.579; -139.200; -228.000; -441.000
903.821; -246.800; -597.000; -744.000
904.064;  -27.900;   85.000;  127.000
904.306; -111.900; -126.000; -166.000
904.548; -130.500; -152.000; -366.000
904.790; -147.900; -195.000; -340.000
905.033; -168.300; -625.000; -577.000
905.275; -191.700; -513.000; -524.000
905.517;  166.300;  468.000;  256.000
905.759; -107.700; -667.000; -761.000
906.001; -121.100; -322.000; -369.000
906.243;  -39.100; -162.000; -224.000
906.485;  267.200; -265.000; -207.000
906.727;  163.300; -499.000; -542.000
906.969;  -19.000;  -30.000; -135.000
907.211;  250.900; -316.000; -382.000
907.453;  491.500; -188.000; -237.000
907.695;   61.900; -158.000; -385.000
907.936;  181.400;  818.000;  706.000
908.178;  -44.400;   92.000; -135.000
908.420;  -56.800; -111.000; -162.000
908.662; -199.900; -633.000; -682.000
908.903;  -94.200; -208.000; -123.000
909.145;  -61.700; -240.000; -305.000
909.386;   60.400;  315.000;  280.000
909.628;  158.700;  363.000;  397.000
909.870;   67.900;   29.000;  264.000
910.111; -156.200; -809.000; -949.000
910.353;  108.800; -123.000; -161.000
910.594;   53.400; -574.000; -606.000
910.835;  225.200; -265.000; -326.000
911.077;  284.600; -503.000; -604.000
911.318;  600.800; -505.000; -471.000
911.559;  901.600; -577.000; -880.000
911.801; 2812.300; -284.000; -280.000
912.042;23271.600;  -50.000; -159.000
912.283;49847.900;  404.000;  371.000
912.524; 6136.100; -396.000; -457.000
912.765;  976.400; -193.000;   79.000
913.006;  537.700; -307.000; -338.000
913.247;  159.500; -270.000; -290.000
913.488;   34.300;  -43.000;   30.000
913.729;  -57.500; -373.000; -373.000
913.970;  -36.500;  -96.000; -292.000
914.211;  -74.400; -160.000; -198.000
914.452;  -74.100; -118.000;  -11.000
914.693;  103.900;  510.000;  592.000
914.934;   94.700;  510.000;  440.000
915.175;  -58.000;   53.000;  -95.000
915.415;  -88.600; -137.000;   27.000
915.656;  -42.500;  -28.000;  192.000
915.897; -142.900; -252.000;  -82.000
916.137; -102.000;   74.000;   -9.000
916.378; -185.000; -573.000; -517.000
916.619; -109.200; -159.000;  -63.000
916.859;   22.400;  303.000;  330.000
917.100;  345.300; 1655.000; 1070.000
917.340;  198.400;  930.000;  728.000
917.581;  220.300;  965.000;  789.000
917.821;  -16.600; -171.000;  143.000
918.061;   44.400; -199.000;  -72.000
918.302;  -62.400; -152.000; -211.000
918.542;   23.400;  -22.000;    3.000
918.782;  144.500;  369.000;  377.000
919.023;  288.600;  360.000;  427.000
919.263; 2843.000; 8131.000;  202.000
919.503; 1978.100; -137.000;  -54.000
919.743; 1142.000;  390.000;  266.000
919.983;  437.600; -134.000;  -26.000
920.223;  211.300;  135.000;   14.000
920.463;  366.900;  631.000;  554.000
920.703;  334.100;   84.000;   39.000
920.943;  411.000; -110.000;   90.000
921.183;  499.500; -414.000; -405.000
921.423; 1135.000;  307.000;  546.000
921.663; 1534.300; -174.000; -257.000
921.903; 3441.300;  237.000;  173.000
922.143;20503.800;  372.000;  389.000
922.383;64340.000;  158.000;  115.000
922.622;18804.400; -120.000;  -15.000
922.862; 2344.500;  796.000;  785.000
923.102;  989.900;  -51.000;   33.000
923.341;  433.800;   59.000;   74.000
923.581;  255.700;  450.000;  360.000
923.821;  123.400;  301.000;  398.000
924.060;  109.100;  351.000;  193.000
924.300;  -50.800;  -16.000; -128.000
924.539;   68.600;  584.000;  473.000
924.779;  115.800;  812.000;  597.000
925.018;  -15.400;  247.000;  353.000
925.257;   81.000;  595.000;  666.000
925.497;   13.200;  447.000;  412.000
925.736;  -49.900;  -35.000;  102.000
925.975;   78.500;  687.000;  669.000
926.214;  124.700;  907.000;  850.000
926.454;   99.800;  706.000;  757.000
926.693;   -7.700;  419.000;  543.000
926.932;  184.300; 1021.000;  825.000
927.171;  245.200; 1107.000; 1044.000
927.410;  211.600; 1144.000;  967.000
927.649;  143.000;  924.000;  742.000
927.888;   62.300;  590.000;  564.000
928.127;   65.900;  680.000;  678.000
928.366;  154.600;  842.000;  826.000
928.605;  172.200;  831.000;  737.000
928.844;  579.200; 1451.000; 1393.000
929.083; 1273.900;  770.000;  613.000
929.321;  612.700; 1335.000; 1359.000
929.560;  268.500; 1158.000; 1122.000
929.799;   14.200;  574.000;  475.000
930.038;  242.900; 1025.000; 1394.000
930.276;  -24.400;  334.000;  397.000
930.515;   90.200;  827.000;  681.000
930.753;   46.200;  614.000;  589.000
930.992;   55.100;  664.000;  717.000
931.230;   76.900;  847.000;  847.000
931.469;  426.700; 2162.000;  892.000
931.707;  239.300;  840.000;  751.000
931.946;  196.200; 1278.000; 1344.000
932.184;  220.600; 1437.000; 1175.000
932.423;  175.200; 1265.000;  963.000
932.661;  259.500; 1296.000; 1428.000
932.899;  121.300;  987.000;  821.000
933.137;  111.500;  754.000;  564.000
933.376;  398.100; 1664.000; 1335.000
933.614;  401.800; 1759.000; 1196.000
933.852;  192.100; 1357.000; 1171.000
934.090;  355.100; 1722.000; 1747.000
934.328;  303.100; 1252.000; 1457.000
934.566;  270.900; 1431.000; 1110.000
934.804;  394.100; 1263.000; 1309.000
935.042; 1222.300; 1861.000; 1850.000
935.280; 4897.600; 2088.000; 2063.000
935.518; 3779.700; 2113.000; 2007.000
935.756;  825.600; 2481.000; 2316.000
935.994;  415.900; 1808.000; 1751.000
936.231;  782.700; 2890.000; 2950.000
936.469;  467.900; 2367.000; 2378.000
936.707;  439.100; 2220.000; 2167.000
936.945;  527.400; 2825.000; 2882.000
937.182;  497.300; 2679.000; 2741.000
937.420;  705.500; 3602.000; 3031.000
937.657;  917.500; 3365.000; 3478.000
937.895;  728.100; 3331.000; 3488.000
938.133;  726.900; 3540.000; 3528.000
938.370;  776.700; 3896.000; 4191.000
938.607;  915.000; 4488.000; 4205.000
938.845; 1201.500; 5587.000; 5549.000
939.082; 1050.800; 5387.000; 5177.000
939.320; 1168.600; 5799.000; 5728.000
939.557; 1366.900; 6549.000; 6491.000
939.794; 1561.000; 7285.000; 7097.000
940.031; 1918.600; 8421.000; 8368.000
940.269; 2284.000; 9552.000; 9107.000
940.506; 2366.100;10901.000;10507.000

