
Integration time [ms]: 100.000
Averaging Nr. [scans]: 40
Smoothing Nr. [pixels]: 0
Data measured with spectrometer [name]: 2101013U2
Wave   ;Sample   ;Dark     ;Reference
[nm]   ;[counts] ;[counts] ;[counts] 

394.013;   39.563; -450.257; -315.536
394.305;  225.935; -461.258; -419.536
394.596; 1051.733; -676.269; -527.514
394.887; 2583.525; -796.268; -654.518
395.178; 1009.905;  145.736;   11.476
395.470;   71.266; -210.263; -356.526
395.761;  211.064;  305.734;  394.479
396.052;  350.034; -545.284; -306.489
396.343;  330.878; -557.276; -454.503
396.634;  135.672; -200.279; -290.497
396.926;  145.822; -618.268; -565.517
397.217;  137.983;   11.725;  -17.504
397.508;   53.948; -366.273; -154.507
397.799;   48.597; -555.279; -571.497
398.090;    6.767; -973.280; -902.495
398.381;  158.884;   11.708;  -11.473
398.672;   10.761; -585.292; -742.473
398.963;   58.678; -348.279; -373.498
399.254;  128.920;   54.709; -209.475
399.545;  -18.489;-1017.266; -883.520
399.836;   68.392; -407.277; -343.501
400.127;   72.511; -205.295; -209.468
400.418;   70.318; -423.274; -392.506
400.709;   70.904; -359.281; -333.493
401.000;   48.799; -268.291; -309.476
401.290;  123.523;  225.698;  115.545
401.581;   63.717; -166.286; -228.485
401.872;   29.033; -542.298; -486.462
402.163;   53.778; -313.296; -252.467
402.454;   99.070; -123.291; -163.475
402.744;   97.170; -844.297; -813.465
403.035;  521.126; -226.293;  -86.471
403.326;  676.638; -366.292; -384.474
403.617;  422.653;  204.701;  165.539
403.907;  252.590; -593.283; -679.490
404.198; 2335.802; -545.307; -599.446
404.489; 6071.444; -618.283; -588.491
404.779; 2082.176; -618.302; -660.456
405.070;  243.705;  -67.304; -174.451
405.360;  325.803; -259.293; -238.472
405.651;  357.788;  125.699;   98.542
405.942;  207.737;  209.714;  127.516
406.232;  323.202; -432.285; -413.487
406.523;  547.621;  641.706;  758.530
406.813;  115.114; -579.286; -644.484
407.104;  398.108;  261.708;  144.527
407.394;  222.029; -604.299; -591.462
407.685;  144.526;  336.715;  222.513
407.975;   72.468; -400.283; -382.490
408.265;  118.835; -134.289; -190.478
408.556;   75.742; -472.291; -459.475
408.846;  184.797;  474.706;  429.530
409.137;   77.943;   -1.288; -216.480
409.427;   64.301; -193.285; -271.487
409.717;   27.127; -776.273; -692.508
410.007;  152.770;    4.715; -170.486
410.298;   97.439; -360.295; -342.469
410.588;   74.474; -495.285; -510.486
410.878;   39.029; -792.287; -873.482
411.168;  124.211; -481.298; -478.463
411.459;  110.488; -295.283; -242.489
411.749;   48.566; -609.292; -507.474
412.039;   61.466; -755.289; -386.480
412.329;  207.310;   40.722;  132.501
412.619;  213.465;  -62.286; -148.485
412.909;  373.162;  639.711;  594.521
413.199;  367.817; -130.280; -251.495
413.490;  431.003;  521.710;  352.523
413.780;  158.746;-1013.279; -913.496
414.070;  353.254;  -46.276;  235.497
414.360;  387.232; -729.278; -666.498
414.650;  430.975; -726.288; -688.482
414.940;  526.520; -538.280; -441.496
415.230;  919.422;   50.712;   74.519
415.520; 5901.132;  155.730;   66.486
415.809;23341.403; -305.281; -125.493
416.099;18042.320; -388.277; -229.501
416.389; 4934.366;  435.726;  236.494
416.679; 2873.770;   91.738;   85.473
416.969;  508.208; -527.287; -503.483
417.259;  463.973;  341.721;  171.503
417.549;  701.252;  522.718;  318.508
417.838; 1610.449; -205.268; -147.518
418.128; 5246.958;  650.710;  492.522
418.418; 4369.683; -491.272; -579.509
418.708; 2978.891;    9.726;  -48.506
418.997;11085.137; -474.275; -480.505
419.287;11524.073; -733.273; -790.507
419.577;10773.987; -160.283; -123.489
419.866;35929.518; -588.277; -498.501
420.156;37163.078; -242.270;  -55.513
420.446; 6805.212; -112.263;  -26.526
420.735;  923.597; -376.271; -446.512
421.025;  854.031; 1830.722;  315.502
421.314;  757.321; -203.271; -226.512
421.604; 1692.942;   89.732;  233.484
421.893;  993.517; -705.271; -602.511
422.183;  250.612; -487.263; -461.526
422.472;  395.668;  -36.271; -107.511
422.762;  473.867; -416.266; -379.521
423.051;  263.830; -916.276; -916.503
423.341;  346.150; -491.273; -439.507
423.630;  428.673; -121.265;   15.477
423.919;  394.761;   58.725;   49.495
424.209;  389.218;  -31.263;   56.473
424.498;  496.047;   68.732;  161.483
424.787; 1071.453; -535.267; -601.518
425.077; 3335.946;   34.735;   29.478
425.366; 4929.148; -734.262; -744.528
425.655; 9622.425;  639.727;  259.493
425.945;19933.951; -313.247; -268.554
426.234;11162.996;  117.741;  300.467
426.523; 4870.501;  -86.259; -350.534
426.812; 6780.588;  107.734;  159.480
427.101; 9848.163; -127.269; -323.515
427.390;12604.882;  -55.270;  -86.514
427.680; 3129.021; -624.257; -411.538
427.969;  510.406; -330.255; -301.540
428.258;  319.362; -385.257; -477.536
428.547;  577.162;  449.728;  397.490
428.836; 1380.472; -421.253; -398.543
429.125; 2045.503; -199.259;  -72.534
429.414;  873.920; -330.251; -294.548
429.703; 3024.020; -231.251; -213.548
429.992; 9002.548; -938.250; -828.549
430.281; 5906.880; -397.264; -331.524
430.570;  596.710;  -21.252;   32.454
430.859;  636.801;  279.741;  352.466
431.148;  459.947;  636.752;  631.446
431.437;  305.160;  391.748;  367.454
431.725;  154.339; -544.257; -481.536
432.014;  127.630; -845.253; -756.545
432.303;  383.647; -149.239; -105.569
432.592;  679.937; -460.263; -178.525
432.881; 1046.673; -601.248; -437.554
433.169; 5843.082; -343.255;  -61.540
433.458;12002.281;  445.765;  540.424
433.747; 5105.754; -397.261; -289.529
434.036;  968.073; -275.242; -280.564
434.324; 2070.261; -395.249; -379.551
434.613; 3496.442;   40.757;  159.437
434.902; 1238.238;  333.760;  439.433
435.190;  684.646;   75.761;  295.431
435.479;  381.474;  -52.245;   83.441
435.767;  116.382; -411.244; -427.561
436.056;  225.969; -340.242; -294.563
436.345;  373.715; -372.240; -223.568
436.633;  390.306;   60.750;  383.450
436.922;  284.392;  208.760;  414.432
437.210;  748.521; -194.236;    1.426
437.499; 2418.954; -583.235; -432.576
437.787; 2673.945; -339.236;  -10.574
438.075;  638.477;   56.761;  162.430
438.364;  870.354;  -44.238;  250.429
438.652;  542.833; -286.226; -138.592
438.941;  165.997;    3.770;  269.415
439.229;   39.933; -665.252; -466.545
439.517;   55.887; -160.234;  -85.577
439.806;    2.924; -501.225; -290.595
440.094;  198.170;  377.766;  650.421
440.382;  241.324; -653.233; -302.580
440.670;  265.804; -361.235; -285.576
440.959;   51.916; -347.223; -170.599
441.247;   79.209; -151.229; -109.587
441.535;  115.586; -266.235;   31.423
441.823;   65.517; -497.234; -305.578
442.111;  202.913;  173.771;  327.412
442.400;  625.023; -628.245; -335.559
442.688; 1736.144; -111.234; -620.579
442.976; 1250.228; -786.213; -450.617
443.264;  141.880; -324.224; -364.597
443.552;  114.009; -258.226;   51.408
443.840;  171.609;  602.765;  876.423
444.128;  127.698;  265.767;  269.420
444.416;    8.265; -694.228; -312.588
444.704;   21.720; -465.219;  -92.605
444.992;   85.012;   -0.226;  240.407
445.280;   65.498; -517.230;  -94.585
445.568;   67.631; -694.212; -396.618
445.856;  406.804; -174.221;  357.398
446.143;  911.392;  -54.220;   -7.604
446.431;  762.694;  -25.228;  625.411
446.719;  265.414;  489.783;  675.391
447.007;  192.117;  481.769;  705.416
447.295;  184.538;  597.777;  871.402
447.583;  104.906; -464.229;  -34.587
447.870;  157.076; -434.221; -202.601
448.158;  485.397; -104.230;  129.415
448.446;  382.718; -800.219; -338.604
448.733;  196.882;   13.776;  269.403
449.021;  273.256;   60.788;  341.382
449.309;  213.846; -296.210;  208.379
449.596;  218.861;  128.783;   59.392
449.884;  158.870; -571.222; -325.600
450.172;  150.974; -756.227; -406.590
450.459;  429.536;  645.786;  780.387
450.747; 2220.109; -411.218; -147.608
451.034; 7134.495;  493.772;  889.411
451.322; 5905.014; -413.214; -170.614
451.609;  498.808;  292.777;  508.403
451.897;  566.958; -550.203; -183.634
452.184; 1707.213; -622.223; -400.598
452.472; 1640.367;   97.792;  269.375
452.759;  356.893;  512.781;  864.395
453.047;  138.004; -407.212; -125.617
453.334;   84.426; -732.219; -216.606
453.621;   99.117; -438.214; -161.615
453.909;  124.125;   13.796;  384.368
454.196;  114.920; -299.199; -123.641
454.483;  243.221;  317.798;  540.364
454.771;  140.495; -215.208;  196.374
455.058;   46.623; -316.207;  102.374
455.345;   99.850;   71.807;  344.347
455.632;   98.701; -128.207;  235.373
455.919;   49.143;  -82.196;  182.354
456.207;  -57.875; -774.198; -450.642
456.494;  -11.342; -475.200;  -66.639
456.781;   21.392; -399.202; -198.635
457.068;   71.183; -253.206;  -29.628
457.355;   13.384; -698.206; -401.629
457.642;    3.015; -552.205; -290.630
457.929;   15.966; -778.194; -417.651
458.216;   71.179; -575.212; -354.617
458.503;  218.546; -173.193;  -19.652
458.790;  209.543; -864.208; -630.625
459.077;  265.622;  -77.202;  110.364
459.364;  765.584; -350.195; -210.649
459.651; 1600.206;  -46.206;  220.372
459.938;  754.333; -864.209; -665.623
460.225;  162.250;  132.799;  276.363
460.512;  -35.310; -836.197; -688.645
460.799;  108.158;  -32.218;  320.392
461.086;   62.888; -370.200; -251.640
461.372;   65.550; -509.198; -279.642
461.659;  120.219; -165.196;  108.354
461.946;   65.519; -445.193;  -54.651
462.233;  254.460;  842.800;  888.361
462.519;  353.732; -814.201; -464.639
462.806;  985.115; -768.197; -497.645
463.093;  843.440; -445.191;  -66.656
463.380;  -27.069; -920.186; -824.664
463.666;   67.317; -259.197;  -18.646
463.953;   92.579; -406.195; -243.648
464.239;  189.529; -173.195;  -77.648
464.526;  399.790;  413.806;  743.350
464.813;  362.526; -565.190; -304.658
465.099;  376.895;  606.807;  607.348
465.386;  357.974;  903.807;  921.348
465.672;   53.815; -694.197; -522.645
465.959;   42.269; -598.188; -520.662
466.245;   15.374; -468.193; -359.652
466.532;  108.677; -109.195;   63.352
466.818;   91.255; -357.186; -216.664
467.104;    2.970; -488.182; -415.672
467.391;   -6.947; -628.189; -459.658
467.677;   32.009; -289.186;    9.335
467.964;   10.210; -682.189; -471.660
468.250;   75.062; -331.186; -160.665
468.536;   83.204;   90.811;  180.341
468.822;  -33.502; -821.184; -574.668
469.109;  151.050;  351.827;  471.311
469.395;  196.584;  729.808;  787.346
469.681;  197.057;   46.811;  156.341
469.967; 1206.662; -699.188; -382.660
470.254; 2557.020; -494.188; -306.662
470.540; 1648.567; -601.196; -476.646
470.826;  229.206; -488.181; -397.675
471.112;  286.552;  288.816;  113.331
471.398;   88.931; -253.183;  -58.670
471.684;   51.234; -626.177; -447.680
471.970;  -10.040; -918.180; -981.675
472.256;   36.308; -521.192; -441.654
472.542;    4.236; -499.171; -434.691
472.828;   29.366; -743.182; -607.672
473.114;   36.354; -380.166; -283.700
473.400;   32.076; -504.175; -293.684
473.686;   35.310; -452.166; -400.701
473.972;   63.090; -230.174; -131.687
474.258;  -50.725; -925.173; -843.689
474.544;  172.776; -183.178;   -2.679
474.830;  267.727;  -65.175;   45.316
475.116;  442.053; -123.190; -196.658
475.401;  591.787; -558.180; -467.676
475.687;  187.536; -725.180; -718.676
475.973;    1.349; -673.181; -770.673
476.259;  257.829;  736.825;  764.315
476.544;  353.292; -539.176; -437.682
476.830;  750.632; -398.172; -322.690
477.116;  650.716; -430.177; -336.682
477.401;  125.387;  346.820;  358.324
477.687;  -30.199; -289.175; -405.684
477.973;   33.028;   21.819;   28.326
478.258;   -9.919; -448.163; -348.706
478.544;   65.792;   21.815;   61.334
478.829;  -58.259; -818.171; -738.692
479.115;  -46.368; -749.172; -651.690
479.401;  -19.314; -444.174; -449.686
479.686;   36.711; -253.180;  -74.676
479.972;  -36.519; -886.178; -776.680
480.257;   39.956; -258.166;  -65.700
480.542;   -4.180; -614.170; -469.693
480.828;  234.999; 1288.824; 1392.317
481.113;  -18.403; -464.176; -426.683
481.399;   -0.221; -236.161; -202.711
481.684;  -48.195; -620.166; -462.700
481.969;   26.717; -158.159;  -73.713
482.255;   -3.569; -439.169; -285.695
482.540;   -3.094; -569.178; -441.680
482.825;   -7.974; -395.187; -404.663
483.110;   88.884;  -85.169; -105.696
483.396;  175.314; -840.157; -652.718
483.681;  473.765;  543.826;  730.313
483.966;  144.786; -696.160; -700.712
484.251;    0.939; -404.174; -310.687
484.536;    0.941; -356.165; -378.703
484.822;   11.667; -205.173; -218.687
485.107;  -33.273; -599.152; -502.726
485.392;  133.946;  662.836;  541.296
485.677;   79.469;  354.832;  163.302
485.962;  104.336;  160.843;  270.283
486.247;   88.513;  -14.162;   -8.707
486.532;   59.007; -178.166; -325.701
486.817;  148.399;  381.839;  431.291
487.102;  121.360; -453.154; -514.722
487.387;  598.291; -637.156; -652.718
487.672; 1062.151; -154.164;  -38.705
487.957;  674.456; -394.160; -286.711
488.241;  193.268; -290.150; -314.729
488.526;  659.828; -280.152; -148.726
488.811; 1113.608; -881.177; -818.680
489.096;  809.687; -666.154; -702.723
489.381;  471.824;    3.847;  162.275
489.666;  342.304; -428.161; -510.710
489.950;  173.190;  558.846;  627.277
490.235;  -40.962; -480.151; -458.728
490.520;  -36.622; -756.161; -723.710
490.804;  -55.282; -827.156; -736.719
491.089;   11.259; -469.149; -299.732
491.374;   42.350; -132.164;  -75.704
491.658;   -2.780; -817.147; -717.735
491.943;  181.357; -657.152; -609.727
492.227;  284.856; -178.155;  -38.721
492.512;   66.161; -294.157; -341.717
492.797;  -75.622; -713.149; -716.731
493.081;  -56.402; -588.147; -598.735
493.366;  -45.671; -751.161; -635.711
493.650;  206.100;  831.859;  917.254
493.935;   35.894; -648.147; -447.734
494.219;  -52.362; -778.142; -687.743
494.503;  -42.977; -585.150; -487.730
494.788;   43.178;   46.842;   74.285
495.072;  102.744;  184.850;  434.271
495.356;  163.337; -463.148; -343.733
495.641;  472.879; -812.146; -736.736
495.925;  455.972; -976.156; -903.719
496.209;   48.458; -599.149; -451.732
496.494;  -46.662; -763.142; -544.744
496.778;    3.435; -364.154; -360.722
497.062;  -60.278; -819.156; -627.719
497.346;  -40.693; -869.160; -640.711
497.631;  141.940;  580.852;  560.266
497.915;   62.365;  -64.145;  175.261
498.199;   49.089; -341.157; -277.718
498.483;   34.801; -562.152; -508.725
498.767;  187.396;  301.850;  300.271
499.051;  191.356; -126.149; -100.732
499.335;   28.104; -693.149; -739.731
499.619;  -34.624; -381.129; -423.767
499.903;   35.779; -272.155;  -65.721
500.187;   29.767; -588.153; -316.724
500.471;   16.956; -796.152; -595.727
500.755;  109.003;   62.839;  -96.710
501.039;   18.305; -270.155; -357.721
501.323;   93.702;  -21.141;  264.254
501.607;   35.406; -447.163; -503.706
501.891;    2.040; -607.156; -512.718
502.174;  -29.499; -726.144; -585.741
502.458;   79.510;   89.849;  370.273
502.742;   36.851; -180.138; -191.751
503.026;   95.969; -412.147; -254.734
503.310;  140.366; -437.159; -375.713
503.593;  107.696; -464.147; -325.735
503.877;  110.066; -232.133; -156.760
504.161;  183.769;    2.847;  -50.724
504.444;  122.155; -841.158; -710.716
504.728;  418.174; -487.164; -522.704
505.012;  672.092; -257.150;  -76.729
505.295;  507.804; -417.161; -212.711
505.579;  499.047; -256.156; -496.719
505.862;  681.686; -555.145; -333.738
506.146;  671.869; -681.159; -758.714
506.429;  396.619;  568.841;  461.286
506.713;   57.740; -732.151; -667.728
506.996;  315.984;   90.846;  295.278
507.280;  302.694; -633.165; -474.703
507.563;  232.953; -469.155; -261.721
507.847;   80.768; -423.153; -112.724
508.130;   92.005; -665.161; -456.711
508.413;   95.051; -758.167; -577.700
508.697;  227.501; -151.167;   12.300
508.980;  136.144; -422.153; -312.724
509.263;   -8.301; -466.155; -450.720
509.547;   27.142; -124.150;   82.271
509.830;   51.382; -172.160;  140.289
510.113;   89.147;  128.844;  298.281
510.396;   23.775; -530.152; -300.725
510.680;  206.562; -818.145; -812.738
510.963;  784.089;  184.846;  180.277
511.246;  694.375; -493.150; -357.730
511.529;  271.967; -482.145;  -83.739
511.812;  361.712; -250.134;   10.241
512.095;  245.987; -740.151; -396.728
512.378;   47.550; -317.147; -245.736
512.661;   18.058; -703.137; -623.753
512.944;   19.190; -750.142; -637.744
513.227;   60.481; -170.137; -171.752
513.510;   28.501; -479.144; -671.741
513.793;   30.031; -485.140; -435.747
514.076;  141.196;  -43.127;  -39.771
514.359;  109.184; -294.149; -135.732
514.642;   63.643; -442.142; -567.744
514.925;  695.780;  581.860;  561.253
515.208;  902.584; -498.134; -443.758
515.491;  614.847; -276.133; -182.761
515.773;  344.429; -410.143; -337.742
516.056; 1927.315;  249.864;  409.246
516.339; 2651.194; -754.136; -652.755
516.622; 2006.148; -518.150; -488.730
516.904; 1482.886;  882.857;  975.257
517.187;  701.879; -730.138; -523.752
517.470;  419.610; -568.143; -510.743
517.752;  402.621; -624.136; -470.756
518.035;  303.467; -708.139; -725.749
518.318;  332.844; -799.136; -744.755
518.600; 2191.476; -300.132; -325.762
518.883; 3021.092;  310.858;   88.256
519.165; 1475.797; -585.138; -426.751
519.448;  411.900;  -61.132;  -19.762
519.730;  201.579; -573.126; -415.773
520.013;  339.368;  588.867;  664.240
520.295; 1005.289;  -94.134;  -15.759
520.578; 2296.538; -335.131; -305.764
520.860; 2491.751; -254.132;   56.238
521.143; 1279.673; -763.135; -584.756
521.425;  479.566; -251.125; -279.775
521.707;  649.722; -622.127; -380.771
521.990; 1647.347; -199.127;  167.229
522.272; 1858.733; -116.140;   -4.748
522.554;  889.155; -237.143; -157.742
522.836;  414.712;  -24.134;   99.241
523.119;  247.318; -496.148; -189.734
523.401;  172.870; -448.130; -314.766
523.683;   85.634; -865.137; -693.753
523.965;  253.277;  408.862;  260.248
524.247;  249.562;   54.878;  170.220
524.529;  194.214; -451.134; -367.759
524.812;  340.522;   -3.130;  191.234
525.094;  770.402; -773.138; -631.751
525.376; 1250.175; -143.124;   78.223
525.658;  751.691; -441.136; -339.754
525.940;   12.585; -805.131; -671.764
526.222;   55.444; -188.136;  -88.755
526.504;  134.133; -190.131;   32.237
526.786;  230.291; -960.133; -647.760
527.068;  383.181; -124.123;  -67.778
527.349;  166.012; -865.137; -774.754
527.631;  137.250; -137.132;   22.238
527.913;  128.571; -664.127; -450.771
528.195;  141.534; -761.125; -639.774
528.477;  233.534;  -93.134;  -30.758
528.759;  113.422; -648.130; -522.766
529.040;   62.355; -569.123; -293.778
529.322;   32.187; -235.125;  -10.774
529.604;  172.574;  -47.130;   93.233
529.886;  150.978; -546.126; -302.773
530.167;  133.891;  232.870;  192.235
530.449;   54.974;    1.853;   63.265
530.731;   20.436; -572.122; -459.779
531.012;   53.907; -513.120; -216.784
531.294;   81.371; -118.116;  -43.792
531.575;  148.916;  290.875;  538.225
531.857;   51.204; -548.135; -266.757
532.138;   96.076; -113.141;   40.254
532.420;  182.100;  294.865;  403.244
532.701;  264.269; -722.133; -751.760
532.983;  396.072;  232.867;  182.239
533.264;  145.101; -243.126;  175.228
533.546;  -26.406; -491.136; -508.755
533.827;   56.115;  173.867;   -1.759
534.109;   61.154; -352.135;  -80.757
534.390;   97.754; -725.132; -582.762
534.671;  255.275; -270.135;  -82.756
534.953;  121.032; -751.123; -611.779
535.234;   29.381; -426.117; -255.789
535.515;  -89.735; -891.119; -735.785
535.796;   -8.158; -431.128; -193.770
536.078; -122.500;-1050.124; -904.777
536.359;    4.783;  -22.123;    3.221
536.640;  -16.014; -480.125; -197.774
536.921;  156.054;  225.871;  143.232
537.202;  362.148;  -87.138;  -16.751
537.483;  442.988;  251.869;  377.236
537.764;  163.641;   17.870;   98.235
538.045;  -42.892; -543.134; -371.758
538.326;  -31.219; -596.129; -447.768
538.607;    8.522; -686.127; -476.771
538.888;  175.473;   98.879;    5.218
539.169;  176.168; -704.122; -535.781
539.450;  338.028;  236.871;   16.233
539.731;  241.252; -361.121; -182.783
540.012;  126.432;  199.880;  412.216
540.293;   92.895;   82.876;  158.224
540.574;   17.466; -895.113; -717.796
540.855;  471.326;  435.879;  377.218
541.136;  512.190;   47.878;  139.220
541.416;  259.473; -161.130; -220.766
541.697;  204.434; -274.131; -170.763
541.978;  958.427; -270.135; -315.757
542.259; 1221.347; -211.127; -236.771
542.539;  594.890; -191.116; -186.790
542.820;  191.966;  461.875;  480.225
543.101;  145.189;  -52.145;  -77.738
543.381;   25.022; -638.127; -591.771
543.662;  270.395;  159.873; -254.771
543.942;  525.018; -751.127; -830.770
544.223;  963.367;  193.878;  161.219
544.504;  629.475; -275.124; -182.777
544.784;  558.353; -592.126; -408.773
545.065; 1548.868;  104.884; -254.791
545.345; 1829.740;  227.881;   14.215
545.626; 1202.065;  -14.113; -108.796
545.906;  815.840;   77.869;   98.235
546.186;  320.233;   92.874;  -95.773
546.467;  201.352;   99.877;  -95.778
546.747;  299.114;  264.884;  327.210
547.027;  345.723;   91.876;  111.223
547.308;  296.792; -376.127; -530.770
547.588;  370.582;  299.871;  371.232
547.868;  190.042;  458.870;  588.235
548.149;  188.851;  609.885;  593.207
548.429;  110.020; -347.127; -299.771
548.709;  148.932; -645.120; -461.784
548.989;  430.500;   84.882;   88.213
549.269; 1957.049;   10.868;  139.239
549.550; 4433.481;  215.877;  117.222
549.830; 3956.733; -758.111; -556.799
550.110;  795.241; -468.110; -320.801
550.390;  755.337; -128.122;  -56.779
550.670; 1051.336; -868.114; -783.795
550.950;  773.275; -509.121; -471.782
551.230;  165.771;  549.879;  460.218
551.510;   -2.776; -381.121; -326.782
551.790;   35.073; -173.109; -127.803
552.070;  253.777;  940.877; 1181.223
552.350;  364.494; -492.119; -377.786
552.630;  536.569;   -2.121;   77.219
552.909;  324.919;  181.884;   73.209
553.189;  210.230;  -49.132;   33.237
553.469;  158.369; -703.119; -514.786
553.749;  160.524; -469.127; -357.772
554.029;  150.535;   33.883;  -24.790
554.308;  125.855; -154.115;  -37.794
554.588;   50.141; -196.128; -204.770
554.868;   39.001; -366.121;  -47.782
555.147;  136.952; -114.115;  -46.793
555.427;  547.371; -260.116; -250.792
555.707; 3532.050; -284.115; -200.793
555.986; 4297.211; -719.111; -538.800
556.266; 2247.063;   23.884;   72.210
556.546;   88.399; -888.121; -675.782
556.825;  214.459; -657.114; -556.794
557.105; 1638.864; -125.128;   17.230
557.384; 1918.443;  122.884;  187.209
557.664;  735.845; -717.116; -508.792
557.943;   98.825; -557.121; -411.782
558.222;  166.553; -345.118; -344.788
558.502;  257.828; -116.115;  -76.793
558.781;  449.849;  194.885;  499.208
559.061;  365.778; -232.118; -227.788
559.340;  264.033;  302.883;  353.211
559.619;  627.438;   93.884;  148.210
559.899;  939.534; -239.117; -266.789
560.178;  847.453; -778.115; -593.793
560.457; 2876.736; -623.117; -562.790
560.736; 4002.638; -472.111; -482.800
561.015; 2668.487; -500.128; -502.769
561.295;  366.893;  180.893;  215.193
561.574;  341.925;  119.885;  116.207
561.853;  487.128;  274.891;  303.197
562.132;  461.580;  -45.114;  182.206
562.411;  384.720;  396.879;  553.219
562.690;  128.849; -592.115; -458.792
562.969;  133.622;  472.888;  630.203
563.248;  469.642; 2966.878; 2487.219
563.527;  241.812; -290.111; -408.800
563.806;  346.795; -650.127; -521.771
564.085;  378.858; -297.105; -206.810
564.364;  202.512; -594.117; -405.790
564.643;  462.845; -276.121; -223.781
564.922; 1743.872;  221.890;  397.198
565.201; 1713.450; -640.109; -700.803
565.479;  735.122; -297.115; -219.792
565.758;  290.264; -810.128; -712.770
566.037;  444.701; -155.109; -100.803
566.316;  227.468; -286.116;  -28.791
566.595;   40.800;  -17.115;  -12.793
566.873;  106.464; -166.111;  -79.801
567.152;  -54.528; -490.113; -590.797
567.431;    5.089; -113.116;    6.210
567.709;    8.893; -344.107; -212.807
567.988;  221.959; -810.114; -769.794
568.266;  481.900; -160.115;  -68.793
568.545;  354.404; -644.100; -514.819
568.824;  546.222;  160.885;  356.208
569.102;  480.458; -351.114; -235.794
569.381;  203.971; -492.116; -407.792
569.659;  -41.732; -553.113; -553.796
569.938;   30.441; -743.122; -465.780
570.216;   82.354; -225.109; -225.804
570.494;  -37.188; -632.114; -572.795
570.773;   31.724;  202.879;  114.218
571.051;  -11.220; -373.123; -357.778
571.330;   48.666; -221.113; -174.796
571.608;   38.872; -181.098; -173.823
571.886;  -67.644; -671.111; -581.799
572.164;  -69.949; -739.121; -621.782
572.443;  -50.338; -562.105; -512.811
572.721;  -29.439; -399.117; -289.790
572.999;  -24.820; -280.117; -168.788
573.277;   90.755;  379.894;  620.191
573.555;  264.507;   94.894;   37.190
573.834; 1218.179;  -86.117; -114.788
574.112; 1437.595;  880.893;  811.193
574.390;  426.238; -143.111;  -96.801
574.668;   -2.652;  -91.112;  -61.797
574.946;  -20.993; -165.106; -187.810
575.224;   -4.075;   71.891;  -16.803
575.502;  -13.259; -200.116; -204.791
575.780;  -96.026; -767.112; -829.798
576.058;  190.537; 1589.889; 1004.200
576.336;  -22.357; -210.110; -129.801
576.614;  -58.926; -511.112; -340.798
576.891;   38.104; -711.115; -823.794
577.169;  446.412; -158.108; -285.805
577.447;  513.045;  169.893;  202.193
577.725;  254.129;  629.888;  854.201
578.003;    0.827;  -71.112; -371.798
578.280;   76.595; -208.104; -242.812
578.558;   55.578; -450.115; -422.793
578.836;  111.061; -210.114; -145.795
579.114;   61.298; -630.112; -670.797
579.391;   68.481;   -6.117;  -18.789
579.669;  -80.420; -595.114; -704.794
579.947;  159.767; -326.107; -127.806
580.224;  276.292; -692.107; -524.806
580.502;  301.096;  127.893;   76.193
580.779;   17.387;  -42.117;   75.210
581.057;  -87.996; -584.109; -470.804
581.334; -110.340; -726.102; -695.815
581.612;   29.058;   54.895;  511.190
581.889;  -33.827;  -83.101; -129.818
582.167;  -26.338; -298.099; -190.821
582.444; -101.407; -845.102; -814.817
582.721;   99.019;  657.899;  715.183
582.999;   27.110; -326.100; -167.821
583.276;  478.134; -812.123; -713.779
583.553;  651.263; -364.102; -294.816
583.831;  186.442; -607.104; -631.812
584.108;   43.535;  349.892;  174.195
584.385;    4.285; -122.102;  -98.815
584.662;  -68.861; -651.111; -828.801
584.940;   36.789;  204.889;  204.199
585.217;  -19.232;  -73.113; -303.796
585.494;   39.022;   71.890;  118.198
585.771;  178.105; -250.109; -354.804
586.048;  474.943; -196.113;  -76.796
586.325;  267.692; -721.110; -773.801
586.602;   62.946;  230.896;  213.188
586.879;  -12.244; -499.100; -580.820
587.156;   38.759; -156.105; -331.810
587.433;  -42.984; -701.102; -667.817
587.710;   62.150;  152.888;  234.202
587.987;  271.514; -264.105; -236.811
588.264;  736.152;  315.888;  387.202
588.541; 1257.373;  -61.104;   26.187
588.818; 2520.757;   72.892;  171.196
589.095; 2139.719; -163.104; -174.812
589.371;  355.078; -459.109; -414.804
589.648;   10.845; -581.107; -437.807
589.925;   11.087; -517.114; -621.795
590.202;   19.775; -741.112; -607.798
590.478;   76.516; -166.105;  -73.811
590.755;  235.288; -241.108; -132.806
591.032; 2281.369; -741.110; -699.802
591.308; 3131.687; -732.094; -790.831
591.585; 1608.069; -573.110; -560.802
591.862;  107.642;-1056.102; -950.817
592.138;   59.686; -475.108; -474.805
592.415;  129.147; -486.104; -495.813
592.691; 1370.044;  460.896;  518.188
592.968; 1761.124; -208.098; -123.824
593.244;  824.564; -695.116; -595.790
593.521;   50.943; -105.102;  -42.817
593.797;  -20.212; -810.122; -720.780
594.074;  303.986; -611.096; -588.826
594.350;  613.597;  828.905;  729.172
594.626;  262.065; -303.111; -283.801
594.903;   86.143; -643.101; -645.817
595.179;  170.725;  243.896;  418.187
595.455;   12.922; -136.107; -150.807
595.731;    9.802;  -19.103;  -38.814
596.008;  -51.766; -464.111; -434.800
596.284;   25.834; -187.100; -242.820
596.560;   43.793; -501.093; -493.833
596.836;  176.811; -173.105;  -70.810
597.112;  310.586; -582.108; -437.805
597.388;  248.609;  -49.097;  -48.826
597.665;  108.470;  437.887;  530.203
597.941;  -63.053; -572.089; -658.839
598.217;   13.722; -323.110; -293.802
598.493;  240.656;   61.891; -204.804
598.769;  482.303; -175.100;  -50.819
599.045;  260.139; -490.108; -562.806
599.321;   47.308; -193.100; -261.820
599.597;  112.256; -355.109; -476.804
599.872;  445.073;  409.896;  429.187
600.148;  320.586;  -61.097; -172.826
600.424;  260.969;   91.893;  202.193
600.700;  203.721; -170.107; -280.807
600.976;   97.055; -442.097; -464.825
601.252;  211.527; -226.109; -272.803
601.527;  188.474; -833.104; -840.813
601.803;  124.642; -453.105; -404.812
602.079;  172.253; -124.100; -118.819
602.354;  507.428; -620.092; -531.835
602.630;  747.068; -140.113; -482.796
602.906; 2123.723; -910.101; -863.818
603.181; 6130.494; -627.119; -534.786
603.457; 5234.034;   98.903; -278.826
603.733;  743.828; -605.120; -626.783
604.008;  893.208; -245.106; -164.810
604.284; 2822.145; -636.101; -580.817
604.559; 2444.254;   -3.112;  -42.799
604.835;  453.486; -163.105; -225.810
605.110;  361.613; -732.099; -892.821
605.385;  633.371;  224.907;  267.167
605.661;  585.175; -625.095; -729.829
605.936; 1049.165; -664.108; -737.806
606.211;  896.233;  -17.103; -170.815
606.487;  179.407; -329.114; -376.794
606.762;    6.969; -791.119; -745.786
607.037;  -33.039; -501.105; -433.810
607.313;  -62.281; -589.096; -574.828
607.588;    2.408; -375.106; -137.810
607.863;   29.498;  -28.101; -143.818
608.138;  159.546;  513.890;  516.198
608.413;   12.817; -576.099; -592.822
608.688;   33.111; -203.108; -267.805
608.964;  186.177; -509.106; -218.809
609.239;  218.333; -107.105; -212.810
609.514;  234.191;  281.895;  240.188
609.789;  613.921; -187.104; -716.812
610.064;  807.242; -435.096; -609.827
610.339;  769.253; -855.109; -799.804
610.614; 1053.508; -131.100; -315.820
610.889;  607.366;  215.895;  107.188
611.163;   15.567; -407.104; -591.812
611.438;   58.559;   81.886; -167.794
611.713;  -14.155; -467.101; -499.817
611.988;   46.347; -144.101; -328.818
612.263;  -35.915; -771.102; -717.815
612.538;  200.917;  385.887;  251.204
612.812;  148.609; -832.100; -911.820
613.087;  129.697; -358.098; -338.823
613.362;  -60.603; -497.107; -557.807
613.637;   38.730;  261.897;  138.186
613.911;  -20.322; -256.092; -345.835
614.186;   96.670; -249.107; -292.807
614.460;  597.371; -842.081; -758.854
614.735;  714.270;  -55.087;  -17.843
615.010;  148.260;   43.912;  -82.841
615.284;  251.435;  360.892;  246.195
615.559;  356.077; -792.092; -955.835
615.833;  259.665;  -76.099;  -87.822
616.108;    5.364; -225.090; -390.837
616.382;  126.097;  274.913;  402.156
616.656;  126.289; -241.090; -232.837
616.931;  439.790; -785.099; -700.822
617.205;  981.950; -973.104; -979.813
617.480;  888.789;  -91.125;    6.225
617.754;  131.487; -396.125; -128.774
618.028;    5.083; -369.129; -382.768
618.302;   50.709;   73.892;  -25.805
618.577;  -62.219; -371.103; -518.815
618.851;  -77.326; -399.109; -600.803
619.125;  -50.686; -335.134; -378.759
619.399;  -37.200; -244.104; -374.813
619.673;  -51.153; -330.115; -515.792
619.947;  -49.539; -333.114; -448.795
620.222;  -26.685; -198.110; -204.801
620.496;   -9.574;  -47.121;  -96.782
620.770;   23.592; -187.122;  -93.781
621.044;  192.484;  323.895;  346.190
621.318;  676.403; -653.120; -614.783
621.592;  580.426; -430.121; -409.783
621.866;  329.530; -476.112; -572.799
622.140;   21.791; -207.116; -356.791
622.413;   62.109;  138.889;  112.200
622.687;  -46.405; -746.101; -492.817
622.961;   -2.341; -130.108; -143.805
623.235;  -70.740; -633.111; -661.800
623.509; -105.109; -816.105; -848.811
623.783;   -4.182;  -12.107;   48.193
624.056;   -7.945; -254.120; -280.783
624.330;   45.523;   63.888;   -3.797
624.604;   39.987; -271.116; -355.790
624.877;   54.645;  180.890;   26.198
625.151;   39.631; -249.114; -238.794
625.425;  -45.798; -150.103; -283.814
625.698;  -73.661; -367.119; -374.785
625.972; -103.403; -799.110; -765.802
626.245;   69.064;  685.884;  484.210
626.519;  -47.441; -426.120; -340.784
626.792;  -36.529; -192.107; -380.807
627.066;  -86.165; -485.122; -662.779
627.339;  -98.832; -736.110; -663.802
627.613;   40.807;  351.880;  148.216
627.886;   70.849;  187.891; -612.803
628.160;  -17.372;  312.880; -161.783
628.433;  -77.833; -695.125; -703.775
628.706;  -89.441; -517.120; -615.784
628.979;   24.323;  296.876;  117.223
629.253; -100.556; -785.119; -833.786
629.526;  309.977; -334.126; -253.772
629.799;  289.755; -641.123; -479.778
630.072;  124.159; -497.128; -516.769
630.346;  -76.336;-1115.116;-1080.790
630.619;  396.822; -467.107; -545.808
630.892;  560.360;  709.889;  593.200
631.165;  303.875;  790.896;  679.187
631.438;  -91.248;-1092.112;-1055.798
631.711;   33.308;  453.877;  257.221
631.984;  -64.765; -523.117; -624.789
632.257;  -84.844; -636.117; -681.789
632.530;  -53.486; -412.119; -433.785
632.803;   16.404; -109.115;    7.207
633.076;  -74.223; -360.123; -422.777
633.349;    5.113;  173.872;  121.231
633.622;  -44.412; -187.119; -240.785
633.895; -118.146; -903.120; -823.783
634.167;  -73.971; -496.126; -525.773
634.440;  -17.554;  -19.116; -137.792
634.713;   -2.408;  -22.119; -120.786
634.986;   79.503;  593.871;  453.233
635.258;  -68.898; -507.115; -597.793
635.531;   82.802;  742.882; -343.788
635.804;  -27.767; -303.117; -318.789
636.077;  -82.508; -830.116; -852.791
636.349;  -28.574; -586.115; -474.793
636.622;  371.126; 1695.874; 1392.228
636.894;  192.384; -474.120; -909.784
637.167;  122.445; -836.127; -789.771
637.439;   13.441; -278.128; -213.770
637.712;  -51.847; -312.126; -293.772
637.984;  -85.458; -635.116; -707.791
638.257;  352.278;  515.877;  488.222
638.529;  519.768; -881.125; -924.776
638.802;  225.084; -508.128; -449.769
639.074; -107.458; -927.122; -952.781
639.346; -131.195; -942.135; -930.757
639.619;   -8.984;  -79.142; -319.744
639.891;  -12.915;  -83.122; -168.779
640.163;  -87.588; -689.122; -756.780
640.435;   30.064;  273.878;  103.220
640.708;    3.591;  -72.122; -132.780
640.980;  -44.857; -366.122; -362.781
641.252;  181.620;  -25.121;  -71.781
641.524; 1728.696;  580.879;  573.219
641.796; 1699.248;-1094.121; -907.782
642.068;  312.700; -191.121; -300.782
642.340;  -76.523; -486.121; -566.783
642.613;   35.379;  294.880;  323.217
642.885; -106.695; -787.120; -878.783
643.157;  -61.468; -810.120; -658.784
643.428;   52.509;  170.880;  218.216
643.700;  -70.614; -498.120; -425.784
643.972;  -49.312;  -16.119; -133.785
644.244;  -88.936; -474.119; -559.785
644.516;  -41.509; -250.119; -114.786
644.788;   67.068;  662.881;  548.214
645.060;  -22.705;  -12.119; -124.786
645.332; -100.653; -525.118; -535.787
645.603;   44.198;  479.882;  342.213
645.875;  -78.175; -334.118; -369.787
646.147;  164.502; 1487.882; 1242.212
646.418;  -71.446; -931.117; -918.788
646.690;  101.656; -714.117; -715.789
646.962;   21.607; -413.117; -451.789
647.233;    0.559;   15.883;   11.211
647.505; -108.514; -595.117; -475.790
647.776;   22.463;  328.884;  229.210
648.048;  -12.535; -248.116; -418.790
648.320;  -82.558; -752.116; -679.791
648.591; -158.682;-1055.116; -958.791
648.862;  -96.730; -505.116; -577.792
649.134;   12.197;  115.885;  198.208
649.405;  -56.151; -661.115; -618.792
649.677;  -47.724; -475.115; -598.793
649.948;  -13.723; -181.115; -296.793
650.219;   -3.796;  -37.115; -147.793
650.491;  -99.919; -431.114; -520.794
650.762; -112.167; -705.114; -731.794
651.033; -102.240; -437.114; -424.795
651.304;  -90.789; -743.114; -728.795
651.576;  -60.187; -680.114; -645.795
651.847;  -43.510; -250.113; -140.796
652.118;  -28.258;  -32.113; -189.796
652.389; -114.881; -639.113; -722.796
652.660;  -45.530; -147.113;  -89.797
652.931; -143.678; -897.112; -871.797
653.202;  -81.001; -382.112; -541.798
653.473;  -69.799; -633.112; -533.798
653.744;  138.053; -595.112; -590.798
654.015;  129.279; -356.112; -303.799
654.286;  -73.744; -642.111; -663.799
654.557;  -55.267; -586.111; -521.799
654.828; -153.990;-1114.111;-1088.800
655.099;  -72.663; -404.111; -291.800
655.370;  -97.662; -427.111; -543.801
655.641; -113.110; -656.110; -714.801
655.911; -106.808; -618.110; -638.801
656.182;   45.694;  437.890;  387.198
656.453;   99.871;  830.890;  746.198
656.724;  -63.202; -466.110; -426.802
656.994;  -94.026; -553.109; -568.803
657.265; -114.974; -862.109; -873.803
657.536;  -94.247; -500.109; -377.804
657.806; -114.520; -561.109; -593.804
658.077; -143.343; -866.109; -950.804
658.347;  -86.292; -523.108; -598.805
658.618; -111.640; -646.108; -694.805
658.888;  -25.513;  -41.108;  112.195
659.159;  -90.286; -432.108; -548.806
659.429;  -16.259; -292.108; -349.806
659.700;   13.167; -435.107; -390.807
659.970;  -22.156; -370.107; -359.807
660.241;    7.946; -754.107; -921.807
660.511;  456.048; -147.107; -174.808
660.781;   69.425; -793.106; -748.808
661.052;  -48.049; -222.106; -381.808
661.322;  -28.447;   21.894;   -9.809
661.592;    4.155;  257.894;  148.191
661.862;  -82.543; -369.106; -382.810
662.133;  -79.566; -551.105; -502.810
662.403; -116.515; -770.105; -676.810
662.673;  -58.463; -256.105; -213.811
662.943; -104.561; -612.105; -551.811
663.213;  -25.859;  -85.105;  -81.811
663.483;  -79.382; -593.104; -568.812
663.753;  -47.355; -194.104; -152.812
664.023;  -25.804;   68.896;  -32.813
664.293;  -61.102; -319.104; -126.813
664.563; -118.900; -694.104; -648.813
664.833; -119.873; -743.103; -608.814
665.103; -135.521; -730.103; -793.814
665.373; -114.620; -766.103; -806.814
665.643;  -91.593; -863.103; -918.815
665.913;   19.184; -534.103; -714.815
666.182;  124.836; -685.102; -719.816
666.452;  245.638;  -22.102;  -89.816
666.722;  -26.886; -724.102; -784.816
666.992; -133.934; -948.102; -921.817
667.261; -100.057; -824.102; -808.817
667.531;  195.845;  134.899;   45.183
667.801;  544.497; -440.101; -412.818
668.070;  235.648;  714.899;  697.182
668.340;  -94.825; -883.101; -840.819
668.609;   81.552;  588.900;  301.181
668.879;  -85.696; -490.100; -558.819
669.149;  -60.769; -539.100; -516.820
669.418; -107.118; -698.100; -726.820
669.688;  -32.766; -482.100; -666.820
669.957;   54.161; -423.099; -546.821
670.226;  -23.337; -268.099; -331.821
670.496;  -91.235; -431.099; -635.822
670.765;  -95.533; -418.099; -501.822
671.034; -145.607; -872.099; -828.822
671.304;  -18.330;   55.902; -111.823
671.573; -137.803;-1085.098; -957.823
671.842;   65.499; -380.098; -294.823
672.112;    6.576; -692.098; -586.824
672.381;    1.327; -239.098; -214.824
672.650; -135.946;-1005.097;-1021.825
672.919;  -94.119; -631.097; -507.825
673.188;  -98.567; -681.097; -878.825
673.457; -160.465;-1101.097;-1143.826
673.726;  -98.089; -579.096; -646.826
673.995;  -47.937; -533.096; -479.826
674.265;  -47.935; -263.096; -333.827
674.534;   -4.183; -183.096; -235.827
674.802;  -19.556; -618.096; -703.828
675.071;  933.470; -886.095; -801.828
675.340; 3586.372; -464.095; -339.828
675.609; 1202.299;  103.905;   82.171
675.878;   46.576; -949.095; -893.829
676.147;   20.603;  -26.095;   -8.829
676.416;   67.879; -210.094; -294.830
676.685;  671.931; 1000.906; -622.830
676.953;   77.183; -603.094; -452.831
677.222;  -27.615; -193.094; -273.831
677.491;  -32.013;  -24.094; -127.831
677.759;   -3.461;   11.907;  172.168
678.028;  -29.935; -279.093; -222.832
678.297;   -4.633;   71.907;  197.168
678.565; -139.581; -898.093; -944.833
678.834;  -61.204; -311.093; -268.833
679.102;  -92.327; -411.092; -391.834
679.371; -141.576; -898.092; -727.834
679.639; -139.999; -797.092; -786.834
679.908; -130.022; -794.092; -724.835
680.176; -158.795; -895.091; -941.835
680.445;  -79.593; -346.091; -352.835
680.713;  -19.592;  -58.091;  -23.836
680.982; -100.840; -523.091; -525.836
681.250; -100.563; -578.091; -507.837
681.518; -103.086; -534.090; -751.837
681.787;  -39.359; -204.090; -167.837
682.055;  -67.358; -490.090; -422.838
682.323; -138.881; -993.090; -992.838
682.591;   31.571; -216.090; -538.838
682.859;   77.123;    9.911;  -35.839
683.128;   10.225;  232.911;  497.161
683.396; -175.099;-1102.089;-1122.840
683.664;  -39.972; -241.089;   21.160
683.932;   -0.720;  144.911;  -76.840
684.200;  -84.743; -576.088; -320.841
684.468;  -34.766;  -73.088; -124.841
684.736;  -32.640; -214.088; -175.841
685.004; -128.788;-1024.088; -982.842
685.272;  -42.961; -880.088; -774.842
685.540;  -64.684; -499.087; -557.843
685.808;  -99.607; -651.087; -682.843
686.076; -110.405; -894.087; -969.843
686.343;  -64.604; -601.087; -815.844
686.611;   22.548; -195.087; -224.844
686.879;  421.200; -530.086; -553.844
687.147; 3024.202; -483.086; -480.845
687.414;  879.004;  -12.086; -169.845
687.682;   -5.445; -658.086; -757.846
687.950;  292.607;  259.915;  263.154
688.217;   -8.316; -792.085; -760.846
688.485;   -7.214; -632.085; -636.847
688.753;  476.363;  -11.085; -102.847
689.020;  129.214; -820.085; -851.847
689.288; -110.484; -853.084; -787.848
689.555;  -35.832; -195.084; -148.848
689.823;  -48.655; -241.084; -345.849
690.090;  -93.928; -546.084; -651.849
690.358; -148.452; -877.084; -897.849
690.625;   -1.200;  120.917;   45.150
690.892;  -81.848; -403.083; -369.850
691.160;  -12.971;   72.917;  -35.850
691.427;   -2.094;  141.917;  130.149
691.694; -128.543; -855.083; -929.851
691.962; -154.291;-1177.082;-1060.852
692.229;    9.311;  127.918;   56.148
692.496;   72.713;  130.918;  -49.852
692.763;    6.340; -164.082; -201.853
693.031;  -75.083; -739.082; -716.853
693.298;  -51.107; -509.081; -368.853
693.565;  276.370; -155.081; -163.854
693.832; 1157.997;   -5.081;   -9.854
694.099;  116.399; -643.081; -642.855
694.366;  -62.874; -882.081; -896.855
694.633;  -62.673; -920.080; -633.855
694.900;  746.029; 4367.920; -114.856
695.167;  393.006; -214.080; -380.856
695.434;   77.908; -646.080; -623.856
695.701;  180.760;  121.921;  -61.857
695.968;  451.411; -365.079; -361.857
696.234;  983.613; -415.079; -646.858
696.501;10371.765; -776.079; -614.858
696.768; 5241.467; -554.079; -617.858
697.035;  323.144; -632.078; -667.859
697.302;   12.595; -448.078; -552.859
697.568;   12.172; -458.078; -497.859
697.835;  -36.276; -683.078; -624.860
698.102;  -32.424; -498.078; -407.860
698.368;   75.653;  384.923;  396.139
698.635;  -33.246;  -47.077; -424.861
698.901;  -18.044; -240.077; -348.861
699.168;   59.708; -534.077; -456.862
699.435;   63.685;  -72.077;  -13.862
699.701; -108.388; -868.076; -764.862
699.968;   -0.736;  144.924; -441.863
700.234; -107.360; -783.076; -822.863
700.500;  -55.158; -448.076; -539.864
700.767;   -1.381;   -1.075;   26.136
701.033; -137.254;-1015.075; -963.864
701.299;  -51.427; -450.075; -483.865
701.566;  112.449;  950.925;  763.135
701.832;   21.551;  -31.075;  -76.865
702.098; -108.072;-1054.074;-1034.866
702.365;  -99.145;-1098.074;-1030.866
702.631;  -17.618;-1038.074;-1063.867
702.897; 1323.083; -765.074; -676.867
703.163; 2169.210;  348.926;  254.133
703.429;  151.362; -256.073; -273.868
703.695;  -34.586; -796.073; -792.868
703.961;   10.391; -214.073; -210.868
704.227;  -52.633; -630.073; -725.869
704.493;  134.944;  613.927;  510.131
704.759;  -24.629; -565.072; -540.870
705.025;   40.423; -203.072; -194.870
705.291;   -0.325; -666.072; -562.870
705.557;  194.776;  719.928;   34.129
705.823;   52.803; -742.072; -694.871
706.089;  145.280; -307.071; -326.871
706.355;  380.632; -315.071; -244.872
706.620; 5724.584; -776.071; -729.872
706.886; 7919.061; -309.071; -362.873
707.152;  710.912; -818.070; -973.873
707.418;  -16.461;-1153.070;-1186.873
707.683;   -2.809; -550.070; -530.874
707.949;  -32.932; -547.070; -578.874
708.215;    5.945; -129.070; -207.874
708.480;  -35.454; -520.069; -420.875
708.746;   89.998;   68.931;   28.125
709.011;  -61.425; -578.069; -612.876
709.277;  -74.223; -538.069; -543.876
709.542;  -57.896; -428.069; -387.876
709.808;    3.530;  -59.068;   89.123
710.073;  -77.418; -577.068; -695.877
710.339;  -26.516; -242.068; -228.877
710.604;   58.661; -780.068; -845.878
710.869;  310.763; -277.068; -366.878
711.135;  -88.036; -715.067; -628.879
711.400;  -80.184; -507.067; -608.879
711.665;  -76.132; -404.067; -479.879
711.931;  -97.930; -661.067; -677.880
712.196; -122.103; -876.067; -954.880
712.461;   94.898; -402.066; -490.880
712.726;  125.975; -727.066; -771.881
712.991;  -81.248; -647.066; -664.881
713.256;  -54.696; -350.066; -332.882
713.521;  -59.044; -417.065; -381.882
713.787;  -66.343; -454.065; -472.882
714.052;  -24.866; -214.065; -400.883
714.317; -101.839;-1045.065; -981.883
714.581; 1071.763; -374.065; -268.883
714.846; 1438.090; -822.064; -888.884
715.111;  142.367;  261.936;  257.116
715.376;  -32.782;  -86.064; -223.885
715.641;  -18.455; -365.064; -367.885
715.906;  269.272;   15.936; -551.885
716.171;  136.324;  221.937;  209.114
716.436;   19.001;  -78.063; -104.886
716.700; -105.923; -818.063; -692.886
716.965; -127.496; -794.063; -807.887
717.230;  -64.894; -339.063; -392.887
717.494;  -30.767;  -40.062; -134.888
717.759;  -99.590; -784.062; -640.888
718.024;    4.961;  269.938;  250.112
718.288;   70.688;  685.938;  395.111
718.553; -145.510; -803.062; -977.889
718.817; -151.233; -883.061; -899.889
719.082;  -36.806; -115.061; -125.890
719.346; -134.555;-1000.061; -947.890
719.611;  -50.903; -300.061; -255.891
719.875; -100.001; -568.060; -537.891
720.140;  -56.249; -453.060; -603.891
720.404;   25.428; -136.060; -249.892
720.668;  779.654; -475.060; -411.892
720.933;  316.481;  146.940;  137.108
721.197; -104.542; -667.059; -600.893
721.461; -138.815; -851.059; -826.893
721.725;  -14.738;  -21.059; -250.894
721.990;  -61.361; -284.059; -204.894
722.254;  -33.235;  -26.059; -108.894
722.518;  -75.208; -286.058; -442.895
722.782;  -91.606; -743.058; -594.895
723.046;  113.396;  614.942;  570.105
723.310;   17.123;  374.942;  210.104
723.574; -104.051; -654.058; -614.896
723.838; -113.774; -576.057; -642.897
724.102;  -35.547; -226.057; -239.897
724.366; -138.395;-1032.057; -978.897
724.630; -110.743; -749.057; -571.898
724.894;  -83.767; -722.057; -514.898
725.158;   -7.590;   38.944; -295.898
725.422;  -51.588; -394.056; -327.899
725.685;  -63.986; -441.056; -349.899
725.949;  -83.709; -566.056; -519.900
726.213;  -67.558; -732.056; -811.900
726.477;  142.144;-1020.055; -933.900
726.740;  133.146; -274.055; -104.901
727.004;  307.623; -384.055; -510.901
727.268; 3395.100; -442.055; -400.901
727.531;  924.726; -961.055; -775.902
727.795;  -30.397; -713.054; -673.902
728.059;  -63.470; -552.054; -557.903
728.322;  -76.193; -841.054; -669.903
728.586;   16.609; -692.054; -701.903
728.849;  -85.489; -695.053; -756.904
729.112; -110.563; -812.053; -912.904
729.376; -129.511; -959.053; -905.904
729.639;  -76.359; -536.053; -536.905
729.903; -115.482; -733.053; -699.905
730.166;  -49.280; -437.052; -399.906
730.429;  -29.579; -317.052; -468.906
730.693;  -68.702; -355.052; -894.906
730.956;  207.600;  810.948;  651.093
731.219;  662.777; -310.052; -103.907
731.482;  117.279;-1003.051; -894.907
731.745;  100.455; -794.051; -935.908
732.009;   14.382;  -30.051;   50.092
732.272;  -99.341; -904.051; -771.909
732.535;  -35.939; -300.051; -310.909
732.798; -167.637;-1083.050;-1166.909
733.061;  -60.936; -430.050; -456.910
733.324;    7.316;   31.950; -180.910
733.587;   65.843;  290.950;  365.090
733.850;  -79.830; -973.049;-1050.911
734.113;   18.047;   33.951;   32.089
734.376;    4.448; -328.049; -447.912
734.639;  205.300; 1188.951; 1011.088
734.901;   61.627; -180.049; -402.912
735.164;  473.004; -883.048; -837.913
735.427; 1229.331; -166.048; -355.913
735.690;  125.608; -205.048; -234.913
735.952;  -35.766; -923.048; -925.914
736.215;  -23.689;-1113.048;-1009.914
736.478;   15.388; -771.047; -774.915
736.740;  205.065;   33.953;  129.085
737.003;  626.717; -658.047; -672.915
737.266; 3767.668;  -94.047;   46.084
737.528;  410.920; -682.047; -660.916
737.791;  308.147; -316.046; -327.916
738.053;  803.999;  465.954;  649.083
738.316;10903.101; -162.046; -136.917
738.578; 7575.552; -770.046; -736.918
738.841;  465.054; -382.046; -446.918
739.103;  163.681; -875.045; -777.918
739.365;  486.683;   79.955;  -69.919
739.628;    8.335; -884.045; -805.919
739.890;  -19.814; -758.045; -710.919
740.152;  -53.162; -692.044; -754.920
740.414;  -13.660; -408.044; -359.920
740.677;  -55.483; -785.044; -634.921
740.939;  -52.731; -587.044; -487.921
741.201;  244.770; -432.044; -572.921
741.463;   23.797; -689.043; -745.922
741.725;    5.724;  -21.043; -199.922
741.987;   60.001;  220.957;  116.078
742.249;   -8.322; -751.043; -859.923
742.511;  203.904; -703.043; -794.923
742.773;    7.306; -546.042; -546.924
743.035;  123.908;  796.958;  533.076
743.297;  -42.640; -963.042;-1013.924
743.559;  710.262; -278.042; -262.925
743.821;   45.039; -735.042; -744.925
744.083;    6.565;  -44.041; -149.925
744.345; -105.133; -869.041; -892.926
744.607;   39.194;   75.959;  122.074
744.868;  -62.804; -490.041; -554.927
745.130; -114.777; -994.041;-1008.927
745.392;   25.399;   -1.040;  -44.927
745.653;  -14.599; -411.040; -378.928
745.915;  146.378;  896.960;  631.072
746.177;   55.655;   35.960;  -43.928
746.438;   -8.893; -428.040; -543.929
746.700;  -37.217; -947.039; -988.929
746.961;   -1.640; -659.039; -740.930
747.223;  127.237; -190.039;  -74.930
747.484;   82.589; -391.039; -471.930
747.746;  143.791;  -23.038; -106.931
748.007;   94.967; -647.038; -689.931
748.269;  281.444; -468.038; -440.931
748.530;  455.346; -852.038; -638.932
748.791;  249.798; -354.038; -420.932
749.053;  404.150;  286.963;  163.067
749.314;  443.376; -236.037; -169.933
749.575;  479.078; -945.037; -905.933
749.836;  835.480; -217.037;   86.066
750.098; 2382.307;  -60.037;  -21.934
750.359;35448.634;  414.964;  555.066
750.620; 8929.936; -121.036; -220.935
750.881;  989.487; -585.036; -513.935
751.142; 1279.114; -950.036; -938.936
751.403;16594.441; -789.036; -705.936
751.664; 7268.668;-1034.035; -999.936
751.925;  488.845; -175.035; -262.937
752.186;  241.321; -298.035; -278.937
752.447;  129.448; -590.035; -445.937
752.708;   44.625; -532.035; -648.938
752.969;   -0.473; -566.034; -576.938
753.230;  -11.571; -777.034; -672.939
753.491;  -13.720; -650.034; -631.939
753.751;   58.207;  109.966;   19.061
754.012;   92.059;  258.967;  181.060
754.273;   48.736; -174.033;  -71.940
754.534;   -2.412; -487.033; -580.940
754.794;  -99.211; -926.033; -911.941
755.055;  135.191; 1051.967;  881.059
755.316;  -48.132; -700.032; -566.942
755.576;  -18.105; -606.032; -576.942
755.837;  -53.328; -527.032; -695.942
756.097;  -44.477; -530.032; -564.943
756.358;  -81.350; -725.032; -770.943
756.618;  -54.148; -705.031; -641.943
756.879;    5.029; -254.031; -349.944
757.139; -128.419;-1098.031;-1116.944
757.400;  -66.467; -538.031; -553.945
757.660;  -33.891; -365.031; -401.945
757.920;    1.186; -266.030; -228.945
758.181;  -10.637; -468.030; -351.946
758.441; -103.760; -870.030; -809.946
758.701;  -36.758; -308.030; -215.946
758.961;  -23.607; -220.030; -278.947
759.222;  -48.055; -574.029; -502.947
759.482;  -74.003; -683.029; -723.948
759.742;  -79.326; -706.029; -547.948
760.002;    9.876;  -83.029; -143.948
760.262;   25.977;   50.972;  182.051
760.522;  -44.746; -498.028; -574.949
760.782;  -68.094; -738.028; -612.949
761.042;  -40.192; -618.028; -573.950
761.302;   53.910;   55.972;  -18.950
761.562;   44.661; -164.027; -154.951
761.822;   90.263; -710.027; -551.951
762.082;  -46.460;-1104.027;-1093.951
762.342;   64.642; -328.027; -403.952
762.601;   70.244; -567.027; -506.952
762.861;  349.995; -281.026; -207.952
763.121;  388.622; -406.026; -411.953
763.381; 7368.099; -499.026; -485.953
763.640; 7985.751; -139.026; -307.954
763.900;  351.453; -242.026; -203.954
764.160;   73.630; -458.025; -491.954
764.419;  -23.569; -726.025; -782.955
764.679;  -86.817; -795.025; -726.955
764.939;   -4.665; -124.025; -210.955
765.198;  -78.488; -608.025; -563.956
765.458;  -79.486; -710.024; -612.956
765.717;  -92.260; -454.024; -590.957
765.976;  -58.983; -428.024; -411.957
766.236;  -71.956; -475.024; -610.957
766.495;   22.421;  260.977;   73.042
766.755; -102.352;-1090.023; -987.958
767.014;    5.149; -594.023; -665.958
767.273;  -63.074; -373.023; -397.959
767.533;  -42.597; -228.023; -307.959
767.792;  -38.295; -151.022; -188.960
768.051;  -49.268; -228.022; -276.960
768.310;  -85.992; -546.022; -650.960
768.569;  -15.490; -161.022;    4.039
768.828;  -27.738; -285.022; -363.961
769.088; -118.736;-1050.021; -942.961
769.347;  -94.259; -755.021; -599.962
769.606;  -84.708; -876.021; -857.962
769.865; -130.731;-1016.021;-1033.963
770.124;   -3.954; -411.021; -336.963
770.383;  -65.077; -778.020; -910.963
770.641;    0.675; -398.020; -400.964
770.900;  -64.324; -953.020; -846.964
771.159;  -47.147; -851.020; -951.964
771.418;   -9.645; -917.020; -779.965
771.677;  126.082; -224.019; -293.965
771.936;  142.434; -794.019; -865.966
772.194; 2265.411; -465.019; -437.966
772.453;11215.487; -213.019; -391.966
772.712;  774.989;  416.982;  329.033
772.970;  109.766;   32.982;   63.033
773.229;   75.893;  -22.018;  102.033
773.488;  -91.730; -814.018; -770.968
773.746;   61.696;  296.982;  335.032
774.005;    6.473;  190.983;  -22.969
774.263;   19.500;  243.983;  177.031
774.522;  -44.898; -422.017; -548.969
774.780;  -73.796; -484.017; -417.970
775.039;  -82.445; -551.017; -531.970
775.297;  -24.668; -135.016; -351.970
775.555; -105.016; -489.016; -612.971
775.814; -120.539; -618.016; -570.971
776.072; -129.037; -749.016; -740.971
776.330; -114.136; -630.016; -520.972
776.589; -126.834; -703.015; -721.972
776.847; -112.857; -645.015; -624.973
777.105; -163.030;-1016.015;-1032.973
777.363;  -94.428; -459.015; -454.973
777.621; -140.277; -660.015; -717.974
777.879;  -14.125;  -42.014;   32.026
778.138;  -95.798; -554.014; -717.974
778.396; -101.321; -585.014; -526.975
778.654; -164.344;-1015.014; -970.975
778.912;  -61.267; -269.014; -371.976
779.170; -139.016; -880.013; -803.976
779.427; -149.139; -922.013; -897.976
779.685; -150.012; -880.013; -832.977
779.943;  -82.935; -654.013; -593.977
780.201; -157.933; -964.012; -883.978
780.459; -112.982; -651.012; -610.978
780.717; -101.430; -440.012; -390.978
780.974;  -94.928; -449.012; -490.979
781.232;  -62.701; -358.012; -338.979
781.490;  -90.999; -551.011; -472.979
781.747; -107.848; -555.011; -476.980
782.005;   35.079;  462.989;  254.020
782.263; -175.369; -542.011;-1004.981
782.520;  -90.367; -326.011; -501.981
782.778; -172.765;-1013.010;-1051.981
783.035; -169.589; -962.010; -938.982
783.293;  -73.887; -248.010; -206.982
783.550;  -58.385; -134.010; -198.982
783.808; -135.583; -764.010; -776.983
784.065; -153.881; -745.009; -874.983
784.322;  -50.730;   25.991;  -86.984
784.580; -145.903; -915.009; -771.984
784.837;  -90.701; -392.009; -466.984
785.094; -140.474; -783.009; -762.985
785.352;  -67.547; -304.008; -404.985
785.609; -115.195; -934.008; -839.985
785.866;  -94.344; -345.008; -401.986
786.123;  -83.942; -639.008; -583.986
786.380; -116.190; -665.008; -604.987
786.637;  -38.313; -225.007; -380.987
786.895;  -29.661; -456.007; -543.987
787.152;  -44.535; -135.007; -267.988
787.409;  -54.408; -123.007; -225.988
787.666;  -95.131; -299.006; -378.988
787.923; -116.154; -616.006; -695.989
788.179; -110.527; -551.006; -584.989
788.436; -120.776; -585.006; -585.990
788.693;  -25.024;  -92.006;  -87.990
788.950;  127.603; -125.005; -112.990
789.207;  191.430; -381.005; -372.991
789.464;  -57.118; -161.005; -301.991
789.720;    3.708;  150.995;  110.009
789.977; -179.965;-1003.005; -671.992
790.234;  -24.713;   44.996;  -66.992
790.490; -156.986; -884.004;-1031.993
790.747;  -37.634;  -85.004;   22.007
791.004;  -32.558; -426.004; -348.993
791.260;  -75.931; -430.004; -560.994
791.517;  -90.229; -843.003; -788.994
791.773;  -64.727; -379.003; -342.994
792.030; -108.050; -596.003; -660.995
792.286;  -92.398; -686.003; -636.995
792.543;  -21.222;  -74.002; -159.995
792.799;  -57.970; -584.002; -382.996
793.055; -160.743;-1179.002;-1210.996
793.312;  -93.891; -827.002; -816.997
793.568;  -68.964; -746.002; -599.997
793.824;   24.962; -226.001; -284.997
794.081;    5.864; -447.001; -508.998
794.337;   68.516; -664.001; -561.998
794.593; 1309.543; -319.001; -271.999
794.849; 6420.195; -746.001; -772.999
795.105;  316.671; -270.000; -261.999
795.361;    8.848; -490.000; -457.000
795.617;  -69.725; -875.000; -945.000
795.873;  -71.900; -360.000; -407.000
796.129;  -30.975; -368.000; -306.000
796.385;  -30.525; -124.000; -156.000
796.641;   68.925;  412.000;  550.000
796.897;  -86.150; -666.000; -635.000
797.153;   66.175;  453.000;  357.000
797.409;  -99.875; -785.000; -868.000
797.665;  -85.950; -625.000; -732.000
797.921;  -69.525; -775.000; -762.000
798.176;  -61.475; -744.000; -747.000
798.432;  -42.125; -824.000; -596.000
798.688;  -82.225;-1174.000;-1078.000
798.943;   80.625; -165.000; -147.000
799.199;   12.825;-1005.000; -959.000
799.455;  221.400;  369.000;  316.000
799.710;  124.125; -813.000; -380.000
799.966;  306.725; -162.000; -160.000
800.221;  473.050; -638.000; -721.000
800.477;10522.675; -743.000; -710.000
800.732; 9276.525; -773.000; -800.000
800.988;  651.550;  205.000;  -19.000
801.243; 1885.550; -454.000; -344.000
801.498; 8203.925; -814.000; -739.000
801.754;  475.550; -289.000; -163.000
802.009;   85.450; -257.000; -335.000
802.264;  -56.450; -967.000;-1033.000
802.520;   26.775;  222.000;   -3.000
802.775;  -50.275; -524.000; -359.000
803.030;   56.950;  395.000;  356.000
803.285; -117.225; -840.000; -903.000
803.540;  -57.100; -686.000; -699.000
803.795;  -54.075; -648.000; -583.000
804.051;  -35.375; -279.000; -346.000
804.306;   35.625;  168.000;  128.000
804.561;  124.500;  451.000;  362.000
804.816;  130.525;  714.000;  861.000
805.071;    3.675; -185.000; -280.000
805.325;  188.725; -257.000; -427.000
805.580; -103.700; -841.000; -877.000
805.835;  -13.675; -204.000; -297.000
806.090;  -69.400; -760.000; -676.000
806.345;  -12.025; -344.000; -264.000
806.600;  -28.400; -549.000; -632.000
806.854;  -35.100; -408.000; -538.000
807.109;   -8.050; -493.000; -577.000
807.364;    4.575; -407.000; -328.000
807.618;   -6.850; -415.000; -381.000
807.873;   35.350; -470.000; -494.000
808.128;   82.475; -257.000; -518.000
808.382;  107.000; -224.000; -332.000
808.637;   68.550; -440.000; -511.000
808.891;  175.025; -257.000; -180.000
809.146;  109.025; -902.000; -794.000
809.400;  242.850; -848.000; -923.000
809.654;  327.400; -779.000; -551.000
809.909;  470.200; -841.000; -927.000
810.163; 6342.175; -813.000; -651.000
810.418;16394.425; -940.000; -861.000
810.672; 1018.600; -685.000; -690.000
810.926;  704.000; -993.000; -973.000
811.180; 1370.325; -439.000; -372.000
811.434;31928.875;  240.000;  135.000
811.689;12857.275; -231.000; -365.000
811.943;  631.000; -936.000; -953.000
812.197;  317.725; -893.000; -671.000
812.451;  121.675; -379.000; -514.000
812.705;  -24.075; -809.000; -619.000
812.959;  -14.950; -263.000; -388.000
813.213;    0.350; -283.000; -209.000
813.467;   70.775;  470.000;  253.000
813.721; -103.350; -764.000; -792.000
813.975; -123.625; -826.000; -877.000
814.229;   47.200;  430.000;  353.000
814.482;  -83.875; -517.000; -566.000
814.736; -141.225; -766.000; -744.000
814.990; -133.125; -779.000; -872.000
815.244;  -49.475; -228.000; -285.000
815.497;  -85.100; -636.000; -601.000
815.751;   -0.375; -141.000;   82.000
816.005;  -96.900; -470.000; -586.000
816.258;  -62.350; -510.000; -363.000
816.512; -103.350; -693.000; -610.000
816.766;   13.450;  121.000;  157.000
817.019;   16.450;  148.000;  149.000
817.273; -116.175;-1000.000; -802.000
817.526;  -37.450; -206.000; -173.000
817.779;  -48.650;-1049.000; -960.000
818.033;  -86.975; -693.000; -807.000
818.286; -116.175; -725.000; -792.000
818.540;  -99.850; -403.000; -403.000
818.793;  -74.575; -402.000; -489.000
819.046; -121.275; -582.000; -520.000
819.299;  -47.350; -157.000; -166.000
819.553; -113.000; -552.000; -592.000
819.806; -169.625;-1016.000; -838.000
820.059;  -76.600; -334.000; -354.000
820.312;    7.000;  152.000;  185.000
820.565;  -27.400;  110.000;  -27.000
820.818;  -52.350;  -59.000; -173.000
821.071; -163.500;-1041.000; -957.000
821.324; -118.150; -536.000; -540.000
821.577;  -94.600; -457.000; -483.000
821.830;  -59.000; -270.000; -172.000
822.083; -133.700; -733.000; -288.000
822.336;  -54.350; -261.000; -167.000
822.589; -134.825; -805.000; -688.000
822.842; -149.825; -875.000; -770.000
823.094; -191.875;-1076.000;-1114.000
823.347; -140.450; -925.000; -729.000
823.600;    0.775;  402.000;  187.000
823.853;  -64.275; -311.000; -267.000
824.105;  -85.125; -331.000; -575.000
824.358; -128.300; -617.000; -716.000
824.611;   15.725;  234.000;   40.000
824.863;  -47.200; -612.000; -591.000
825.116;   38.550;  -33.000;   27.000
825.368;   79.200; -366.000; -372.000
825.621;  148.675; -186.000; -240.000
825.873;   78.800; -704.000; -737.000
826.126;  581.300; -669.000; -641.000
826.378;11513.300; -389.000; -505.000
826.630; 2792.625; -890.000; -898.000
826.883;   36.100; -754.000; -693.000
827.135;   36.975; -279.000; -270.000
827.387; -100.850; -893.000; -839.000
827.639;  -21.375;  -86.000;   32.000
827.892; -130.900; -742.000; -582.000
828.144; -154.150; -848.000; -804.000
828.396;  -41.975;  104.000;  -80.000
828.648; -103.350; -440.000; -333.000
828.900; -144.875; -702.000; -795.000
829.152; -124.725; -684.000; -683.000
829.404;  -57.500; -215.000; -267.000
829.656;  -53.500;  321.000;  214.000
829.908;  -22.875;  393.000;  229.000
830.160; -159.725;-1064.000;-1047.000
830.412; -105.625; -481.000; -430.000
830.664; -130.025; -557.000; -665.000
830.916;  -77.275; -268.000; -206.000
831.167; -177.450;-1073.000; -951.000
831.419; -101.100; -623.000; -566.000
831.671; -149.775; -764.000; -809.000
831.923;  -85.375; -311.000; -447.000
832.174;  -85.000; -273.000; -331.000
832.426; -128.050; -493.000; -582.000
832.678; -200.700;-1043.000;-1091.000
832.929; -151.725; -947.000; -935.000
833.181;  -77.650; -575.000; -677.000
833.432;  -41.425;  -59.000; -186.000
833.684;  -12.825;  112.000;  -27.000
833.935; -105.450; -610.000; -566.000
834.187; -141.375; -829.000; -823.000
834.438;  -45.825;  -58.000;  -25.000
834.689;  -51.475; -255.000; -123.000
834.941;  -61.300; -343.000; -244.000
835.192; -107.750; -590.000; -533.000
835.443;  -97.650; -419.000; -506.000
835.695;  -18.050;  138.000;  -16.000
835.946;  -99.475; -608.000; -378.000
836.197; -130.675; -599.000; -622.000
836.448;  -90.450; -528.000; -395.000
836.699;  -66.700; -253.000; -341.000
836.950;  -13.975;   72.000;    7.000
837.201; -148.075;-1003.000; -987.000
837.452;  -63.325; -356.000; -170.000
837.703; -112.975; -791.000; -737.000
837.954;  -39.025; -205.000; -365.000
838.205;  -81.450;-1029.000;-1008.000
838.456;  154.575; -196.000; -282.000
838.707;   -7.025; -423.000; -519.000
838.958;   -0.475; -634.000; -647.000
839.209;  251.025;   18.000;   40.000
839.460;   97.900; -439.000; -201.000
839.710;  151.875; -135.000; -297.000
839.961;  404.850;  730.000;  612.000
840.212;  325.100; -382.000; -497.000
840.462; 1101.775; -328.000; -277.000
840.713;17744.800; -571.000; -536.000
840.964; 7173.875;  -62.000; -143.000
841.214;  473.625; -384.000; -624.000
841.465;  536.275; -214.000; -141.000
841.715;  489.150; -417.000; -380.000
841.966;  619.850; -746.000; -685.000
842.216; 8529.000; -330.000; -431.000
842.466;32686.650; -169.000; -313.000
842.717; 1802.100; -964.000; -952.000
842.967;  292.825; -635.000; -641.000
843.217;  241.325;   20.000;   28.000
843.468;   39.200; -104.000; -132.000
843.718;  -49.800; -718.000; -726.000
843.968;  -96.250; -837.000; -765.000
844.218;   14.925; -315.000; -262.000
844.469;  -46.725; -577.000; -561.000
844.719; -116.125; -537.000; -682.000
844.969;  -82.675; -550.000; -580.000
845.219; -145.125; -814.000; -862.000
845.469;  -84.625; -392.000; -342.000
845.719; -141.925; -792.000; -884.000
845.969;  -31.350;  119.000;  174.000
846.219; -132.675; -738.000; -720.000
846.469;   18.925;  464.000;  432.000
846.718;  -47.175; -115.000;   31.000
846.968; -133.325; -827.000; -827.000
847.218;  -47.750; -224.000; -371.000
847.468;    2.375; -586.000; -555.000
847.718; -150.150; -827.000; -798.000
847.967; -136.750; -826.000; -915.000
848.217; -106.525; -449.000; -569.000
848.467;  -62.475; -405.000; -376.000
848.716; -113.900; -708.000; -725.000
848.966;   10.300; -372.000; -358.000
849.215;  -60.650; -428.000; -419.000
849.465; -104.125; -785.000; -615.000
849.714; -164.850;-1132.000;-1150.000
849.964;  -68.225; -551.000; -613.000
850.213;  -33.300; -393.000; -355.000
850.463;   85.200;  137.000;  340.000
850.712;    0.775; -542.000; -567.000
850.961;   13.750; -739.000; -678.000
851.211;  106.175; -513.000; -504.000
851.460;  158.325; -635.000; -650.000
851.709;  548.475;  -25.000;   18.000
851.958;10316.750; -912.000; -750.000
852.208;12715.500; -859.000; -879.000
852.457;  467.250; -181.000;  -13.000
852.706;   55.800; -791.000; -823.000
852.955;   13.700; -507.000; -528.000
853.204;  -77.600; -521.000; -461.000
853.453;  -72.300; -418.000; -458.000
853.702; -132.375; -660.000; -750.000
853.951; -101.375; -532.000; -520.000
854.200; -129.925; -613.000; -562.000
854.449; -141.825; -695.000; -661.000
854.698;  -93.550; -340.000; -279.000
854.946;  -75.275; -181.000; -284.000
855.195; -161.325; -843.000; -868.000
855.444; -107.175; -395.000; -420.000
855.693; -133.950; -345.000; -432.000
855.941; -120.850; -387.000; -516.000
856.190;  -62.325; -256.000; -382.000
856.439; -129.250; -652.000; -703.000
856.687;  -59.950;  -99.000;  -72.000
856.936; -124.000; -621.000; -323.000
857.184; -198.850;-1067.000;-1020.000
857.433; -101.925; -423.000; -512.000
857.681; -174.000; -989.000; -953.000
857.930;  -91.275; -282.000; -433.000
858.178; -175.925; -856.000; -929.000
858.427; -154.850; -802.000; -781.000
858.675; -126.575; -377.000; -544.000
858.923; -110.150; -527.000; -819.000
859.172; -192.050;-1094.000;-1070.000
859.420;  -88.675; -339.000; -239.000
859.668; -141.350; -624.000; -628.000
859.916;  -26.100;  109.000;  115.000
860.164; -123.150; -699.000; -603.000
860.413;  258.200; -878.000; -696.000
860.661;  195.775; -709.000; -577.000
860.909;  -89.475; -339.000; -325.000
861.157;  -91.750; -277.000; -444.000
861.405; -127.475; -534.000; -670.000
861.653;   -3.725;  310.000;  310.000
861.901;  151.100; -543.000; -613.000
862.149;  -17.425; -801.000; -824.000
862.396;  -82.575; -297.000; -187.000
862.644;  -99.625; -368.000; -347.000
862.892;  -49.425;   98.000;  138.000
863.140; -117.125; -549.000; -530.000
863.388; -176.925; -815.000; -759.000
863.635; -133.325; -642.000; -601.000
863.883;  -14.150;  231.000;  190.000
864.131; -117.425; -288.000; -357.000
864.378; -133.275; -675.000; -540.000
864.626; -115.375; -347.000; -415.000
864.873; -119.350; -556.000; -505.000
865.121; -147.325; -714.000; -799.000
865.368;  -45.500; -173.000;   75.000
865.616;  -55.450;  -33.000;  -40.000
865.863;  -78.900; -462.000; -506.000
866.111; -126.950; -795.000; -824.000
866.358;   33.975; -426.000; -420.000
866.605; 2446.675;  -64.000; -804.000
866.853; 2476.150; -621.000; -537.000
867.100;  -46.625; -728.000; -775.000
867.347; -109.950; -672.000; -611.000
867.594;  -83.275; -740.000; -714.000
867.841;   70.750;   97.000;   17.000
868.089; -155.250; -746.000; -698.000
868.336; -109.400; -477.000; -420.000
868.583; -144.275; -637.000; -741.000
868.830;  -47.800; -131.000; -170.000
869.077; -168.925; -859.000; -787.000
869.324; -130.175; -502.000; -458.000
869.571; -155.025; -398.000; -430.000
869.818; -119.850; -485.000; -439.000
870.065; -120.850; -439.000; -513.000
870.311; -115.625; -456.000; -542.000
870.558; -105.275; -332.000; -311.000
870.805;  -86.075; -320.000; -384.000
871.052; -115.625; -494.000; -369.000
871.298;  -67.975; -204.000; -131.000
871.545;  -80.025; -151.000; -185.000
871.792;  -91.675; -173.000; -222.000
872.038;  -76.850;   43.000; -126.000
872.285; -123.550; -496.000; -387.000
872.532; -112.425; -357.000; -387.000
872.778;   -3.225;  556.000;  403.000
873.025; -111.850; -384.000; -359.000
873.271;   23.325;  501.000;  578.000
873.517;  -46.575; -133.000; -209.000
873.764;  -43.575; -193.000;  -80.000
874.010;  -74.750; -143.000; -230.000
874.257;  -57.100;  123.000;   90.000
874.503; -136.650; -579.000; -479.000
874.749;  -68.850;   31.000;  275.000
874.995;  -68.900;  -80.000;  -20.000
875.242; -122.525; -540.000; -478.000
875.488; -118.400; -414.000; -439.000
875.734;  -50.000; -106.000; -234.000
875.980;  148.550; -872.000;-1032.000
876.226;  327.325; -157.000; -255.000
876.472;  -13.775;  343.000;  237.000
876.718;  -45.950;  184.000;  158.000
876.964;  -46.175;   56.000;   55.000
877.210; -149.800; -547.000; -677.000
877.456; -137.750; -630.000; -557.000
877.702; -161.825; -821.000; -832.000
877.948; -114.925; -377.000; -497.000
878.193;   -1.225;  361.000;  255.000
878.439; -114.675; -487.000; -472.000
878.685; -107.950; -272.000; -343.000
878.931; -133.475; -618.000; -676.000
879.176;  -86.025; -201.000; -201.000
879.422; -176.000; -933.000; -820.000
879.668;   54.175;   10.000;   79.000
879.913;  103.800;   53.000;  137.000
880.159;  -56.100; -112.000;  -17.000
880.404;  -57.375; -152.000; -162.000
880.650;  -51.375;   91.000;  141.000
880.895; -165.275; -670.000; -710.000
881.141; -126.600; -454.000; -428.000
881.386; -148.950; -503.000; -658.000
881.631;  -81.825; -311.000; -166.000
881.877;  -61.900;  112.000;  -13.000
882.122; -134.350; -684.000; -600.000
882.367;  -93.775; -136.000; -186.000
882.612;  -81.375;  -80.000; -176.000
882.858; -182.075; -877.000; -823.000
883.103; -101.850; -297.000; -267.000
883.348; -158.700; -759.000; -852.000
883.593; -145.775; -677.000; -602.000
883.838;  -64.175; -311.000;  -24.000
884.083;   19.275;  353.000;  288.000
884.328;  -93.375; -564.000; -545.000
884.573;  -56.650; -196.000; -143.000
884.818;  150.475; -694.000; -531.000
885.063;  144.100; -348.000; -315.000
885.308; -117.600; -475.000; -398.000
885.553;  -30.800;  245.000;  325.000
885.797; -136.125; -545.000; -615.000
886.042;  -55.525;    8.000;   58.000
886.287; -106.150; -253.000; -211.000
886.532;  -51.425;   26.000;  204.000
886.776; -100.900; -407.000; -525.000
887.021; -143.900; -621.000; -574.000
887.265; -161.325; -685.000; -689.000
887.510; -140.750; -557.000; -496.000
887.755;  -96.375; -194.000; -164.000
887.999; -149.975; -552.000; -575.000
888.244;  -71.700;  -58.000;  161.000
888.488;   -4.175;  371.000;  393.000
888.732; -128.750; -368.000; -520.000
888.977; -134.050; -622.000; -567.000
889.221; -162.700; -683.000; -659.000
889.465; -136.225; -422.000; -566.000
889.710;  -82.875;  -56.000; -299.000
889.954;    4.875;  579.000;  467.000
890.198; -158.725; -584.000; -707.000
890.442; -164.825; -716.000; -712.000
890.687; -168.825; -800.000; -753.000
890.931;  -96.925; -273.000; -210.000
891.175; -143.050; -502.000; -500.000
891.419;  -74.975; -105.000; -110.000
891.663; -104.325; -239.000; -112.000
891.907; -160.450; -801.000; -545.000
892.151; -189.750; -920.000; -815.000
892.395; -129.750; -274.000; -387.000
892.638;  -23.975;  408.000;  291.000
892.882; -177.950; -780.000; -867.000
893.126;   14.500;  758.000;  558.000
893.370;  -90.900; -167.000; -168.000
893.614; -156.575; -714.000; -715.000
893.857; -110.550; -183.000; -197.000
894.101; -135.250; -527.000; -631.000
894.345;  -61.600;  300.000;  150.000
894.588;   11.350;  569.000;  380.000
894.832;  -86.625; -178.000;  -84.000
895.075;  -85.000;   15.000;  -92.000
895.319; -127.575; -552.000; -420.000
895.563; -128.775; -413.000; -353.000
895.806; -154.400; -628.000; -741.000
896.049;  -86.075; -576.000; -368.000
896.293;   79.500;  527.000;  405.000
896.536;  -89.550; -465.000; -468.000
896.779;  -68.300; -149.000;   -1.000
897.023; -149.175; -751.000; -714.000
897.266;  -31.550;  325.000;  269.000
897.509; -182.100; -900.000; -901.000
897.752;  -37.625;  149.000;  171.000
897.996; -204.050; -972.000; -864.000
898.239;  -54.000;  168.000;  102.000
898.482; -133.525; -431.000; -453.000
898.725;  -36.225;  101.000;   53.000
898.968; -167.300; -609.000; -744.000
899.211; -124.700; -513.000; -361.000
899.454; -128.825; -633.000; -539.000
899.697;  -67.725;   90.000;  -43.000
899.940; -174.425; -761.000; -757.000
900.182; -104.225; -335.000; -405.000
900.425;  -99.225; -150.000; -298.000
900.668;  -17.875;  491.000;  350.000
900.911; -115.425; -292.000; -345.000
901.154;  -56.650;  141.000;   -3.000
901.396; -138.575; -407.000; -412.000
901.639; -152.225; -430.000; -496.000
901.882; -193.325; -790.000; -809.000
902.124;  -87.775;  -29.000; -143.000
902.367; -125.250; -315.000; -361.000
902.609; -134.000; -476.000; -453.000
902.852; -108.075; -108.000; -260.000
903.094; -127.200; -458.000; -337.000
903.337;  -67.325;  -26.000;   53.000
903.579; -115.900; -228.000; -441.000
903.821; -169.975; -597.000; -744.000
904.064;  -72.225;   85.000;  127.000
904.306; -101.375; -126.000; -166.000
904.548; -100.975; -152.000; -366.000
904.790; -124.425; -195.000; -340.000
905.033; -133.025; -625.000; -577.000
905.275; -140.350; -513.000; -524.000
905.517;   38.900;  468.000;  256.000
905.759;  -81.175; -667.000; -761.000
906.001; -101.450; -322.000; -369.000
906.243;  -78.125; -162.000; -224.000
906.485;   95.175; -265.000; -207.000
906.727;   80.575; -499.000; -542.000
906.969;  -39.200;  -30.000; -135.000
907.211;   85.450; -316.000; -382.000
907.453;  246.650; -188.000; -237.000
907.695;   -4.900; -158.000; -385.000
907.936;   39.175;  818.000;  706.000
908.178;  -56.775;   92.000; -135.000
908.420;  -80.350; -111.000; -162.000
908.662; -142.150; -633.000; -682.000
908.903;  -84.225; -208.000; -123.000
909.145;  -66.150; -240.000; -305.000
909.386;   -3.650;  315.000;  280.000
909.628;   22.350;  363.000;  397.000
909.870;   -8.200;   29.000;  264.000
910.111; -109.875; -809.000; -949.000
910.353;    6.300; -123.000; -161.000
910.594;  -19.350; -574.000; -606.000
910.835;   73.825; -265.000; -326.000
911.077;  137.775; -503.000; -604.000
911.318;  268.550; -505.000; -471.000
911.559;  440.250; -577.000; -880.000
911.801; 1327.800; -284.000; -280.000
912.042;10364.800;  -50.000; -159.000
912.283;26685.575;  404.000;  371.000
912.524; 4065.150; -396.000; -457.000
912.765;  459.575; -193.000;   79.000
913.006;  212.275; -307.000; -338.000
913.247;   41.975; -270.000; -290.000
913.488;  -11.650;  -43.000;   30.000
913.729;  -85.000; -373.000; -373.000
913.970;  -69.100;  -96.000; -292.000
914.211;  -81.950; -160.000; -198.000
914.452;  -77.875; -118.000;  -11.000
914.693;    5.100;  510.000;  592.000
914.934;    0.100;  510.000;  440.000
915.175;  -79.400;   53.000;  -95.000
915.415;  -73.350; -137.000;   27.000
915.656;  -81.100;  -28.000;  192.000
915.897;  -97.425; -252.000;  -82.000
916.137;  -69.100;   74.000;   -9.000
916.378; -146.550; -573.000; -517.000
916.619;  -95.450; -159.000;  -63.000
916.859;  -27.200;  303.000;  330.000
917.100;  127.325; 1655.000; 1070.000
917.340;   41.375;  930.000;  728.000
917.581;   51.575;  965.000;  789.000
917.821;  -43.675; -171.000;  143.000
918.061;    0.875; -199.000;  -72.000
918.302;  -69.875; -152.000; -211.000
918.542;  -39.975;  -22.000;    3.000
918.782;   31.950;  369.000;  377.000
919.023;  109.375;  360.000;  427.000
919.263; 1290.850; 8131.000;  202.000
919.503; 1055.950; -137.000;  -54.000
919.743;  579.250;  390.000;  266.000
919.983;  243.700; -134.000;  -26.000
920.223;   71.125;  135.000;   14.000
920.463;  136.825;  631.000;  554.000
920.703;  127.875;   84.000;   39.000
920.943;  174.900; -110.000;   90.000
921.183;  230.450; -414.000; -405.000
921.423;  520.600;  307.000;  546.000
921.663;  754.875; -174.000; -257.000
921.903; 1585.125;  237.000;  173.000
922.143; 8923.075;  372.000;  389.000
922.383;34277.725;  158.000;  115.000
922.622;11520.850; -120.000;  -15.000
922.862; 1216.125;  796.000;  785.000
923.102;  461.775;  -51.000;   33.000
923.341;  197.300;   59.000;   74.000
923.581;   81.525;  450.000;  360.000
923.821;   26.850;  301.000;  398.000
924.060;    1.450;  351.000;  193.000
924.300;  -59.000;  -16.000; -128.000
924.539;  -17.100;  584.000;  473.000
924.779;    1.200;  812.000;  597.000
925.018;  -44.450;  247.000;  353.000
925.257;  -23.650;  595.000;  666.000
925.497;  -64.300;  447.000;  412.000
925.736;  -76.025;  -35.000;  102.000
925.975;  -15.150;  687.000;  669.000
926.214;   25.325;  907.000;  850.000
926.454;    8.300;  706.000;  757.000
926.693;  -49.975;  419.000;  543.000
926.932;   25.150; 1021.000;  825.000
927.171;   80.025; 1107.000; 1044.000
927.410;   62.700; 1144.000;  967.000
927.649;   19.500;  924.000;  742.000
927.888;  -19.200;  590.000;  564.000
928.127;   -7.050;  680.000;  678.000
928.366;   27.475;  842.000;  826.000
928.605;   35.050;  831.000;  737.000
928.844;  221.825; 1451.000; 1393.000
929.083;  576.425;  770.000;  613.000
929.321;  313.725; 1335.000; 1359.000
929.560;   79.825; 1158.000; 1122.000
929.799;  -35.275;  574.000;  475.000
930.038;   83.700; 1025.000; 1394.000
930.276;  -56.925;  334.000;  397.000
930.515;   -2.550;  827.000;  681.000
930.753;  -35.775;  614.000;  589.000
930.992;  -24.925;  664.000;  717.000
931.230;  -15.775;  847.000;  847.000
931.469;  173.025; 2162.000;  892.000
931.707;   67.300;  840.000;  751.000
931.946;   67.875; 1278.000; 1344.000
932.184;   60.000; 1437.000; 1175.000
932.423;   42.375; 1265.000;  963.000
932.661;   80.100; 1296.000; 1428.000
932.899;   27.850;  987.000;  821.000
933.137;    7.450;  754.000;  564.000
933.376;  151.000; 1664.000; 1335.000
933.614;  143.050; 1759.000; 1196.000
933.852;   62.200; 1357.000; 1171.000
934.090;  136.000; 1722.000; 1747.000
934.328;  110.950; 1252.000; 1457.000
934.566;   85.050; 1431.000; 1110.000
934.804;  137.950; 1263.000; 1309.000
935.042;  480.175; 1861.000; 1850.000
935.280; 1932.725; 2088.000; 2063.000
935.518; 1794.475; 2113.000; 2007.000
935.756;  393.225; 2481.000; 2316.000
935.994;  172.350; 1808.000; 1751.000
936.231;  332.550; 2890.000; 2950.000
936.469;  208.600; 2367.000; 2378.000
936.707;  171.950; 2220.000; 2167.000
936.945;  212.550; 2825.000; 2882.000
937.182;  206.250; 2679.000; 2741.000
937.420;  297.550; 3602.000; 3031.000
937.657;  415.125; 3365.000; 3478.000
937.895;  343.450; 3331.000; 3488.000
938.133;  324.750; 3540.000; 3528.000
938.370;  326.950; 3896.000; 4191.000
938.607;  393.750; 4488.000; 4205.000
938.845;  544.625; 5587.000; 5549.000
939.082;  473.500; 5387.000; 5177.000
939.320;  541.875; 5799.000; 5728.000
939.557;  643.350; 6549.000; 6491.000
939.794;  722.275; 7285.000; 7097.000
940.031;  888.200; 8421.000; 8368.000
940.269; 1090.850; 9552.000; 9107.000
940.506; 1113.625;10901.000;10507.000

