
Integration time [ms]: 100.000
Averaging Nr. [scans]: 40
Smoothing Nr. [pixels]: 0
Data measured with spectrometer [name]: 2101013U2
Wave   ;Sample   ;Dark     ;Reference
[nm]   ;[counts] ;[counts] ;[counts] 

394.013;   30.443; -450.257; -315.536
394.305;  167.191; -461.258; -419.536
394.596; 1107.138; -676.269; -527.514
394.887; 2785.780; -796.268; -654.518
395.178; 1082.185;  145.736;   11.476
395.470;   58.647; -210.263; -356.526
395.761;  177.520;  305.734;  394.479
396.052;  220.938; -545.284; -306.489
396.343;  218.933; -557.276; -454.503
396.634;   95.702; -200.279; -290.497
396.926;   76.327; -618.268; -565.517
397.217;   99.662;   11.725;  -17.504
397.508;   36.678; -366.273; -154.507
397.799;   20.377; -555.279; -571.497
398.090;  -10.179; -973.280; -902.495
398.381;   90.588;   11.708;  -11.473
398.672;  -21.036; -585.292; -742.473
398.963;   45.158; -348.279; -373.498
399.254;   89.498;   54.709; -209.475
399.545;  -43.584;-1017.266; -883.520
399.836;   55.122; -407.277; -343.501
400.127;   41.164; -205.295; -209.468
400.418;   32.473; -423.274; -392.506
400.709;   42.383; -359.281; -333.493
401.000;   45.652; -268.291; -309.476
401.290;  105.276;  225.698;  115.545
401.581;   52.296; -166.286; -228.485
401.872;   20.336; -542.298; -486.462
402.163;   40.682; -313.296; -252.467
402.454;   80.824; -123.291; -163.475
402.744;   48.748; -844.297; -813.465
403.035;  363.329; -226.293;  -86.471
403.326;  495.992; -366.292; -384.474
403.617;  344.905;  204.701;  165.539
403.907;  241.844; -593.283; -679.490
404.198; 2461.605; -545.307; -599.446
404.489; 6384.124; -618.283; -588.491
404.779; 2100.129; -618.302; -660.456
405.070;  220.783;  -67.304; -174.451
405.360;  343.156; -259.293; -238.472
405.651;  356.765;  125.699;   98.542
405.942;  171.466;  209.714;  127.516
406.232;  199.355; -432.285; -413.487
406.523;  416.524;  641.706;  758.530
406.813;   65.668; -579.286; -644.484
407.104;  280.837;  261.708;  144.527
407.394;  129.932; -604.299; -591.462
407.685;  148.105;  336.715;  222.513
407.975;   63.822; -400.283; -382.490
408.265;  104.963; -134.289; -190.478
408.556;   58.646; -472.291; -459.475
408.846;  173.800;  474.706;  429.530
409.137;   77.022;   -1.288; -216.480
409.427;   53.330; -193.285; -271.487
409.717;   35.131; -776.273; -692.508
410.007;  127.124;    4.715; -170.486
410.298;   89.642; -360.295; -342.469
410.588;   54.103; -495.285; -510.486
410.878;   20.708; -792.287; -873.482
411.168;  113.439; -481.298; -478.463
411.459;  105.967; -295.283; -242.489
411.749;   40.469; -609.292; -507.474
412.039;   34.045; -755.289; -386.480
412.329;  191.740;   40.722;  132.501
412.619;  176.018;  -62.286; -148.485
412.909;  372.966;  639.711;  594.521
413.199;  297.696; -130.280; -251.495
413.490;  375.906;  521.710;  352.523
413.780;  133.550;-1013.279; -913.496
414.070;  304.809;  -46.276;  235.497
414.360;  329.911; -729.278; -666.498
414.650;  420.179; -726.288; -688.482
414.940;  531.149; -538.280; -441.496
415.230;  927.201;   50.712;   74.519
415.520; 6193.537;  155.730;   66.486
415.809;24183.208; -305.281; -125.493
416.099;19027.674; -388.277; -229.501
416.389; 5366.870;  435.726;  236.494
416.679; 3165.350;   91.738;   85.473
416.969;  529.212; -527.287; -503.483
417.259;  597.452;  341.721;  171.503
417.549;  685.206;  522.718;  318.508
417.838; 1692.954; -205.268; -147.518
418.128; 5620.762;  650.710;  492.522
418.418; 4786.938; -491.272; -579.509
418.708; 3191.371;    9.726;  -48.506
418.997;12000.991; -474.275; -480.505
419.287;12649.127; -733.273; -790.507
419.577;12043.691; -160.283; -123.489
419.866;39559.147; -588.277; -498.501
420.156;40278.533; -242.270;  -55.513
420.446; 7278.168; -112.263;  -26.526
420.735;  801.227; -376.271; -446.512
421.025;  821.060; 1830.722;  315.502
421.314;  594.500; -203.271; -226.512
421.604; 1197.972;   89.732;  233.484
421.893;  687.372; -705.271; -602.511
422.183;  228.768; -487.263; -461.526
422.472;  365.998;  -36.271; -107.511
422.762;  422.597; -416.266; -379.521
423.051;  216.959; -916.276; -916.503
423.341;  284.379; -491.273; -439.507
423.630;  395.603; -121.265;   15.477
423.919;  369.416;   58.725;   49.495
424.209;  366.673;  -31.263;   56.473
424.498;  501.802;   68.732;  161.483
424.787; 1122.458; -535.267; -601.518
425.077; 3332.402;   34.735;   29.478
425.366; 4600.404; -734.262; -744.528
425.655;10195.105;  639.727;  259.493
425.945;22960.533; -313.247; -268.554
426.234;12842.202;  117.741;  300.467
426.523; 5147.257;  -86.259; -350.534
426.812; 7098.318;  107.734;  159.480
427.101;10528.018; -127.269; -323.515
427.390;13179.237;  -55.270;  -86.514
427.680; 2810.552; -624.257; -411.538
427.969;  463.387; -330.255; -301.540
428.258;  287.443; -385.257; -477.536
428.547;  503.817;  449.728;  397.490
428.836; 1120.729; -421.253; -398.543
429.125; 1611.859; -199.259;  -72.534
429.414;  745.251; -330.251; -294.548
429.703; 3207.651; -231.251; -213.548
429.992; 9620.455; -938.250; -828.549
430.281; 6328.036; -397.264; -331.524
430.570;  559.092;  -21.252;   32.454
430.859;  487.556;  279.741;  352.466
431.148;  409.554;  636.752;  631.446
431.437;  283.791;  391.748;  367.454
431.725;  149.945; -544.257; -481.536
432.014;  126.936; -845.253; -756.545
432.303;  355.280; -149.239; -105.569
432.592;  562.667; -460.263; -178.525
432.881; 1043.455; -601.248; -437.554
433.169; 6418.013; -343.255;  -61.540
433.458;13058.538;  445.765;  540.424
433.747; 5459.535; -397.261; -289.529
434.036;  834.930; -275.242; -280.564
434.324; 2113.267; -395.249; -379.551
434.613; 3720.224;   40.757;  159.437
434.902; 1245.445;  333.760;  439.433
435.190;  452.828;   75.761;  295.431
435.479;  271.381;  -52.245;   83.441
435.767;   83.414; -411.244; -427.561
436.056;  193.476; -340.242; -294.563
436.345;  356.722; -372.240; -223.568
436.633;  363.463;   60.750;  383.450
436.922;  221.449;  208.760;  414.432
437.210;  471.403; -194.236;    1.426
437.499; 1458.861; -583.235; -432.576
437.787; 1597.678; -339.236;  -10.574
438.075;  426.784;   56.761;  162.430
438.364;  567.937;  -44.238;  250.429
438.652;  338.191; -286.226; -138.592
438.941;  114.405;    3.770;  269.415
439.229;   -1.536; -665.252; -466.545
439.517;   20.120; -160.234;  -85.577
439.806;  -19.743; -501.225; -290.595
440.094;  170.053;  377.766;  650.421
440.382;  123.406; -653.233; -302.580
440.670;  149.136; -361.235; -285.576
440.959;   14.174; -347.223; -170.599
441.247;   59.492; -151.229; -109.587
441.535;   85.068; -266.235;   31.423
441.823;   11.875; -497.234; -305.578
442.111;  163.596;  173.771;  327.412
442.400;  432.630; -628.245; -335.559
442.688; 1100.302; -111.234; -620.579
442.976;  781.737; -786.213; -450.617
443.264;   87.039; -324.224; -364.597
443.552;   79.167; -258.226;   51.408
443.840;  145.767;  602.765;  876.423
444.128;   93.905;  265.767;  269.420
444.416;   -9.951; -694.228; -312.588
444.704;   18.679; -465.219;  -92.605
444.992;   71.795;   -0.226;  240.407
445.280;   29.831; -517.230;  -94.585
445.568;   11.591; -694.212; -396.618
445.856;  297.013; -174.221;  357.398
446.143;  595.475;  -54.220;   -7.604
446.431;  507.327;  -25.228;  625.411
446.719;  225.273;  489.783;  675.391
447.007;  187.350;  481.769;  705.416
447.295;  176.721;  597.777;  871.402
447.583;   88.389; -464.229;  -34.587
447.870;  120.935; -434.221; -202.601
448.158;  346.580; -104.230;  129.415
448.446;  258.976; -800.219; -338.604
448.733;  154.340;   13.776;  269.403
449.021;  229.765;   60.788;  341.382
449.309;  166.555; -296.210;  208.379
449.596;  208.269;  128.783;   59.392
449.884;  148.203; -571.222; -325.600
450.172;  151.883; -756.227; -406.590
450.459;  462.620;  645.786;  780.387
450.747; 2511.043; -411.218; -147.608
451.034; 8030.278;  493.772;  889.411
451.322; 6667.848; -413.214; -170.614
451.609;  551.642;  292.777;  508.403
451.897;  635.618; -550.203; -183.634
452.184; 1832.922; -622.223; -400.598
452.472; 1777.427;   97.792;  269.375
452.759;  341.652;  512.781;  864.395
453.047;   95.613; -407.212; -125.617
453.334;   38.360; -732.219; -216.606
453.621;   46.026; -438.214; -161.615
453.909;   86.235;   13.796;  384.368
454.196;   96.055; -299.199; -123.641
454.483;  189.656;  317.798;  540.364
454.771;  128.230; -215.208;  196.374
455.058;   42.458; -316.207;  102.374
455.345;  112.736;   71.807;  344.347
455.632;   94.436; -128.207;  235.373
455.919;   48.803;  -82.196;  182.354
456.207;  -60.015; -774.198; -450.642
456.494;  -16.682; -475.200;  -66.639
456.781;    1.802; -399.202; -198.635
457.068;   44.843; -253.206;  -29.628
457.355;  -33.356; -698.206; -401.629
457.642;   -1.376; -552.205; -290.630
457.929;    0.402; -778.194; -417.651
458.216;   58.763; -575.212; -354.617
458.503;  244.006; -173.193;  -19.652
458.790;  239.677; -864.208; -630.625
459.077;  273.407;  -77.202;  110.364
459.364;  815.445; -350.195; -210.649
459.651; 1735.016;  -46.206;  220.372
459.938;  799.943; -864.209; -665.623
460.225;  123.035;  132.799;  276.363
460.512;  -59.700; -836.197; -688.645
460.799;   97.017;  -32.218;  320.392
461.086;   68.123; -370.200; -251.640
461.372;   24.435; -509.198; -279.642
461.659;   81.329; -165.196;  108.354
461.946;   41.005; -445.193;  -54.651
462.233;  241.895;  842.800;  888.361
462.519;  340.292; -814.201; -464.639
462.806; 1016.951; -768.197; -497.645
463.093;  905.926; -445.191;  -66.656
463.380;  -26.058; -920.186; -824.664
463.666;   48.052; -259.197;  -18.646
463.953;  104.890; -406.195; -243.648
464.239;  213.539; -173.195;  -77.648
464.526;  379.025;  413.806;  743.350
464.813;  313.462; -565.190; -304.658
465.099;  341.856;  606.807;  607.348
465.386;  311.610;  903.807;  921.348
465.672;    9.876; -694.197; -522.645
465.959;    3.030; -598.188; -520.662
466.245;    4.860; -468.193; -359.652
466.532;   72.587; -109.195;   63.352
466.818;   55.267; -357.186; -216.664
467.104;  -21.893; -488.182; -415.672
467.391;  -17.536; -628.189; -459.658
467.677;   29.970; -289.186;    9.335
467.964;  -19.129; -682.189; -471.660
468.250;   36.798; -331.186; -160.665
468.536;   68.815;   90.811;  180.341
468.822;  -47.965; -821.184; -574.668
469.109;  148.462;  351.827;  471.311
469.395;  199.670;  729.808;  787.346
469.681;  183.118;   46.811;  156.341
469.967; 1295.398; -699.188; -382.660
470.254; 2753.756; -494.188; -306.662
470.540; 1820.653; -601.196; -476.646
470.826;  268.468; -488.181; -397.675
471.112;  314.363;  288.816;  113.331
471.398;   77.893; -253.183;  -58.670
471.684;   32.921; -626.177; -447.680
471.970;  -12.453; -918.180; -981.675
472.256;   14.294; -521.192; -441.654
472.542;    2.898; -499.171; -434.691
472.828;  -15.597; -743.182; -607.672
473.114;   13.567; -380.166; -283.700
473.400;    9.863; -504.175; -293.684
473.686;   19.773; -452.166; -400.701
473.972;   50.177; -230.174; -131.687
474.258;  -50.588; -925.173; -843.689
474.544;  199.838; -183.178;   -2.679
474.830;  338.739;  -65.175;   45.316
475.116;  534.114; -123.190; -196.658
475.401;  703.424; -558.180; -467.676
475.687;  200.098; -725.180; -718.676
475.973;  -11.514; -673.181; -770.673
476.259;  226.891;  736.825;  764.315
476.544;  367.754; -539.176; -437.682
476.830;  882.044; -398.172; -322.690
477.116;  757.903; -430.177; -336.682
477.401;  137.598;  346.820;  358.324
477.687;  -21.412; -289.175; -405.684
477.973;   43.989;   21.819;   28.326
478.258;  -10.032; -448.163; -348.706
478.544;   40.703;   21.815;   61.334
478.829;  -64.921; -818.171; -738.692
479.115;  -45.181; -749.172; -651.690
479.401;  -23.527; -444.174; -449.686
479.686;   30.472; -253.180;  -74.676
479.972;  -51.832; -886.178; -776.680
480.257;   35.468; -258.166;  -65.700
480.542;  -16.717; -614.170; -469.693
480.828;  228.986; 1288.824; 1392.317
481.113;  -51.566; -464.176; -426.683
481.399;  -19.158; -236.161; -202.711
481.684;  -47.557; -620.166; -462.700
481.969;   18.106; -158.159;  -73.713
482.255;  -17.332; -439.169; -285.695
482.540;    6.718; -569.178; -441.680
482.825;   -5.013; -395.187; -404.663
483.110;   89.547;  -85.169; -105.696
483.396;  199.902; -840.157; -652.718
483.681;  529.202;  543.826;  730.313
483.966;  175.175; -696.160; -700.712
484.251;  -23.999; -404.174; -310.687
484.536;   -9.672; -356.165; -378.703
484.822;   11.579; -205.173; -218.687
485.107;  -29.185; -599.152; -502.726
485.392;  122.984;  662.836;  541.296
485.677;   64.806;  354.832;  163.302
485.962;   86.850;  160.843;  270.283
486.247;   85.726;  -14.162;   -8.707
486.532;   40.569; -178.166; -325.701
486.817;  157.112;  381.839;  431.291
487.102;  126.198; -453.154; -514.722
487.387;  716.879; -637.156; -652.718
487.672; 1252.539; -154.164;  -38.705
487.957;  800.469; -394.160; -286.711
488.241;  204.457; -290.150; -314.729
488.526;  799.217; -280.152; -148.726
488.811; 1280.920; -881.177; -818.680
489.096;  945.426; -666.154; -702.723
489.381;  520.238;    3.847;  162.275
489.666;  410.642; -428.161; -510.710
489.950;  182.504;  558.846;  627.277
490.235;  -52.073; -480.151; -458.728
490.520;  -52.159; -756.161; -723.710
490.804;  -60.069; -827.156; -736.719
491.089;    1.373; -469.149; -299.732
491.374;   23.488; -132.164;  -75.704
491.658;  -15.541; -817.147; -717.735
491.943;  146.646; -657.152; -609.727
492.227;  229.269; -178.155;  -38.721
492.512;   50.899; -294.157; -341.717
492.797;  -78.008; -713.149; -716.731
493.081;  -60.988; -588.147; -598.735
493.366;  -44.057; -751.161; -635.711
493.650;  202.790;  831.859;  917.254
493.935;   39.009; -648.147; -447.734
494.219;  -52.173; -778.142; -687.743
494.503;  -43.288; -585.150; -487.730
494.788;   51.041;   46.842;   74.285
495.072;  125.983;  184.850;  434.271
495.356;  171.651; -463.148; -343.733
495.641;  469.693; -812.146; -736.736
495.925;  407.861; -976.156; -903.719
496.209;   27.472; -599.149; -451.732
496.494;  -50.972; -763.142; -544.744
496.778;    9.148; -364.154; -360.722
497.062;  -60.114; -819.156; -627.719
497.346;  -18.229; -869.160; -640.711
497.631;  146.179;  580.852;  560.266
497.915;   66.729;  -64.145;  175.261
498.199;   50.377; -341.157; -277.718
498.483;   24.965; -562.152; -508.725
498.767;  194.259;  301.850;  300.271
499.051;  195.070; -126.149; -100.732
499.335;   24.718; -693.149; -739.731
499.619;  -37.259; -381.129; -423.767
499.903;    9.418; -272.155;  -65.721
500.187;   19.906; -588.153; -316.724
500.471;    0.345; -796.152; -595.727
500.755;  102.891;   62.839;  -96.710
501.039;   19.018; -270.155; -357.721
501.323;   73.292;  -21.141;  264.254
501.607;   17.144; -447.163; -503.706
501.891;   -9.321; -607.156; -512.718
502.174;  -41.685; -726.144; -585.741
502.458;   56.699;   89.849;  370.273
502.742;   35.191; -180.138; -191.751
503.026;  109.533; -412.147; -254.734
503.310;  181.330; -437.159; -375.713
503.593;  121.410; -464.147; -325.735
503.877;  117.606; -232.133; -156.760
504.161;  167.108;    2.847;  -50.724
504.444;  114.543; -841.158; -710.716
504.728;  485.137; -487.164; -522.704
505.012;  737.906; -257.150;  -76.729
505.295;  561.067; -417.161; -212.711
505.579;  548.810; -256.156; -496.719
505.862;  819.375; -555.145; -333.738
506.146;  775.807; -681.159; -758.714
506.429;  431.682;  568.841;  461.286
506.713;   63.628; -732.151; -667.728
506.996;  341.573;   90.846;  295.278
507.280;  358.732; -633.165; -474.703
507.563;  250.541; -469.155; -261.721
507.847;   85.381; -423.153; -112.724
508.130;  106.468; -665.161; -456.711
508.413;  134.489; -758.167; -577.700
508.697;  255.439; -151.167;   12.300
508.980;  167.708; -422.153; -312.724
509.263;  -13.712; -466.155; -450.720
509.547;   31.581; -124.150;   82.271
509.830;   38.745; -172.160;  140.289
510.113;   80.935;  128.844;  298.281
510.396;   27.288; -530.152; -300.725
510.680;  113.652; -818.145; -812.738
510.963;  480.152;  184.846;  180.277
511.246;  387.864; -493.150; -357.730
511.529;  251.532; -482.145;  -83.739
511.812;  411.927; -250.134;   10.241
512.095;  303.701; -740.151; -396.728
512.378;   72.739; -317.147; -245.736
512.661;   16.548; -703.137; -623.753
512.944;   15.354; -750.142; -637.744
513.227;   67.070; -170.137; -171.752
513.510;   29.390; -479.144; -671.741
513.793;   18.321; -485.140; -435.747
514.076;  129.087;  -43.127;  -39.771
514.359;  104.148; -294.149; -135.732
514.642;  101.107; -442.142; -567.744
514.925;  791.894;  581.860;  561.253
515.208; 1066.099; -498.134; -443.758
515.491;  699.638; -276.133; -182.761
515.773;  398.894; -410.143; -337.742
516.056; 2242.055;  249.864;  409.246
516.339; 2933.658; -754.136; -652.755
516.622; 1850.561; -518.150; -488.730
516.904; 1075.026;  882.857;  975.257
517.187;  480.244; -730.138; -523.752
517.470;  394.300; -568.143; -510.743
517.752;  463.236; -624.136; -470.756
518.035;  363.982; -708.139; -725.749
518.318;  400.009; -799.136; -744.755
518.600; 2619.316; -300.132; -325.762
518.883; 3609.507;  310.858;   88.256
519.165; 1784.412; -585.138; -426.751
519.448;  402.341;  -61.132;  -19.762
519.730;  173.094; -573.126; -415.773
520.013;  294.584;  588.867;  664.240
520.295;  710.904;  -94.134;  -15.759
520.578; 1538.904; -335.131; -305.764
520.860; 1799.291; -254.132;   56.238
521.143;  961.438; -763.135; -584.756
521.425;  478.782; -251.125; -279.775
521.707;  697.837; -622.127; -380.771
521.990; 1915.613; -199.127;  167.229
522.272; 2156.098; -116.140;   -4.748
522.554;  942.145; -237.143; -157.742
522.836;  321.652;  -24.134;   99.241
523.119;  192.232; -496.148; -189.734
523.401;  154.011; -448.130; -314.766
523.683;   86.724; -865.137; -693.753
523.965;  282.092;  408.862;  260.248
524.247;  308.678;   54.878;  170.220
524.529;  214.379; -451.134; -367.759
524.812;  375.812;   -3.130;  191.234
525.094;  905.091; -773.138; -631.751
525.376; 1455.191; -143.124;   78.223
525.658;  883.081; -441.136; -339.754
525.940;   42.000; -805.131; -671.764
526.222;   28.134; -188.136;  -88.755
526.504;  103.823; -190.131;   32.237
526.786;  131.381; -960.133; -647.760
527.068;  248.722; -124.123;  -67.778
527.349;   91.952; -865.137; -774.754
527.631;  133.816; -137.132;   22.238
527.913;  155.136; -664.127; -450.771
528.195;  193.300; -761.125; -639.774
528.477;  281.974;  -93.134;  -30.758
528.759;  137.062; -648.130; -522.766
529.040;   77.670; -569.123; -293.778
529.322;   64.553; -235.125;  -10.774
529.604;  114.965;  -47.130;   93.233
529.886;  103.194; -546.126; -302.773
530.167;  114.731;  232.870;  192.235
530.449;   44.613;    1.853;   63.265
530.731;   35.752; -572.122; -459.779
531.012;   61.448; -513.120; -216.784
531.294;   82.087; -118.116;  -43.792
531.575;  130.932;  290.875;  538.225
531.857;   50.394; -548.135; -266.757
532.138;   99.315; -113.141;   40.254
532.420;  163.965;  294.865;  403.244
532.701;  193.184; -722.133; -751.760
532.983;  315.287;  232.867;  182.239
533.264;  113.667; -243.126;  175.228
533.546;  -35.566; -491.136; -508.755
533.827;   41.155;  173.867;   -1.759
534.109;   30.769; -352.135;  -80.757
534.390;   83.395; -725.132; -582.762
534.671;  237.640; -270.135;  -82.756
534.953;  133.923; -751.123; -611.779
535.234;   34.672; -426.117; -255.789
535.515;  -76.794; -891.119; -735.785
535.796;  -22.918; -431.128; -193.770
536.078; -120.084;-1050.124; -904.777
536.359;   -7.901;  -22.123;    3.221
536.640;  -25.798; -480.125; -197.774
536.921;  153.695;  225.871;  143.232
537.202;  388.863;  -87.138;  -16.751
537.483;  492.953;  251.869;  377.236
537.764;  183.756;   17.870;   98.235
538.045;  -51.052; -543.134; -371.758
538.326;  -34.478; -596.129; -447.768
538.607;   26.913; -686.127; -476.771
538.888;  174.064;   98.879;    5.218
539.169;  210.634; -704.122; -535.781
539.450;  357.144;  236.871;   16.233
539.731;  226.068; -361.121; -182.783
540.012;  127.223;  199.880;  412.216
540.293;   75.385;   82.876;  158.224
540.574;    9.233; -895.113; -717.796
540.855;  443.542;  435.879;  377.218
541.136;  525.731;   47.878;  139.220
541.416;  279.413; -161.130; -220.766
541.697;  205.874; -274.131; -170.763
541.978; 1119.817; -270.135; -315.757
542.259; 1385.338; -211.127; -236.771
542.539;  695.606; -191.116; -186.790
542.820;  190.307;  461.875;  480.225
543.101;  128.303;  -52.145;  -77.738
543.381;   19.787; -638.127; -591.771
543.662;  281.135;  159.873; -254.771
543.942;  599.708; -751.127; -830.770
544.223; 1117.033;  193.878;  161.219
544.504;  724.066; -275.124; -182.777
544.784;  620.719; -592.126; -408.773
545.065; 1728.135;  104.884; -254.791
545.345; 2062.507;  227.881;   14.215
545.626; 1364.707;  -14.113; -108.796
545.906;  940.206;   77.869;   98.235
546.186;  385.823;   92.874;  -95.773
546.467;  214.518;   99.877;  -95.778
546.747;  353.431;  264.884;  327.210
547.027;  379.989;   91.876;  111.223
547.308;  348.958; -376.127; -530.770
547.588;  407.747;  299.871;  371.232
547.868;  211.182;  458.870;  588.235
548.149;  200.342;  609.885;  593.207
548.429;  146.286; -347.127; -299.771
548.709;  198.198; -645.120; -461.784
548.989;  514.366;   84.882;   88.213
549.269; 2307.714;   10.868;  139.239
549.550; 5150.147;  215.877;  117.222
549.830; 4692.025; -758.111; -556.799
550.110;  924.382; -468.110; -320.801
550.390;  874.528; -128.122;  -56.779
550.670; 1208.103; -868.114; -783.795
550.950;  853.041; -509.121; -471.782
551.230;  178.987;  549.879;  460.218
551.510;   -3.960; -381.121; -326.782
551.790;   43.665; -173.109; -127.803
552.070;  287.018;  940.877; 1181.223
552.350;  442.586; -492.119; -377.786
552.630;  619.535;   -2.121;   77.219
552.909;  374.885;  181.884;   73.209
553.189;  243.196;  -49.132;   33.237
553.469;  193.885; -703.119; -514.786
553.749;  210.364; -469.127; -357.772
554.029;  179.876;   33.883;  -24.790
554.308;  153.871; -154.115;  -37.794
554.588;   51.606; -196.128; -204.770
554.868;   73.067; -366.121;  -47.782
555.147;  159.043; -114.115;  -46.793
555.427;  672.063; -260.116; -250.792
555.707; 4192.666; -284.115; -200.793
555.986; 5074.678; -719.111; -538.800
556.266; 2681.405;   23.884;   72.210
556.546;  124.215; -888.121; -675.782
556.825;  278.551; -657.114; -556.794
557.105; 1908.729; -125.128;   17.230
557.384; 2219.234;  122.884;  187.209
557.664;  862.937; -717.116; -508.792
557.943;  129.016; -557.121; -411.782
558.222;  198.369; -345.118; -344.788
558.502;  313.970; -116.115;  -76.793
558.781;  515.965;  194.885;  499.208
559.061;  466.069; -232.118; -227.788
559.340;  321.899;  302.883;  353.211
559.619;  755.854;   93.884;  148.210
559.899; 1100.851; -239.117; -266.789
560.178; 1005.544; -778.115; -593.793
560.457; 3427.377; -623.117; -562.790
560.736; 4727.879; -472.111; -482.800
561.015; 3158.852; -500.128; -502.769
561.295;  417.885;  180.893;  215.193
561.574;  355.892;  119.885;  116.207
561.853;  525.294;  274.891;  303.197
562.132;  539.997;  -45.114;  182.206
562.411;  475.036;  396.879;  553.219
562.690;  136.240; -592.115; -458.792
562.969;  158.564;  472.888;  630.203
563.248;  528.008; 2966.878; 2487.219
563.527;  279.154; -290.111; -408.800
563.806;  410.686; -650.127; -521.771
564.085;  432.750; -297.105; -206.810
564.364;  268.279; -594.117; -405.790
564.643;  558.361; -276.121; -223.781
564.922; 2039.188;  221.890;  397.198
565.201; 2037.242; -640.109; -700.803
565.479;  883.189; -297.115; -219.792
565.758;  364.179; -810.128; -712.770
566.037;  506.868; -155.109; -100.803
566.316;  257.209; -286.116;  -28.791
566.595;   44.517;  -17.115;  -12.793
566.873;   94.406; -166.111;  -79.801
567.152;  -54.761; -490.113; -590.797
567.431;   13.805; -113.116;    6.210
567.709;   26.610; -344.107; -212.807
567.988;  269.825; -810.114; -769.794
568.266;  559.116; -160.115;  -68.793
568.545;  398.672; -644.100; -514.819
568.824;  647.588;  160.885;  356.208
569.102;  612.200; -351.114; -235.794
569.381;  255.212; -492.116; -407.792
569.659;  -45.965; -553.113; -553.796
569.938;   26.232; -743.122; -465.780
570.216;  120.896; -225.109; -225.804
570.494;  -28.922; -632.114; -572.795
570.773;   28.815;  202.879;  114.218
571.051;   13.246; -373.123; -357.778
571.330;   56.608; -221.113; -174.796
571.608;   32.265; -181.098; -173.823
571.886;  -66.477; -671.111; -581.799
572.164;  -59.533; -739.121; -621.782
572.443;  -46.296; -562.105; -512.811
572.721;  -32.497; -399.117; -289.790
572.999;  -28.629; -280.117; -168.788
573.277;   99.622;  379.894;  620.191
573.555;  338.974;   94.894;   37.190
573.834; 1462.146;  -86.117; -114.788
574.112; 1700.063;  880.893;  811.193
574.390;  533.780; -143.111;  -96.801
574.668;    0.415;  -91.112;  -61.797
574.946;  -34.100; -165.106; -187.810
575.224;   14.317;   71.891;  -16.803
575.502;  -24.343; -200.116; -204.791
575.780;  -82.159; -767.112; -829.798
576.058;  209.129; 1589.889; 1004.200
576.336;  -17.140; -210.110; -129.801
576.614;  -40.884; -511.112; -340.798
576.891;   56.171; -711.115; -823.794
577.169;  509.079; -158.108; -285.805
577.447;  612.387;  169.893;  202.193
577.725;  269.220;  629.888;  854.201
578.003;    0.743;  -71.112; -371.798
578.280;   82.463; -208.104; -242.812
578.558;   64.545; -450.115; -422.793
578.836;  114.578; -210.114; -145.795
579.114;   40.439; -630.112; -670.797
579.391;   58.648;   -6.117;  -18.789
579.669;  -90.528; -595.114; -704.794
579.947;  190.234; -326.107; -127.806
580.224;  349.109; -692.107; -524.806
580.502;  346.263;  127.893;   76.193
580.779;   20.003;  -42.117;   75.210
581.057;  -74.179; -584.109; -470.804
581.334; -106.672; -726.102; -695.815
581.612;   39.750;   54.895;  511.190
581.889;  -26.884;  -83.101; -129.818
582.167;  -36.945; -298.099; -190.821
582.444; -110.640; -845.102; -814.817
582.721;  103.736;  657.899;  715.183
582.999;   71.252; -326.100; -167.821
583.276;  582.525; -812.123; -713.779
583.553;  781.731; -364.102; -294.816
583.831;  265.059; -607.104; -631.812
584.108;   69.552;  349.892;  174.195
584.385;   17.502; -122.102;  -98.815
584.662;  -86.819; -651.111; -828.801
584.940;   40.180;  204.889;  204.199
585.217;  -17.590;  -73.113; -303.796
585.494;   44.064;   71.890;  118.198
585.771;  233.897; -250.109; -354.804
586.048;  536.159; -196.113;  -76.796
586.325;  340.059; -721.110; -773.801
586.602;   96.863;  230.896;  213.188
586.879;  -13.826; -499.100; -580.820
587.156;   68.251; -156.105; -331.810
587.433;  -47.367; -701.102; -667.817
587.710;   63.417;  152.888;  234.202
587.987;  310.106; -264.105; -236.811
588.264;  828.618;  315.888;  387.202
588.541; 1446.516;  -61.104;   26.187
588.818; 2764.724;   72.892;  171.196
589.095; 2423.186; -163.104; -174.812
589.371;  408.945; -459.109; -414.804
589.648;    6.363; -581.107; -437.807
589.925;   38.954; -517.114; -621.795
590.202;   32.416; -741.112; -607.798
590.478;  109.558; -166.105;  -73.811
590.755;  290.430; -241.108; -132.806
591.032; 2659.736; -741.110; -699.802
591.308; 3644.230; -732.094; -790.831
591.585; 1900.510; -573.110; -560.802
591.862;  154.310;-1056.102; -950.817
592.138;   69.103; -475.108; -474.805
592.415;  147.839; -486.104; -495.813
592.691; 1530.312;  460.896;  518.188
592.968; 1946.592; -208.098; -123.824
593.244;  941.031; -695.116; -595.790
593.521;   65.460; -105.102;  -42.817
593.797;  -19.321; -810.122; -720.780
594.074;  352.704; -611.096; -588.826
594.350;  680.090;  828.905;  729.172
594.626;  314.206; -303.111; -283.801
594.903;  127.911; -643.101; -645.817
595.179;  210.243;  243.896;  418.187
595.455;    6.239; -136.107; -150.807
595.731;    5.019;  -19.103;  -38.814
596.008;  -31.474; -464.111; -434.800
596.284;   31.726; -187.100; -242.820
596.560;   76.661; -501.093; -493.833
596.836;  217.503; -173.105;  -70.810
597.112;  384.903; -582.108; -437.805
597.388;  307.127;  -49.097;  -48.826
597.665;  119.712;  437.887;  530.203
597.941;  -72.085; -572.089; -658.839
598.217;   12.389; -323.110; -293.802
598.493;  265.873;   61.891; -204.804
598.769;  516.296; -175.100;  -50.819
599.045;  315.056; -490.108; -562.806
599.321;   67.525; -193.100; -261.820
599.597;  151.373; -355.109; -476.804
599.872;  513.991;  409.896;  429.187
600.148;  388.604;  -61.097; -172.826
600.424;  300.886;   91.893;  202.193
600.700;  259.238; -170.107; -280.807
600.976;  132.848; -442.097; -464.825
601.252;  261.169; -226.109; -272.803
601.527;  217.691; -833.104; -840.813
601.803;  154.009; -453.105; -404.812
602.079;  192.121; -124.100; -118.819
602.354;  575.621; -620.092; -531.835
602.630;  864.160; -140.113; -482.796
602.906; 2533.891; -910.101; -863.818
603.181; 7149.260; -627.119; -534.786
603.457; 6082.251;   98.903; -278.826
603.733;  921.119; -605.120; -626.783
604.008; 1020.175; -245.106; -164.810
604.284; 3249.987; -636.101; -580.817
604.559; 2786.145;   -3.112;  -42.799
604.835;  529.153; -163.105; -225.810
605.110;  437.330; -732.099; -892.821
605.385;  709.714;  224.907;  267.167
605.661;  694.668; -625.095; -729.829
605.936; 1255.207; -664.108; -737.806
606.211; 1049.501;  -17.103; -170.815
606.487;  212.999; -329.114; -376.794
606.762;    3.986; -791.119; -745.786
607.037;  -16.022; -501.105; -433.810
607.313;  -50.639; -589.096; -574.828
607.588;  -14.200; -375.106; -137.810
607.863;   49.790;  -28.101; -143.818
608.138;  188.563;  513.890;  516.198
608.413;   20.859; -576.099; -592.822
608.688;   41.328; -203.108; -267.805
608.964;  214.294; -509.106; -218.809
609.239;  271.401; -107.105; -212.810
609.514;  267.533;  281.895;  240.188
609.789;  656.238; -187.104; -716.812
610.064;  894.260; -435.096; -609.827
610.339;  959.770; -855.109; -799.804
610.614; 1267.776; -131.100; -315.820
610.889;  714.609;  215.895;  107.188
611.163;   51.159; -407.104; -591.812
611.438;   74.750;   81.886; -167.794
611.713;   14.987; -467.101; -499.817
611.988;   51.514; -144.101; -328.818
612.263;  -17.722; -771.102; -717.815
612.538;  236.159;  385.887;  251.204
612.812;  179.902; -832.100; -911.820
613.087;  145.990; -358.098; -338.823
613.362;  -48.236; -497.107; -557.807
613.637;   45.797;  261.897;  138.186
613.911;   -6.228; -256.092; -345.835
614.186;  147.687; -249.107; -292.807
614.460;  742.340; -842.081; -758.854
614.735;  844.089;  -55.087;  -17.843
615.010;  171.679;   43.912;  -82.841
615.284;  275.752;  360.892;  246.195
615.559;  395.270; -792.092; -955.835
615.833;  303.307;  -76.099;  -87.822
616.108;   -7.418; -225.090; -390.837
616.382;  156.065;  274.913;  402.156
616.656;  171.608; -241.090; -232.837
616.931;  550.708; -785.099; -700.822
617.205; 1138.892; -973.104; -979.813
617.480; 1040.555;  -91.125;    6.225
617.754;  175.502; -396.125; -128.774
618.028;   12.148; -369.129; -382.768
618.302;   73.226;   73.892;  -25.805
618.577;  -51.977; -371.103; -518.815
618.851;  -77.784; -399.109; -600.803
619.125;  -50.896; -335.134; -378.759
619.399;  -29.008; -244.104; -374.813
619.673;  -43.537; -330.115; -515.792
619.947;  -45.272; -333.114; -448.795
620.222;   -9.493; -198.110; -204.801
620.496;   13.842;  -47.121;  -96.782
620.770;   21.708; -187.122;  -93.781
621.044;  229.101;  323.895;  346.190
621.318;  776.745; -653.120; -614.783
621.592;  714.767; -430.121; -409.783
621.866;  396.096; -476.112; -572.799
622.140;   22.757; -207.116; -356.791
622.413;   60.075;  138.889;  112.200
622.687;  -35.213; -746.101; -492.817
622.961;   17.051; -130.108; -143.805
623.235;  -61.149; -633.111; -661.800
623.509; -100.017; -816.105; -848.811
623.783;    0.785;  -12.107;   48.193
624.056;  -25.229; -254.120; -280.783
624.330;   43.140;   63.888;   -3.797
624.604;   45.354; -271.116; -355.790
624.877;   82.437;  180.890;   26.198
625.151;   34.698; -249.114; -238.794
625.425;  -33.681; -150.103; -283.814
625.698;  -64.195; -367.119; -374.785
625.972;  -86.111; -799.110; -765.802
626.245;   63.056;  685.884;  484.210
626.519;  -51.075; -426.120; -340.784
626.792;  -37.637; -192.107; -380.807
627.066;  -88.824; -485.122; -662.779
627.339;  -91.665; -736.110; -663.802
627.613;   41.348;  351.880;  148.216
627.886;  -50.409;  187.891; -612.803
628.160;   -6.031;  312.880; -161.783
628.433;  -92.267; -695.125; -703.775
628.706;  -77.600; -517.120; -615.784
628.979;   37.039;  296.876;  117.223
629.253;  -83.115; -785.119; -833.786
629.526;  408.567; -334.126; -253.772
629.799;  379.146; -641.123; -479.778
630.072;  196.975; -497.128; -516.769
630.346;  -64.294;-1115.116;-1080.790
630.619;  487.214; -467.107; -545.808
630.892;  647.652;  709.889;  593.200
631.165;  375.617;  790.896;  679.187
631.438;  -77.332;-1092.112;-1055.798
631.711;   49.324;  453.877;  257.221
631.984;  -56.624; -523.117; -624.789
632.257;  -68.577; -636.117; -681.789
632.530;  -57.870; -412.119; -433.785
632.803;   20.096; -109.115;    7.207
633.076;  -77.157; -360.123; -422.777
633.349;   24.954;  173.872;  121.231
633.622;  -42.796; -187.119; -240.785
633.895; -122.905; -903.120; -823.783
634.167;  -64.781; -496.126; -525.773
634.440;  -15.288;  -19.116; -137.792
634.713;   -6.241;  -22.119; -120.786
634.986;   78.018;  593.871;  453.233
635.258;  -65.956; -507.115; -597.793
635.531;   87.444;  742.882; -343.788
635.804;  -43.075; -303.117; -318.789
636.077;  -87.442; -830.116; -852.791
636.349;   -1.708; -586.115; -474.793
636.622;  402.667; 1695.874; 1392.228
636.894;  258.525; -474.120; -909.784
637.167;  155.336; -836.127; -789.771
637.439;   34.382; -278.128; -213.770
637.712;  -48.782; -312.126; -293.772
637.984;  -86.991; -635.116; -707.791
638.257;  375.718;  515.877;  488.222
638.529;  560.684; -881.125; -924.776
638.802;  260.524; -508.128; -449.769
639.074; -124.292; -927.122; -952.781
639.346; -121.530; -942.135; -930.757
639.619;   -5.394;  -79.142; -319.744
639.891;  -18.849;  -83.122; -168.779
640.163;  -88.072; -689.122; -756.780
640.435;   31.955;  273.878;  103.220
640.708;   12.582;  -72.122; -132.780
640.980;  -24.441; -366.122; -362.781
641.252;  198.961;  -25.121;  -71.781
641.524; 1842.712;  580.879;  573.219
641.796; 1847.939;-1094.121; -907.782
642.068;  318.966; -191.121; -300.782
642.340;  -52.682; -486.121; -566.783
642.613;   41.320;  294.880;  323.217
642.885;  -97.504; -787.120; -878.783
643.157;  -47.802; -810.120; -658.784
643.428;   66.375;  170.880;  218.216
643.700;  -77.498; -498.120; -425.784
643.972;  -51.421;  -16.119; -133.785
644.244;  -97.994; -474.119; -559.785
644.516;  -58.493; -250.119; -114.786
644.788;   57.334;  662.881;  548.214
645.060;  -44.664;  -12.119; -124.786
645.332; -112.962; -525.118; -535.787
645.603;   39.565;  479.882;  342.213
645.875;  -86.033; -334.118; -369.787
646.147;  170.718; 1487.882; 1242.212
646.418;  -50.955; -931.117; -918.788
646.690;  153.247; -714.117; -715.789
646.962;   44.849; -413.117; -451.789
647.233;   -6.624;   15.883;   11.211
647.505; -103.798; -595.117; -475.790
647.776;   21.154;  328.884;  229.210
648.048;   -3.569; -248.116; -418.790
648.320;  -79.417; -752.116; -679.791
648.591; -152.790;-1055.116; -958.791
648.862;  -95.938; -505.116; -577.792
649.134;    9.413;  115.885;  198.208
649.405;  -32.410; -661.115; -618.792
649.677;  -52.158; -475.115; -598.793
649.948;    0.119; -181.115; -296.793
650.219;    1.921;  -37.115; -147.793
650.491;  -84.703; -431.114; -520.794
650.762; -118.101; -705.114; -731.794
651.033;  -80.274; -437.114; -424.795
651.304;  -97.972; -743.114; -728.795
651.576;  -64.620; -680.114; -645.795
651.847;  -42.718; -250.113; -140.796
652.118;  -30.417;  -32.113; -189.796
652.389; -110.215; -639.113; -722.796
652.660;  -37.213; -147.113;  -89.797
652.931; -151.911; -897.112; -871.797
653.202;  -86.559; -382.112; -541.798
653.473;  -69.732; -633.112; -533.798
653.744;  163.219; -595.112; -590.798
654.015;  155.471; -356.112; -303.799
654.286;  -72.952; -642.111; -663.799
654.557;  -60.275; -586.111; -521.799
654.828; -156.248;-1114.111;-1088.800
655.099;  -88.097; -404.111; -291.800
655.370;  -99.645; -427.111; -543.801
655.641; -124.593; -656.110; -714.801
655.911; -112.516; -618.110; -638.801
656.182;   40.161;  437.890;  387.198
656.453;   74.238;  830.890;  746.198
656.724;  -80.186; -466.110; -426.802
656.994;  -91.409; -553.109; -568.803
657.265; -107.782; -862.109; -873.803
657.536;  -72.680; -500.109; -377.804
657.806; -115.753; -561.109; -593.804
658.077; -143.201; -866.109; -950.804
658.347;  -85.800; -523.108; -598.805
658.618; -124.548; -646.108; -694.805
658.888;  -29.346;  -41.108;  112.195
659.159;  -79.644; -432.108; -548.806
659.429;  -13.917; -292.108; -349.806
659.700;   15.034; -435.107; -390.807
659.970;  -15.514; -370.107; -359.807
660.241;   12.638; -754.107; -921.807
660.511;  520.615; -147.107; -174.808
660.781;   97.842; -793.106; -748.808
661.052;  -39.931; -222.106; -381.808
661.322;  -21.405;   21.894;   -9.809
661.592;   15.922;  257.894;  148.191
661.862;  -75.101; -369.106; -382.810
662.133;  -91.974; -551.105; -502.810
662.403; -132.147; -770.105; -676.810
662.673;  -59.845; -256.105; -213.811
662.943; -120.894; -612.105; -551.811
663.213;   -7.042;  -85.105;  -81.811
663.483;  -87.115; -593.104; -568.812
663.753;  -45.613; -194.104; -152.812
664.023;  -20.936;   68.896;  -32.813
664.293;  -59.835; -319.104; -126.813
664.563; -124.258; -694.104; -648.813
664.833; -119.906; -743.103; -608.814
665.103; -124.254; -730.103; -793.814
665.373; -125.127; -766.103; -806.814
665.643;  -86.825; -863.103; -918.815
665.913;   46.876; -534.103; -714.815
666.182;  142.303; -685.102; -719.816
666.452;  286.180;  -22.102;  -89.816
666.722;  -31.443; -724.102; -784.816
666.992; -122.516; -948.102; -921.817
667.261;  -85.564; -824.102; -808.817
667.531;  217.637;  134.899;   45.183
667.801;  532.239; -440.101; -412.818
668.070;  235.891;  714.899;  697.182
668.340; -105.957; -883.101; -840.819
668.609;   97.520;  588.900;  301.181
668.879;  -77.604; -490.100; -558.819
669.149;  -79.477; -539.100; -516.820
669.418; -108.550; -698.100; -726.820
669.688;  -13.748; -482.100; -666.820
669.957;   70.179; -423.099; -546.821
670.226;  -21.294; -268.099; -331.821
670.496; -103.068; -431.099; -635.822
670.765;  -87.841; -418.099; -501.822
671.034; -133.789; -872.099; -828.822
671.304;   -5.087;   55.902; -111.823
671.573; -155.635;-1085.098; -957.823
671.842;   85.216; -380.098; -294.823
672.112;   40.768; -692.098; -586.824
672.381;    0.095; -239.098; -214.824
672.650; -141.228;-1005.097;-1021.825
672.919;  -81.226; -631.097; -507.825
673.188;  -88.749; -681.097; -878.825
673.457; -147.973;-1101.097;-1143.826
673.726;  -82.996; -579.096; -646.826
673.995;  -38.794; -533.096; -479.826
674.265;  -40.192; -263.096; -333.827
674.534;    8.885; -183.096; -235.827
674.802;    9.112; -618.096; -703.828
675.071; 1093.288; -886.095; -801.828
675.340; 4134.840; -464.095; -339.828
675.609; 1392.317;  103.905;   82.171
675.878;   74.819; -949.095; -893.829
676.147;   36.271;  -26.095;   -8.829
676.416;   88.947; -210.094; -294.830
676.685;  786.849; 1000.906; -622.830
676.953;  124.926; -603.094; -452.831
677.222;  -41.647; -193.094; -273.831
677.491;  -31.370;  -24.094; -127.831
677.759;  -13.268;   11.907;  172.168
678.028;  -21.117; -279.093; -222.832
678.297;    3.210;   71.907;  197.168
678.565; -147.463; -898.093; -944.833
678.834;  -55.511; -311.093; -268.833
679.102;  -87.109; -411.092; -391.834
679.371; -152.807; -898.092; -727.834
679.639; -146.881; -797.092; -786.834
679.908; -113.954; -794.092; -724.835
680.176; -153.427; -895.091; -941.835
680.445;  -59.025; -346.091; -352.835
680.713;   -9.398;  -58.091;  -23.836
680.982; -111.372; -523.091; -525.836
681.250; -102.345; -578.091; -507.837
681.518;  -90.843; -534.090; -751.837
681.787;  -14.516; -204.090; -167.837
682.055;  -71.464; -490.090; -422.838
682.323; -135.762; -993.090; -992.838
682.591;   46.089; -216.090; -538.838
682.859;   96.916;    9.911;  -35.839
683.128;   18.418;  232.911;  497.161
683.396; -182.055;-1102.089;-1122.840
683.664;  -44.278; -241.089;   21.160
683.932;   -1.251;  144.911;  -76.840
684.200;  -78.850; -576.088; -320.841
684.468;  -25.923;  -73.088; -124.841
684.736;  -43.921; -214.088; -175.841
685.004; -130.694;-1024.088; -982.842
685.272;  -58.117; -880.088; -774.842
685.540;  -62.541; -499.087; -557.843
685.808;  -80.114; -651.087; -682.843
686.076; -108.887; -894.087; -969.843
686.343;  -55.760; -601.087; -815.844
686.611;   36.792; -195.087; -224.844
686.879;  511.994; -530.086; -553.844
687.147; 3472.020; -483.086; -480.845
687.414;  988.697;  -12.086; -169.845
687.682;    9.499; -658.086; -757.846
687.950;  341.626;  259.915;  263.154
688.217;   21.228; -792.085; -760.846
688.485;    6.405; -632.085; -636.847
688.753;  573.281;  -11.085; -102.847
689.020;  174.333; -820.085; -851.847
689.288;  -92.840; -853.084; -787.848
689.555;  -39.688; -195.084; -148.848
689.823;  -50.861; -241.084; -345.849
690.090;  -84.285; -546.084; -651.849
690.358; -143.383; -877.084; -897.849
690.625;    2.994;  120.917;   45.150
690.892;  -92.479; -403.083; -369.850
691.160;  -14.227;   72.917;  -35.850
691.427;    9.750;  141.917;  130.149
691.694; -143.849; -855.083; -929.851
691.962; -150.847;-1177.082;-1060.852
692.229;   11.855;  127.918;   56.148
692.496;   74.632;  130.918;  -49.852
692.763;   18.709; -164.082; -201.853
693.031;  -75.840; -739.082; -716.853
693.298;  -35.363; -509.081; -368.853
693.565;  338.539; -155.081; -163.854
693.832; 1356.341;   -5.081;   -9.854
694.099;  162.968; -643.081; -642.855
694.366;  -67.055; -882.081; -896.855
694.633;  -52.554; -920.080; -633.855
694.900;  753.798; 4367.920; -114.856
695.167;  427.000; -214.080; -380.856
695.434;  106.527; -646.080; -623.856
695.701;  199.654;  121.921;  -61.857
695.968;  491.756; -365.079; -361.857
696.234; 1025.107; -415.079; -646.858
696.501;10200.109; -776.079; -614.858
696.768; 5088.811; -554.079; -617.858
697.035;  306.613; -632.078; -667.859
697.302;   27.115; -448.078; -552.859
697.568;    6.141; -458.078; -497.859
697.835;  -50.207; -683.078; -624.860
698.102;  -32.230; -498.078; -407.860
698.368;   75.897;  384.923;  396.139
698.635;  -31.976;  -47.077; -424.861
698.901;  -29.724; -240.077; -348.861
699.168;   74.677; -534.077; -456.862
699.435;   68.904;  -72.077;  -13.862
699.701; -119.544; -868.076; -764.862
699.968;  -65.242;  144.924; -441.863
700.234; -102.515; -783.076; -822.863
700.500;  -59.863; -448.076; -539.864
700.767;   -2.937;   -1.075;   26.136
701.033; -134.160;-1015.075; -963.864
701.299;  -61.083; -450.075; -483.865
701.566;  126.394;  950.925;  763.135
701.832;   39.396;  -31.075;  -76.865
702.098;  -99.128;-1054.074;-1034.866
702.365;  -85.401;-1098.074;-1030.866
702.631;  -31.899;-1038.074;-1063.867
702.897; 1447.803; -765.074; -676.867
703.163; 2277.505;  348.926;  254.133
703.429;  178.382; -256.073; -273.868
703.695;  -34.467; -796.073; -792.868
703.961;    9.710; -214.073; -210.868
704.227;  -53.588; -630.073; -725.869
704.493;  128.989;  613.927;  510.131
704.759;  -27.834; -565.072; -540.870
705.025;   35.693; -203.072; -194.870
705.291;  -23.506; -666.072; -562.870
705.557;  188.746;  719.928;   34.129
705.823;   21.298; -742.072; -694.871
706.089;  136.100; -307.071; -326.871
706.355;  352.352; -315.071; -244.872
706.620; 5337.478; -776.071; -729.872
706.886; 7413.480; -309.071; -362.873
707.152;  709.707; -818.070; -973.873
707.418;  -29.491;-1153.070;-1186.873
707.683;   -5.914; -550.070; -530.874
707.949;  -52.912; -547.070; -578.874
708.215;    0.439; -129.070; -207.874
708.480;  -18.609; -520.069; -420.875
708.746;  100.468;   68.931;   28.125
709.011;  -62.055; -578.069; -612.876
709.277;  -76.228; -538.069; -543.876
709.542;  -53.877; -428.069; -387.876
709.808;  -14.250;  -59.068;   89.123
710.073;  -82.823; -577.068; -695.877
710.339;  -47.796; -242.068; -228.877
710.604;   81.356; -780.068; -845.878
710.869;  312.383; -277.068; -366.878
711.135;  -69.141; -715.067; -628.879
711.400;  -73.414; -507.067; -608.879
711.665;  -66.937; -404.067; -479.879
711.931;  -93.935; -661.067; -677.880
712.196; -132.733; -876.067; -954.880
712.461;  112.744; -402.066; -490.880
712.726;  139.045; -727.066; -771.881
712.991;  -86.678; -647.066; -664.881
713.256;  -48.201; -350.066; -332.882
713.521;  -57.374; -417.065; -381.882
713.787;  -63.947; -454.065; -472.882
714.052;  -32.346; -214.065; -400.883
714.317;  -98.719;-1045.065; -981.883
714.581;  998.708; -374.065; -268.883
714.846; 1297.785; -822.064; -888.884
715.111;  122.612;  261.936;  257.116
715.376;  -30.511;  -86.064; -223.885
715.641;  -11.110; -365.064; -367.885
715.906;  318.642;   15.936; -551.885
716.171;  151.769;  221.937;  209.114
716.436;   38.346;  -78.063; -104.886
716.700; -117.952; -818.063; -692.886
716.965; -132.750; -794.063; -807.887
717.230;  -77.274; -339.063; -392.887
717.494;  -32.622;  -40.062; -134.888
717.759;  -88.845; -784.062; -640.888
718.024;   -5.818;  269.938;  250.112
718.288;   62.034;  685.938;  395.111
718.553; -151.215; -803.062; -977.889
718.817; -130.738; -883.061; -899.889
719.082;  -35.136; -115.061; -125.890
719.346; -138.009;-1000.061; -947.890
719.611;  -33.257; -300.061; -255.891
719.875; -101.130; -568.060; -537.891
720.140;  -75.879; -453.060; -603.891
720.404;   37.373; -136.060; -249.892
720.668;  903.400; -475.060; -411.892
720.933;  333.652;  146.940;  137.108
721.197; -109.146; -667.059; -600.893
721.461; -146.819; -851.059; -826.893
721.725;   -9.093;  -21.059; -250.894
721.990;  -72.791; -284.059; -204.894
722.254;  -23.564;  -26.059; -108.894
722.518;  -80.562; -286.058; -442.895
722.782;  -95.285; -743.058; -594.895
723.046;  123.716;  614.942;  570.105
723.310;   32.618;  374.942;  210.104
723.574; -102.955; -654.058; -614.896
723.838; -113.803; -576.057; -642.897
724.102;  -64.851; -226.057; -239.897
724.366; -147.374;-1032.057; -978.897
724.630; -110.873; -749.057; -571.898
724.894;  -83.171; -722.057; -514.898
725.158;  -14.644;   38.944; -295.898
725.422;  -62.617; -394.056; -327.899
725.685;  -74.940; -441.056; -349.899
725.949;  -93.813; -566.056; -519.900
726.213;  -75.462; -732.056; -811.900
726.477;  190.190;-1020.055; -933.900
726.740;  147.992; -274.055; -104.901
727.004;  338.994; -384.055; -510.901
727.268; 3236.796; -442.055; -400.901
727.531;  837.772; -961.055; -775.902
727.795;  -46.976; -713.054; -673.902
728.059;  -66.424; -552.054; -557.903
728.322;  -81.297; -841.054; -669.903
728.586;   25.880; -692.054; -701.903
728.849;  -96.493; -695.053; -756.904
729.112; -128.292; -812.053; -912.904
729.376; -125.590; -959.053; -905.904
729.639;  -87.238; -536.053; -536.905
729.903; -102.786; -733.053; -699.905
730.166;  -48.134; -437.052; -399.906
730.429;   -9.133; -317.052; -468.906
730.693;  -74.581; -355.052; -894.906
730.956;  200.221;  810.948;  651.093
731.219;  727.748; -310.052; -103.907
731.482;  136.775;-1003.051; -894.907
731.745;   97.277; -794.051; -935.908
732.009;   22.853;  -30.051;   50.092
732.272;  -99.120; -904.051; -771.909
732.535;  -41.143; -300.051; -310.909
732.798; -159.941;-1083.050;-1166.909
733.061;  -66.939; -430.050; -456.910
733.324;   -4.112;   31.950; -180.910
733.587;   70.239;  290.950;  365.090
733.850;  -73.109; -973.049;-1050.911
734.113;   32.643;   33.951;   32.089
734.376;  -11.630; -328.049; -447.912
734.639;  222.897; 1188.951; 1011.088
734.901;   89.423; -180.049; -402.912
735.164;  554.550; -883.048; -837.913
735.427; 1339.577; -166.048; -355.913
735.690;  124.829; -205.048; -234.913
735.952;  -39.919; -923.048; -925.914
736.215;  -22.717;-1113.048;-1009.914
736.478;   40.634; -771.047; -774.915
736.740;  218.286;   33.953;  129.085
737.003;  757.013; -658.047; -672.915
737.266; 4275.040;  -94.047;   46.084
737.528;  455.992; -682.047; -660.916
737.791;  315.894; -316.046; -327.916
738.053;  809.595;  465.954;  649.083
738.316;10883.172; -162.046; -136.917
738.578; 7266.649; -770.046; -736.918
738.841;  428.776; -382.046; -446.918
739.103;  164.778; -875.045; -777.918
739.365;  529.729;   79.955;  -69.919
739.628;    3.181; -884.045; -805.919
739.890;  -37.892; -758.045; -710.919
740.152;  -49.815; -692.044; -754.920
740.414;  -10.888; -408.044; -359.920
740.677;  -65.761; -785.044; -634.921
740.939;  -47.210; -587.044; -487.921
741.201;  283.492; -432.044; -572.921
741.463;   38.419; -689.043; -745.922
741.725;   17.196;  -21.043; -199.922
741.987;   55.873;  220.957;  116.078
742.249;    9.175; -751.043; -859.923
742.511;  227.426; -703.043; -794.923
742.773;   18.153; -546.042; -546.924
743.035;  123.830;  796.958;  533.076
743.297;  -31.618; -963.042;-1013.924
743.559;  771.459; -278.042; -262.925
743.821;   49.535; -735.042; -744.925
744.083;    1.662;  -44.041; -149.925
744.345; -101.511; -869.041; -892.926
744.607;   26.616;   75.959;  122.074
744.868;  -52.807; -490.041; -554.927
745.130; -116.430; -994.041;-1008.927
745.392;   39.896;   -1.040;  -44.927
745.653;   -9.477; -411.040; -378.928
745.915;  148.750;  896.960;  631.072
746.177;   55.327;   35.960;  -43.928
746.438;  -17.271; -428.040; -543.929
746.700;  -63.994; -947.039; -988.929
746.961;   -2.218; -659.039; -740.930
747.223;  129.584; -190.039;  -74.930
747.484;   90.261; -391.039; -471.930
747.746;  142.738;  -23.038; -106.931
748.007;  115.165; -647.038; -689.931
748.269;  324.091; -468.038; -440.931
748.530;  492.343; -852.038; -638.932
748.791;  267.420; -354.038; -420.932
749.053;  438.522;  286.963;  163.067
749.314;  469.824; -236.037; -169.933
749.575;  503.926; -945.037; -905.933
749.836;  876.952; -217.037;   86.066
750.098; 2627.254;  -60.037;  -21.934
750.359;37958.456;  414.964;  555.066
750.620; 9145.358; -121.036; -220.935
750.881; 1063.760; -585.036; -513.935
751.142; 1391.411; -950.036; -938.936
751.403;17279.013; -789.036; -705.936
751.664; 7161.265;-1034.035; -999.936
751.925;  495.267; -175.035; -262.937
752.186;  272.594; -298.035; -278.937
752.447;  123.996; -590.035; -445.937
752.708;   46.247; -532.035; -648.938
752.969;    9.099; -566.034; -576.938
753.230;  -12.049; -777.034; -672.939
753.491;  -10.097; -650.034; -631.939
753.751;   66.780;  109.966;   19.061
754.012;  104.182;  258.967;  181.060
754.273;   71.858; -174.033;  -71.940
754.534;    3.310; -487.033; -580.940
754.794;  -90.113; -926.033; -911.941
755.055;  164.789; 1051.967;  881.059
755.316;  -51.634; -700.032; -566.942
755.576;  -31.308; -606.032; -576.942
755.837;  -42.206; -527.032; -695.942
756.097;  -40.754; -530.032; -564.943
756.358;  -74.727; -725.032; -770.943
756.618;  -42.975; -705.031; -641.943
756.879;   -9.673; -254.031; -349.944
757.139; -126.222;-1098.031;-1116.944
757.400;  -56.670; -538.031; -553.945
757.660;  -28.068; -365.031; -401.945
757.920;   23.909; -266.030; -228.945
758.181;  -26.689; -468.030; -351.946
758.441;  -97.187; -870.030; -809.946
758.701;  -35.061; -308.030; -215.946
758.961;  -18.909; -220.030; -278.947
759.222;  -50.257; -574.029; -502.947
759.482;  -91.580; -683.029; -723.948
759.742;  -94.678; -706.029; -547.948
760.002;   -0.102;  -83.029; -143.948
760.262;   29.525;   50.972;  182.051
760.522;  -49.698; -498.028; -574.949
760.782;  -57.721; -738.028; -612.949
761.042;  -35.544; -618.028; -573.950
761.302;   46.208;   55.972;  -18.950
761.562;   39.709; -164.027; -154.951
761.822;  100.386; -710.027; -551.951
762.082;  -40.462;-1104.027;-1093.951
762.342;   51.790; -328.027; -403.952
762.601;   81.842; -567.027; -506.952
762.861;  382.419; -281.026; -207.952
763.121;  415.920; -406.026; -411.953
763.381; 7633.222; -499.026; -485.953
763.640; 7797.499; -139.026; -307.954
763.900;  346.551; -242.026; -203.954
764.160;   75.953; -458.025; -491.954
764.419;  -24.746; -726.025; -782.955
764.679;  -73.744; -795.025; -726.955
764.939;  -12.592; -124.025; -210.955
765.198;  -62.040; -608.025; -563.956
765.458;  -85.138; -710.024; -612.956
765.717;  -83.261; -454.024; -590.957
765.976;  -67.360; -428.024; -411.957
766.236;  -77.883; -475.024; -610.957
766.495;   17.369;  260.977;   73.042
766.755;  -94.029;-1090.023; -987.958
767.014;    4.148; -594.023; -665.958
767.273;  -56.576; -373.023; -397.959
767.533;  -55.624; -228.023; -307.959
767.792;  -44.922; -151.022; -188.960
768.051;  -52.270; -228.022; -276.960
768.310;  -89.693; -546.022; -650.960
768.569;  -16.066; -161.022;    4.039
768.828;  -38.015; -285.022; -363.961
769.088; -111.013;-1050.021; -942.961
769.347;  -85.161; -755.021; -599.962
769.606;  -98.059; -876.021; -857.962
769.865; -109.807;-1016.021;-1033.963
770.124;  -12.280; -411.021; -336.963
770.383;  -52.679; -778.020; -910.963
770.641;   -2.477; -398.020; -400.964
770.900;  -71.725; -953.020; -846.964
771.159;  -53.923; -851.020; -951.964
771.418;  -28.196; -917.020; -779.965
771.677;  109.705; -224.019; -293.965
771.936;  117.832; -794.019; -865.966
772.194; 2249.909; -465.019; -437.966
772.453;10529.911; -213.019; -391.966
772.712;  733.763;  416.982;  329.033
772.970;  116.240;   32.982;   63.033
773.229;   80.891;  -22.018;  102.033
773.488;  -87.782; -814.018; -770.968
773.746;   63.445;  296.982;  335.032
774.005;  -10.128;  190.983;  -22.969
774.263;   23.249;  243.983;  177.031
774.522; -101.049; -422.017; -548.969
774.780;  -80.973; -484.017; -417.970
775.039; -100.596; -551.017; -531.970
775.297;  -43.044; -135.016; -351.970
775.555;  -95.092; -489.016; -612.971
775.814; -123.565; -618.016; -570.971
776.072; -127.514; -749.016; -740.971
776.330; -114.662; -630.016; -520.972
776.589; -119.585; -703.015; -721.972
776.847; -118.483; -645.015; -624.973
777.105; -175.806;-1016.015;-1032.973
777.363;  -79.854; -459.015; -454.973
777.621; -126.128; -660.015; -717.974
777.879;  -14.826;  -42.014;   32.026
778.138;  -92.474; -554.014; -717.974
778.396; -106.947; -585.014; -526.975
778.654; -170.145;-1015.014; -970.975
778.912;  -67.893; -269.014; -371.976
779.170; -149.767; -880.013; -803.976
779.427; -156.965; -922.013; -897.976
779.685; -140.688; -880.013; -832.977
779.943;  -77.036; -654.013; -593.977
780.201; -163.959; -964.012; -883.978
780.459; -129.558; -651.012; -610.978
780.717;  -94.056; -440.012; -390.978
780.974; -115.054; -449.012; -490.979
781.232;  -71.727; -358.012; -338.979
781.490;  -75.775; -551.011; -472.979
781.747; -102.973; -555.011; -476.980
782.005;   15.578;  462.989;  254.020
782.263; -166.120; -542.011;-1004.981
782.520;  -90.818; -326.011; -501.981
782.778; -184.091;-1013.010;-1051.981
783.035; -174.964; -962.010; -938.982
783.293;  -73.787; -248.010; -206.982
783.550;  -41.761; -134.010; -198.982
783.808; -141.359; -764.010; -776.983
784.065; -167.757; -745.009; -874.983
784.322;  -52.455;   25.991;  -86.984
784.580; -138.903; -915.009; -771.984
784.837; -103.952; -392.009; -466.984
785.094; -117.950; -783.009; -762.985
785.352;  -70.123; -304.008; -404.985
785.609; -102.946; -934.008; -839.985
785.866;  -92.919; -345.008; -401.986
786.123;  -68.392; -639.008; -583.986
786.380; -106.991; -665.008; -604.987
786.637;  -42.264; -225.007; -380.987
786.895;  -15.137; -456.007; -543.987
787.152;  -39.635; -135.007; -267.988
787.409;  -60.983; -123.007; -225.988
787.666;  -93.607; -299.006; -378.988
787.923; -114.655; -616.006; -695.989
788.179;  -99.803; -551.006; -584.989
788.436; -108.126; -585.006; -585.990
788.693;  -28.399;  -92.006;  -87.990
788.950;  164.878; -125.005; -112.990
789.207;  222.079; -381.005; -372.991
789.464;  -44.444; -161.005; -301.991
789.720;   -9.917;  150.995;  110.009
789.977; -180.990;-1003.005; -671.992
790.234;  -37.738;   44.996;  -66.992
790.490; -148.386; -884.004;-1031.993
790.747;  -20.935;  -85.004;   22.007
791.004;  -10.608; -426.004; -348.993
791.260;  -76.081; -430.004; -560.994
791.517; -100.354; -843.003; -788.994
791.773;  -54.752; -379.003; -342.994
792.030; -109.276; -596.003; -660.995
792.286;  -99.324; -686.003; -636.995
792.543;  -10.922;  -74.002; -159.995
792.799;  -59.370; -584.002; -382.996
793.055; -147.543;-1179.002;-1210.996
793.312;  -99.841; -827.002; -816.997
793.568;  -66.990; -746.002; -599.997
793.824;   10.312; -226.001; -284.997
794.081;    8.814; -447.001; -508.998
794.337;   60.841; -664.001; -561.998
794.593; 1440.318; -319.001; -271.999
794.849; 6509.045; -746.001; -772.999
795.105;  305.946; -270.000; -261.999
795.361;    5.698; -490.000; -457.000
795.617;  -71.325; -875.000; -945.000
795.873;  -58.300; -360.000; -407.000
796.129;  -45.825; -368.000; -306.000
796.385;  -16.150; -124.000; -156.000
796.641;   57.475;  412.000;  550.000
796.897;  -90.900; -666.000; -635.000
797.153;   62.175;  453.000;  357.000
797.409;  -94.150; -785.000; -868.000
797.665;  -71.950; -625.000; -732.000
797.921;  -84.025; -775.000; -762.000
798.176;  -73.775; -744.000; -747.000
798.432;  -61.850; -824.000; -596.000
798.688;  -77.475;-1174.000;-1078.000
798.943;   83.175; -165.000; -147.000
799.199;  -12.175;-1005.000; -959.000
799.455;  237.100;  369.000;  316.000
799.710;  102.650; -813.000; -380.000
799.966;  284.775; -162.000; -160.000
800.221;  469.950; -638.000; -721.000
800.477;10672.025; -743.000; -710.000
800.732; 8777.650; -773.000; -800.000
800.988;  622.975;  205.000;  -19.000
801.243; 1745.025; -454.000; -344.000
801.498; 6960.150; -814.000; -739.000
801.754;  386.025; -289.000; -163.000
802.009;   63.375; -257.000; -335.000
802.264;  -73.025; -967.000;-1033.000
802.520;    9.025;  222.000;   -3.000
802.775;  -51.925; -524.000; -359.000
803.030;   46.325;  395.000;  356.000
803.285; -123.700; -840.000; -903.000
803.540;  -59.800; -686.000; -699.000
803.795;  -49.175; -648.000; -583.000
804.051;  -48.500; -279.000; -346.000
804.306;   15.400;  168.000;  128.000
804.561;  160.950;  451.000;  362.000
804.816;  135.625;  714.000;  861.000
805.071;   -3.625; -185.000; -280.000
805.325;  226.325; -257.000; -427.000
805.580; -107.250; -841.000; -877.000
805.835;  -30.450; -204.000; -297.000
806.090;  -76.075; -760.000; -676.000
806.345;   -6.725; -344.000; -264.000
806.600;  -21.725; -549.000; -632.000
806.854;  -41.150; -408.000; -538.000
807.109;  -20.600; -493.000; -577.000
807.364;    4.600; -407.000; -328.000
807.618;    3.550; -415.000; -381.000
807.873;   42.675; -470.000; -494.000
808.128;  106.050; -257.000; -518.000
808.382;  105.500; -224.000; -332.000
808.637;   72.450; -440.000; -511.000
808.891;  169.775; -257.000; -180.000
809.146;   87.875; -902.000; -794.000
809.400;  264.200; -848.000; -923.000
809.654;  345.400; -779.000; -551.000
809.909;  491.300; -841.000; -927.000
810.163; 7342.925; -813.000; -651.000
810.418;17410.475; -940.000; -861.000
810.672; 1022.325; -685.000; -690.000
810.926;  674.975; -993.000; -973.000
811.180; 1419.875; -439.000; -372.000
811.434;31437.875;  240.000;  135.000
811.689;11568.700; -231.000; -365.000
811.943;  589.825; -936.000; -953.000
812.197;  309.025; -893.000; -671.000
812.451;  123.975; -379.000; -514.000
812.705;  -37.325; -809.000; -619.000
812.959;   -1.575; -263.000; -388.000
813.213;    6.900; -283.000; -209.000
813.467;   74.075;  470.000;  253.000
813.721; -100.000; -764.000; -792.000
813.975; -111.000; -826.000; -877.000
814.229;   44.925;  430.000;  353.000
814.482;  -77.525; -517.000; -566.000
814.736; -112.725; -766.000; -744.000
814.990; -133.550; -779.000; -872.000
815.244;  -51.075; -228.000; -285.000
815.497; -101.275; -636.000; -601.000
815.751;   -4.325; -141.000;   82.000
816.005; -104.675; -470.000; -586.000
816.258;  -52.275; -510.000; -363.000
816.512; -121.200; -693.000; -610.000
816.766;    6.400;  121.000;  157.000
817.019;   22.950;  148.000;  149.000
817.273; -116.975;-1000.000; -802.000
817.526;  -32.750; -206.000; -173.000
817.779;  -33.900;-1049.000; -960.000
818.033;  -79.375; -693.000; -807.000
818.286; -120.400; -725.000; -792.000
818.540; -100.400; -403.000; -403.000
818.793;  -77.275; -402.000; -489.000
819.046; -113.200; -582.000; -520.000
819.299;  -32.425; -157.000; -166.000
819.553; -105.950; -552.000; -592.000
819.806; -164.250;-1016.000; -838.000
820.059;  -60.825; -334.000; -354.000
820.312;   11.025;  152.000;  185.000
820.565;  -27.875;  110.000;  -27.000
820.818;  -66.100;  -59.000; -173.000
821.071; -177.450;-1041.000; -957.000
821.324; -103.775; -536.000; -540.000
821.577;  -96.000; -457.000; -483.000
821.830;  -51.950; -270.000; -172.000
822.083; -120.775; -733.000; -288.000
822.336;  -60.475; -261.000; -167.000
822.589; -134.825; -805.000; -688.000
822.842; -157.525; -875.000; -770.000
823.094; -190.750;-1076.000;-1114.000
823.347; -137.200; -925.000; -729.000
823.600;   16.500;  402.000;  187.000
823.853;  -47.800; -311.000; -267.000
824.105;  -62.150; -331.000; -575.000
824.358; -110.400; -617.000; -716.000
824.611;   20.250;  234.000;   40.000
824.863;  -49.975; -612.000; -591.000
825.116;   36.525;  -33.000;   27.000
825.368;   89.100; -366.000; -372.000
825.621;  166.200; -186.000; -240.000
825.873;   73.725; -704.000; -737.000
826.126;  626.325; -669.000; -641.000
826.378;11928.725; -389.000; -505.000
826.630; 2617.175; -890.000; -898.000
826.883;   43.550; -754.000; -693.000
827.135;   21.300; -279.000; -270.000
827.387; -118.050; -893.000; -839.000
827.639;  -41.300;  -86.000;   32.000
827.892; -141.875; -742.000; -582.000
828.144; -146.775; -848.000; -804.000
828.396;  -34.600;  104.000;  -80.000
828.648; -103.175; -440.000; -333.000
828.900; -136.575; -702.000; -795.000
829.152; -119.625; -684.000; -683.000
829.404;  -62.800; -215.000; -267.000
829.656;  -44.250;  321.000;  214.000
829.908;  -21.950;  393.000;  229.000
830.160; -174.600;-1064.000;-1047.000
830.412;  -77.825; -481.000; -430.000
830.664; -119.675; -557.000; -665.000
830.916;  -73.700; -268.000; -206.000
831.167; -173.825;-1073.000; -951.000
831.419; -104.900; -623.000; -566.000
831.671; -147.825; -764.000; -809.000
831.923;  -94.825; -311.000; -447.000
832.174;  -82.400; -273.000; -331.000
832.426; -106.425; -493.000; -582.000
832.678; -188.225;-1043.000;-1091.000
832.929; -166.725; -947.000; -935.000
833.181;  -60.950; -575.000; -677.000
833.432;  -49.875;  -59.000; -186.000
833.684;   -7.475;  112.000;  -27.000
833.935; -124.800; -610.000; -566.000
834.187; -137.950; -829.000; -823.000
834.438;  -43.450;  -58.000;  -25.000
834.689;  -54.975; -255.000; -123.000
834.941;  -61.925; -343.000; -244.000
835.192;  -95.675; -590.000; -533.000
835.443; -100.325; -419.000; -506.000
835.695;  -14.000;  138.000;  -16.000
835.946;  -87.375; -608.000; -378.000
836.197; -113.775; -599.000; -622.000
836.448;  -75.850; -528.000; -395.000
836.699;  -72.250; -253.000; -341.000
836.950;  -18.225;   72.000;    7.000
837.201; -163.525;-1003.000; -987.000
837.452;  -43.950; -356.000; -170.000
837.703; -111.900; -791.000; -737.000
837.954;  -31.850; -205.000; -365.000
838.205;  -75.550;-1029.000;-1008.000
838.456;  169.725; -196.000; -282.000
838.707;    3.425; -423.000; -519.000
838.958;   15.000; -634.000; -647.000
839.209;  298.800;   18.000;   40.000
839.460;  124.950; -439.000; -201.000
839.710;  184.325; -135.000; -297.000
839.961;  433.975;  730.000;  612.000
840.212;  333.075; -382.000; -497.000
840.462; 1190.275; -328.000; -277.000
840.713;18584.225; -571.000; -536.000
840.964; 6793.550;  -62.000; -143.000
841.214;  506.175; -384.000; -624.000
841.465;  579.000; -214.000; -141.000
841.715;  523.450; -417.000; -380.000
841.966;  691.900; -746.000; -685.000
842.216;10343.125; -330.000; -431.000
842.466;35998.650; -169.000; -313.000
842.717; 1764.225; -964.000; -952.000
842.967;  334.300; -635.000; -641.000
843.217;  268.075;   20.000;   28.000
843.468;   82.175; -104.000; -132.000
843.718;  -38.700; -718.000; -726.000
843.968; -102.775; -837.000; -765.000
844.218;   30.575; -315.000; -262.000
844.469;  -33.700; -577.000; -561.000
844.719; -121.525; -537.000; -682.000
844.969;  -82.825; -550.000; -580.000
845.219; -153.075; -814.000; -862.000
845.469;  -73.625; -392.000; -342.000
845.719; -144.425; -792.000; -884.000
845.969;  -15.000;  119.000;  174.000
846.219; -118.100; -738.000; -720.000
846.469;   24.125;  464.000;  432.000
846.718;  -62.500; -115.000;   31.000
846.968; -135.075; -827.000; -827.000
847.218;  -53.300; -224.000; -371.000
847.468;    3.925; -586.000; -555.000
847.718; -147.075; -827.000; -798.000
847.967; -128.200; -826.000; -915.000
848.217;  -80.875; -449.000; -569.000
848.467;  -77.475; -405.000; -376.000
848.716; -106.775; -708.000; -725.000
848.966;   -6.200; -372.000; -358.000
849.215;  -70.050; -428.000; -419.000
849.465; -102.850; -785.000; -615.000
849.714; -141.000;-1132.000;-1150.000
849.964;  -58.250; -551.000; -613.000
850.213;  -26.300; -393.000; -355.000
850.463;   83.900;  137.000;  340.000
850.712;   -7.275; -542.000; -567.000
850.961;    8.350; -739.000; -678.000
851.211;   93.800; -513.000; -504.000
851.460;  164.025; -635.000; -650.000
851.709;  572.475;  -25.000;   18.000
851.958;10789.650; -912.000; -750.000
852.208;12201.950; -859.000; -879.000
852.457;  440.475; -181.000;  -13.000
852.706;   54.125; -791.000; -823.000
852.955;   12.475; -507.000; -528.000
853.204;  -69.350; -521.000; -461.000
853.453;  -99.050; -418.000; -458.000
853.702; -135.000; -660.000; -750.000
853.951; -112.300; -532.000; -520.000
854.200; -120.325; -613.000; -562.000
854.449; -127.225; -695.000; -661.000
854.698; -101.825; -340.000; -279.000
854.946;  -74.525; -181.000; -284.000
855.195; -161.350; -843.000; -868.000
855.444;  -89.050; -395.000; -420.000
855.693; -139.300; -345.000; -432.000
855.941; -102.350; -387.000; -516.000
856.190;  -44.575; -256.000; -382.000
856.439; -133.850; -652.000; -703.000
856.687;  -58.650;  -99.000;  -72.000
856.936; -117.700; -621.000; -323.000
857.184; -198.425;-1067.000;-1020.000
857.433; -105.100; -423.000; -512.000
857.681; -166.075; -989.000; -953.000
857.930;  -68.850; -282.000; -433.000
858.178; -183.225; -856.000; -929.000
858.427; -158.325; -802.000; -781.000
858.675; -115.075; -377.000; -544.000
858.923; -117.275; -527.000; -819.000
859.172; -185.575;-1094.000;-1070.000
859.420;  -98.800; -339.000; -239.000
859.668; -134.375; -624.000; -628.000
859.916;  -29.625;  109.000;  115.000
860.164; -126.175; -699.000; -603.000
860.413;  312.500; -878.000; -696.000
860.661;  221.225; -709.000; -577.000
860.909;  -85.575; -339.000; -325.000
861.157;  -94.175; -277.000; -444.000
861.405; -130.050; -534.000; -670.000
861.653;    8.425;  310.000;  310.000
861.901;  191.650; -543.000; -613.000
862.149;  -18.800; -801.000; -824.000
862.396;  -86.625; -297.000; -187.000
862.644; -100.125; -368.000; -347.000
862.892;  -31.600;   98.000;  138.000
863.140; -126.225; -549.000; -530.000
863.388; -167.625; -815.000; -759.000
863.635; -124.125; -642.000; -601.000
863.883;  -16.700;  231.000;  190.000
864.131; -104.675; -288.000; -357.000
864.378; -132.650; -675.000; -540.000
864.626; -105.550; -347.000; -415.000
864.873; -134.675; -556.000; -505.000
865.121; -153.700; -714.000; -799.000
865.368;  -46.100; -173.000;   75.000
865.616;  -46.375;  -33.000;  -40.000
865.863;  -85.375; -462.000; -506.000
866.111; -127.900; -795.000; -824.000
866.358;   17.850; -426.000; -420.000
866.605; 2178.825;  -64.000; -804.000
866.853; 2007.475; -621.000; -537.000
867.100;  -68.600; -728.000; -775.000
867.347; -101.375; -672.000; -611.000
867.594;  -80.150; -740.000; -714.000
867.841;   86.600;   97.000;   17.000
868.089; -165.525; -746.000; -698.000
868.336; -108.650; -477.000; -420.000
868.583; -143.400; -637.000; -741.000
868.830;  -61.150; -131.000; -170.000
869.077; -160.425; -859.000; -787.000
869.324; -124.725; -502.000; -458.000
869.571; -130.500; -398.000; -430.000
869.818; -125.225; -485.000; -439.000
870.065; -114.050; -439.000; -513.000
870.311; -123.800; -456.000; -542.000
870.558;  -99.150; -332.000; -311.000
870.805;  -79.700; -320.000; -384.000
871.052; -112.050; -494.000; -369.000
871.298;  -50.175; -204.000; -131.000
871.545;  -73.650; -151.000; -185.000
871.792;  -86.925; -173.000; -222.000
872.038;  -72.050;   43.000; -126.000
872.285; -133.125; -496.000; -387.000
872.532; -112.400; -357.000; -387.000
872.778;   -3.800;  556.000;  403.000
873.025; -100.175; -384.000; -359.000
873.271;    5.050;  501.000;  578.000
873.517;  -26.650; -133.000; -209.000
873.764;  -27.400; -193.000;  -80.000
874.010;  -87.050; -143.000; -230.000
874.257;  -44.725;  123.000;   90.000
874.503; -135.125; -579.000; -479.000
874.749;  -69.275;   31.000;  275.000
874.995;  -76.200;  -80.000;  -20.000
875.242; -129.850; -540.000; -478.000
875.488; -116.525; -414.000; -439.000
875.734;  -45.800; -106.000; -234.000
875.980;  224.675; -872.000;-1032.000
876.226;  383.400; -157.000; -255.000
876.472;   -2.650;  343.000;  237.000
876.718;  -47.875;  184.000;  158.000
876.964;  -39.650;   56.000;   55.000
877.210; -174.425; -547.000; -677.000
877.456; -131.675; -630.000; -557.000
877.702; -182.625; -821.000; -832.000
877.948; -115.425; -377.000; -497.000
878.193;   12.450;  361.000;  255.000
878.439;  -80.900; -487.000; -472.000
878.685; -100.300; -272.000; -343.000
878.931; -144.300; -618.000; -676.000
879.176;  -83.275; -201.000; -201.000
879.422; -172.450; -933.000; -820.000
879.668;   79.175;   10.000;   79.000
879.913;  154.125;   53.000;  137.000
880.159;  -46.325; -112.000;  -17.000
880.404;  -59.775; -152.000; -162.000
880.650;  -35.575;   91.000;  141.000
880.895; -163.750; -670.000; -710.000
881.141; -124.950; -454.000; -428.000
881.386; -161.875; -503.000; -658.000
881.631;  -86.975; -311.000; -166.000
881.877;  -15.850;  112.000;  -13.000
882.122; -142.200; -684.000; -600.000
882.367; -100.150; -136.000; -186.000
882.612;  -88.175;  -80.000; -176.000
882.858; -177.200; -877.000; -823.000
883.103;  -97.075; -297.000; -267.000
883.348; -163.550; -759.000; -852.000
883.593; -139.025; -677.000; -602.000
883.838;  -73.025; -311.000;  -24.000
884.083;   21.475;  353.000;  288.000
884.328;  -95.800; -564.000; -545.000
884.573;  -54.625; -196.000; -143.000
884.818;  217.750; -694.000; -531.000
885.063;  167.875; -348.000; -315.000
885.308; -117.550; -475.000; -398.000
885.553;  -16.625;  245.000;  325.000
885.797; -131.650; -545.000; -615.000
886.042;  -45.600;    8.000;   58.000
886.287;  -83.025; -253.000; -211.000
886.532;  -57.375;   26.000;  204.000
886.776; -102.000; -407.000; -525.000
887.021; -136.725; -621.000; -574.000
887.265; -162.350; -685.000; -689.000
887.510; -142.475; -557.000; -496.000
887.755; -102.875; -194.000; -164.000
887.999; -128.475; -552.000; -575.000
888.244;  -66.400;  -58.000;  161.000
888.488;    1.975;  371.000;  393.000
888.732; -132.675; -368.000; -520.000
888.977; -141.675; -622.000; -567.000
889.221; -160.850; -683.000; -659.000
889.465; -124.675; -422.000; -566.000
889.710;  -86.125;  -56.000; -299.000
889.954;    0.700;  579.000;  467.000
890.198; -154.225; -584.000; -707.000
890.442; -157.475; -716.000; -712.000
890.687; -164.325; -800.000; -753.000
890.931;  -96.725; -273.000; -210.000
891.175; -141.275; -502.000; -500.000
891.419;  -85.350; -105.000; -110.000
891.663; -102.600; -239.000; -112.000
891.907; -168.225; -801.000; -545.000
892.151; -181.400; -920.000; -815.000
892.395; -117.550; -274.000; -387.000
892.638;  -28.075;  408.000;  291.000
892.882; -194.525; -780.000; -867.000
893.126;   20.450;  758.000;  558.000
893.370;  -86.875; -167.000; -168.000
893.614; -150.825; -714.000; -715.000
893.857; -111.000; -183.000; -197.000
894.101; -132.950; -527.000; -631.000
894.345;  -60.875;  300.000;  150.000
894.588;    4.925;  569.000;  380.000
894.832;  -93.100; -178.000;  -84.000
895.075;  -87.600;   15.000;  -92.000
895.319; -132.050; -552.000; -420.000
895.563; -108.700; -413.000; -353.000
895.806; -156.250; -628.000; -741.000
896.049;  -59.725; -576.000; -368.000
896.293;   99.200;  527.000;  405.000
896.536;  -81.700; -465.000; -468.000
896.779;  -76.725; -149.000;   -1.000
897.023; -148.275; -751.000; -714.000
897.266;  -35.950;  325.000;  269.000
897.509; -188.700; -900.000; -901.000
897.752;  -49.150;  149.000;  171.000
897.996; -181.750; -972.000; -864.000
898.239;  -37.725;  168.000;  102.000
898.482; -122.850; -431.000; -453.000
898.725;  -59.850;  101.000;   53.000
898.968; -153.200; -609.000; -744.000
899.211; -109.300; -513.000; -361.000
899.454; -121.675; -633.000; -539.000
899.697;  -58.150;   90.000;  -43.000
899.940; -169.075; -761.000; -757.000
900.182; -105.100; -335.000; -405.000
900.425; -101.425; -150.000; -298.000
900.668;  -34.325;  491.000;  350.000
900.911; -103.700; -292.000; -345.000
901.154;  -59.500;  141.000;   -3.000
901.396; -138.525; -407.000; -412.000
901.639; -148.150; -430.000; -496.000
901.882; -193.150; -790.000; -809.000
902.124;  -85.450;  -29.000; -143.000
902.367; -118.025; -315.000; -361.000
902.609; -123.450; -476.000; -453.000
902.852;  -88.775; -108.000; -260.000
903.094; -126.425; -458.000; -337.000
903.337;  -66.450;  -26.000;   53.000
903.579; -105.725; -228.000; -441.000
903.821; -168.550; -597.000; -744.000
904.064;  -60.050;   85.000;  127.000
904.306;  -84.025; -126.000; -166.000
904.548; -108.550; -152.000; -366.000
904.790; -109.025; -195.000; -340.000
905.033; -142.100; -625.000; -577.000
905.275; -134.775; -513.000; -524.000
905.517;   53.125;  468.000;  256.000
905.759;  -76.625; -667.000; -761.000
906.001; -100.100; -322.000; -369.000
906.243;  -71.350; -162.000; -224.000
906.485;  137.025; -265.000; -207.000
906.727;   99.800; -499.000; -542.000
906.969;  -34.300;  -30.000; -135.000
907.211;  143.350; -316.000; -382.000
907.453;  289.675; -188.000; -237.000
907.695;  -22.825; -158.000; -385.000
907.936;   46.850;  818.000;  706.000
908.178;  -58.325;   92.000; -135.000
908.420;  -76.800; -111.000; -162.000
908.662; -134.050; -633.000; -682.000
908.903;  -96.800; -208.000; -123.000
909.145;  -61.825; -240.000; -305.000
909.386;    6.350;  315.000;  280.000
909.628;   32.750;  363.000;  397.000
909.870;    9.750;   29.000;  264.000
910.111; -108.675; -809.000; -949.000
910.353;   12.725; -123.000; -161.000
910.594;   -1.125; -574.000; -606.000
910.835;   64.600; -265.000; -326.000
911.077;  142.925; -503.000; -604.000
911.318;  273.975; -505.000; -471.000
911.559;  451.375; -577.000; -880.000
911.801; 1373.150; -284.000; -280.000
912.042;10893.700;  -50.000; -159.000
912.283;26346.450;  404.000;  371.000
912.524; 3676.325; -396.000; -457.000
912.765;  455.825; -193.000;   79.000
913.006;  231.675; -307.000; -338.000
913.247;   43.950; -270.000; -290.000
913.488;  -21.750;  -43.000;   30.000
913.729;  -81.725; -373.000; -373.000
913.970;  -76.100;  -96.000; -292.000
914.211;  -68.925; -160.000; -198.000
914.452;  -74.075; -118.000;  -11.000
914.693;    9.900;  510.000;  592.000
914.934;   15.400;  510.000;  440.000
915.175;  -74.625;   53.000;  -95.000
915.415;  -88.225; -137.000;   27.000
915.656;  -68.225;  -28.000;  192.000
915.897; -102.625; -252.000;  -82.000
916.137;  -74.375;   74.000;   -9.000
916.378; -133.000; -573.000; -517.000
916.619;  -87.150; -159.000;  -63.000
916.859;  -36.275;  303.000;  330.000
917.100;  129.175; 1655.000; 1070.000
917.340;   54.225;  930.000;  728.000
917.581;   39.375;  965.000;  789.000
917.821;  -32.475; -171.000;  143.000
918.061;   -4.475; -199.000;  -72.000
918.302;  -49.175; -152.000; -211.000
918.542;  -29.475;  -22.000;    3.000
918.782;   27.525;  369.000;  377.000
919.023;  145.550;  360.000;  427.000
919.263; 1418.800; 8131.000;  202.000
919.503; 1089.275; -137.000;  -54.000
919.743;  668.000;  390.000;  266.000
919.983;  261.300; -134.000;  -26.000
920.223;   79.075;  135.000;   14.000
920.463;  140.500;  631.000;  554.000
920.703;  120.875;   84.000;   39.000
920.943;  147.875; -110.000;   90.000
921.183;  218.650; -414.000; -405.000
921.423;  490.350;  307.000;  546.000
921.663;  699.725; -174.000; -257.000
921.903; 1570.275;  237.000;  173.000
922.143; 8869.350;  372.000;  389.000
922.383;32970.375;  158.000;  115.000
922.622;10113.575; -120.000;  -15.000
922.862; 1139.150;  796.000;  785.000
923.102;  439.100;  -51.000;   33.000
923.341;  181.800;   59.000;   74.000
923.581;   97.150;  450.000;  360.000
923.821;   36.700;  301.000;  398.000
924.060;   10.800;  351.000;  193.000
924.300;  -57.125;  -16.000; -128.000
924.539;    4.125;  584.000;  473.000
924.779;   17.150;  812.000;  597.000
925.018;  -47.900;  247.000;  353.000
925.257;   -0.550;  595.000;  666.000
925.497;  -48.200;  447.000;  412.000
925.736;  -82.150;  -35.000;  102.000
925.975;    1.925;  687.000;  669.000
926.214;   21.000;  907.000;  850.000
926.454;    6.200;  706.000;  757.000
926.693;  -28.125;  419.000;  543.000
926.932;   49.550; 1021.000;  825.000
927.171;   71.875; 1107.000; 1044.000
927.410;   58.100; 1144.000;  967.000
927.649;   20.900;  924.000;  742.000
927.888;   -5.900;  590.000;  564.000
928.127;  -14.200;  680.000;  678.000
928.366;   29.125;  842.000;  826.000
928.605;   42.425;  831.000;  737.000
928.844;  253.300; 1451.000; 1393.000
929.083;  601.850;  770.000;  613.000
929.321;  315.100; 1335.000; 1359.000
929.560;   81.425; 1158.000; 1122.000
929.799;  -34.325;  574.000;  475.000
930.038;   68.000; 1025.000; 1394.000
930.276;  -55.025;  334.000;  397.000
930.515;   -6.375;  827.000;  681.000
930.753;  -26.000;  614.000;  589.000
930.992;  -12.350;  664.000;  717.000
931.230;   -2.975;  847.000;  847.000
931.469;  183.350; 2162.000;  892.000
931.707;   78.050;  840.000;  751.000
931.946;   62.950; 1278.000; 1344.000
932.184;   50.700; 1437.000; 1175.000
932.423;   42.775; 1265.000;  963.000
932.661;   77.275; 1296.000; 1428.000
932.899;   36.950;  987.000;  821.000
933.137;   12.275;  754.000;  564.000
933.376;  140.950; 1664.000; 1335.000
933.614;  142.325; 1759.000; 1196.000
933.852;   42.925; 1357.000; 1171.000
934.090;  131.400; 1722.000; 1747.000
934.328;   98.325; 1252.000; 1457.000
934.566;   94.525; 1431.000; 1110.000
934.804;  122.225; 1263.000; 1309.000
935.042;  413.275; 1861.000; 1850.000
935.280; 1695.950; 2088.000; 2063.000
935.518; 1493.400; 2113.000; 2007.000
935.756;  336.500; 2481.000; 2316.000
935.994;  164.650; 1808.000; 1751.000
936.231;  350.725; 2890.000; 2950.000
936.469;  181.100; 2367.000; 2378.000
936.707;  165.650; 2220.000; 2167.000
936.945;  224.600; 2825.000; 2882.000
937.182;  205.225; 2679.000; 2741.000
937.420;  296.250; 3602.000; 3031.000
937.657;  408.875; 3365.000; 3478.000
937.895;  354.475; 3331.000; 3488.000
938.133;  323.900; 3540.000; 3528.000
938.370;  351.000; 3896.000; 4191.000
938.607;  393.925; 4488.000; 4205.000
938.845;  546.275; 5587.000; 5549.000
939.082;  484.350; 5387.000; 5177.000
939.320;  552.500; 5799.000; 5728.000
939.557;  646.350; 6549.000; 6491.000
939.794;  699.000; 7285.000; 7097.000
940.031;  939.125; 8421.000; 8368.000
940.269; 1141.450; 9552.000; 9107.000
940.506; 1151.625;10901.000;10507.000

