
Integration time [ms]: 200.000
Averaging Nr. [scans]: 10
Smoothing Nr. [pixels]: 0
Data measured with spectrometer [name]: 2101013U2
Wave   ;Sample   ;Dark     ;Reference
[nm]   ;[counts] ;[counts] ;[counts] 

394.013;  131.065; -450.257; -315.536
394.305;  463.562; -461.258; -419.536
394.596; 2034.323; -676.269; -527.514
394.887; 4750.546; -796.268; -654.518
395.178; 1838.487;  145.736;   11.476
395.470;  163.102; -210.263; -356.526
395.761;  450.166;  305.734;  394.479
396.052;  748.155; -545.284; -306.489
396.343;  771.249; -557.276; -454.503
396.634;  192.507; -200.279; -290.497
396.926;  195.942; -618.268; -565.517
397.217;  210.955;   11.725;  -17.504
397.508;   97.376; -366.273; -154.507
397.799;   48.907; -555.279; -571.497
398.090;  -25.401; -973.280; -902.495
398.381;  226.354;   11.708;  -11.473
398.672;  -32.245; -585.292; -742.473
398.963;   53.415; -348.279; -373.498
399.254;  204.367;   54.709; -209.475
399.545;  -92.439;-1017.266; -883.520
399.836;  128.334; -407.277; -343.501
400.127;   89.522; -205.295; -209.468
400.418;   93.469; -423.274; -392.506
400.709;   94.882; -359.281; -333.493
401.000;   97.373; -268.291; -309.476
401.290;  180.936;  225.698;  115.545
401.581;  122.631; -166.286; -228.485
401.872;   10.884; -542.298; -486.462
402.163;   66.312; -313.296; -252.467
402.454;  182.568; -123.291; -163.475
402.744;  117.400; -844.297; -813.465
403.035;  676.742; -226.293;  -86.471
403.326;  959.559; -366.292; -384.474
403.617;  669.477;  204.701;  165.539
403.907;  441.462; -593.283; -679.490
404.198; 4062.975; -545.307; -599.446
404.489;10730.569; -618.283; -588.491
404.779; 3685.941; -618.302; -660.456
405.070;  447.212;  -67.304; -174.451
405.360;  557.645; -259.293; -238.472
405.651;  665.056;  125.699;   98.542
405.942;  338.025;  209.714;  127.516
406.232;  497.945; -432.285; -413.487
406.523;  898.035;  641.706;  758.530
406.813;  162.028; -579.286; -644.484
407.104;  623.652;  261.708;  144.527
407.394;  331.478; -604.299; -591.462
407.685;  301.143;  336.715;  222.513
407.975;   88.467; -400.283; -382.490
408.265;  182.088; -134.289; -190.478
408.556;  141.464; -472.291; -459.475
408.846;  349.636;  474.706;  429.530
409.137;  170.899;   -1.288; -216.480
409.427;  102.544; -193.285; -271.487
409.717;   51.780; -776.273; -692.508
410.007;  260.436;    4.715; -170.486
410.298;  162.125; -360.295; -342.469
410.588;   65.541; -495.285; -510.486
410.878;   49.914; -792.287; -873.482
411.168;  167.687; -481.298; -478.463
411.459;  227.860; -295.283; -242.489
411.749;   37.462; -609.292; -507.474
412.039;  107.897; -755.289; -386.480
412.329;  354.624;   40.722;  132.501
412.619;  377.429;  -62.286; -148.485
412.909;  680.992;  639.711;  594.521
413.199;  572.699; -130.280; -251.495
413.490;  702.479;  521.710;  352.523
413.780;  231.405;-1013.279; -913.496
414.070;  541.150;  -46.276;  235.497
414.360;  579.219; -729.278; -666.498
414.650;  661.209; -726.288; -688.482
414.940;  870.304; -538.280; -441.496
415.230; 1536.405;   50.712;   74.519
415.520;10170.422;  155.730;   66.486
415.809;39781.381; -305.281; -125.493
416.099;31850.837; -388.277; -229.501
416.389; 8612.166;  435.726;  236.494
416.679; 5201.607;   91.738;   85.473
416.969;  847.620; -527.287; -503.483
417.259; 1019.207;  341.721;  171.503
417.549; 1166.979;  522.718;  318.508
417.838; 2689.945; -205.268; -147.518
418.128; 9168.086;  650.710;  492.522
418.418; 7743.289; -491.272; -579.509
418.708; 4975.966;    9.726;  -48.506
418.997;18973.060; -474.275; -480.505
419.287;20310.575; -733.273; -790.507
419.577;18680.159; -160.283; -123.489
419.866;60089.134; -588.277; -498.501
420.156;62282.917; -242.270;  -55.513
420.446;11793.797; -112.263;  -26.526
420.735; 1455.409; -376.271; -446.512
421.025; 1497.318; 1830.722;  315.502
421.314; 1129.006; -203.271; -226.512
421.604; 2287.035;   89.732;  233.484
421.893; 1401.001; -705.271; -602.511
422.183;  341.297; -487.263; -461.526
422.472;  666.903;  -36.271; -107.511
422.762;  720.969; -416.266; -379.521
423.051;  347.951; -916.276; -916.503
423.341;  477.578; -491.273; -439.507
423.630;  678.977; -121.265;   15.477
423.919;  632.459;   58.725;   49.495
424.209;  615.604;  -31.263;   56.473
424.498;  813.741;   68.732;  161.483
424.787; 1709.450; -535.267; -601.518
425.077; 5443.475;   34.735;   29.478
425.366; 7504.312; -734.262; -744.528
425.655;15702.978;  639.727;  259.493
425.945;34939.985; -313.247; -268.554
426.234;19977.742;  117.741;  300.467
426.523; 8193.449;  -86.259; -350.534
426.812;11474.363;  107.734;  159.480
427.101;16568.230; -127.269; -323.515
427.390;21185.222;  -55.270;  -86.514
427.680; 4803.676; -624.257; -411.538
427.969;  788.490; -330.255; -301.540
428.258;  519.764; -385.257; -477.536
428.547;  911.495;  449.728;  397.490
428.836; 1983.512; -421.253; -398.543
429.125; 2801.352; -199.259;  -72.534
429.414; 1359.243; -330.251; -294.548
429.703; 4959.243; -231.251; -213.548
429.992;15098.047; -938.250; -828.549
430.281;10258.087; -397.264; -331.524
430.570; 1041.930;  -21.252;   32.454
430.859;  990.849;  279.741;  352.466
431.148;  852.380;  636.752;  631.446
431.437;  479.429;  391.748;  367.454
431.725;  213.066; -544.257; -481.536
432.014;  144.922; -845.253; -756.545
432.303;  646.481; -149.239; -105.569
432.592;  925.596; -460.263; -178.525
432.881; 1642.181; -601.248; -437.554
433.169; 9841.691; -343.255;  -61.540
433.458;20308.627;  445.765;  540.424
433.747; 8557.719; -397.261; -289.529
434.036; 1416.149; -275.242; -280.564
434.324; 3341.264; -395.249; -379.551
434.613; 6020.340;   40.757;  159.437
434.902; 2084.668;  333.760;  439.433
435.190;  955.380;   75.761;  295.431
435.479;  544.416;  -52.245;   83.441
435.767;  183.427; -411.244; -427.561
436.056;  325.543; -340.242; -294.563
436.345;  575.971; -372.240; -223.568
436.633;  619.958;   60.750;  383.450
436.922;  487.074;  208.760;  414.432
437.210;  897.814; -194.236;    1.426
437.499; 2977.924; -583.235; -432.576
437.787; 3309.013; -339.236;  -10.574
438.075;  882.188;   56.761;  162.430
438.364; 1151.091;  -44.238;  250.429
438.652;  734.232; -286.226; -138.592
438.941;  192.583;    3.770;  269.415
439.229;  -13.774; -665.252; -466.545
439.517;   37.936; -160.234;  -85.577
439.806;  -28.547; -501.225; -290.595
440.094;  348.646;  377.766;  650.421
440.382;  270.351; -653.233; -302.580
440.670;  302.924; -361.235; -285.576
440.959;   27.976; -347.223; -170.599
441.247;   99.899; -151.229; -109.587
441.535;  169.233; -266.235;   31.423
441.823;   13.442; -497.234; -305.578
442.111;  337.304;  173.771;  327.412
442.400;  801.015; -628.245; -335.559
442.688; 2139.145; -111.234; -620.579
442.976; 1506.994; -786.213; -450.617
443.264;  113.662; -324.224; -364.597
443.552;  159.033; -258.226;   51.408
443.840;  324.232;  602.765;  876.423
444.128;  169.450;  265.767;  269.420
444.416;  -36.292; -694.228; -312.588
444.704;    1.516; -465.219;  -92.605
444.992;  160.237;   -0.226;  240.407
445.280;   61.484; -517.230;  -94.585
445.568;   32.799; -694.212; -396.618
445.856;  503.095; -174.221;  357.398
446.143; 1188.011;  -54.220;   -7.604
446.431;  971.813;  -25.228;  625.411
446.719;  425.442;  489.783;  675.391
447.007;  304.777;  481.769;  705.416
447.295;  341.372;  597.777;  871.402
447.583;  114.096; -464.229;  -34.587
447.870;  222.290; -434.221; -202.601
448.158;  648.583; -104.230;  129.415
448.446;  466.212; -800.219; -338.604
448.733;  248.564;   13.776;  269.403
449.021;  444.398;   60.788;  341.382
449.309;  239.719; -296.210;  208.379
449.596;  376.037;  128.783;   59.392
449.884;  182.482; -571.222; -325.600
450.172;  167.420; -756.227; -406.590
450.459;  691.472;  645.786;  780.387
450.747; 3592.135; -411.218; -147.608
451.034;11733.314;  493.772;  889.411
451.322;10151.376; -413.214; -170.614
451.609;  838.066;  292.777;  508.403
451.897;  850.803; -550.203; -183.634
452.184; 2674.873; -622.223; -400.598
452.472; 2771.747;   97.792;  269.375
452.759;  603.513;  512.781;  864.395
453.047;  200.395; -407.212; -125.617
453.334;  127.824; -732.219; -216.606
453.621;  151.179; -438.214; -161.615
453.909;  224.093;   13.796;  384.368
454.196;  212.253; -299.199; -123.641
454.483;  371.421;  317.798;  540.364
454.771;  226.551; -215.208;  196.374
455.058;   61.156; -316.207;  102.374
455.345;  227.128;   71.807;  344.347
455.632;  139.260; -128.207;  235.373
455.919;  114.884;  -82.196;  182.354
456.207; -150.240; -774.198; -450.642
456.494;  -22.663; -475.200;  -66.639
456.781;   -0.085; -399.202; -198.635
457.068;   92.569; -253.206;  -29.628
457.355;  -60.829; -698.206; -401.629
457.642;  -36.722; -552.205; -290.630
457.929;  -26.584; -778.194; -417.651
458.216;   68.096; -575.212; -354.617
458.503;  330.622; -173.193;  -19.652
458.790;  330.849; -864.208; -630.625
459.077;  447.222;  -77.202;  110.364
459.364; 1199.106; -350.195; -210.649
459.651; 2564.066;  -46.206;  220.372
459.938; 1212.536; -864.209; -665.623
460.225;  249.526;  132.799;  276.363
460.512;  -85.520; -836.197; -688.645
460.799;  187.433;  -32.218;  320.392
461.086;  113.543; -370.200; -251.640
461.372;   38.360; -509.198; -279.642
461.659;  193.085; -165.196;  108.354
461.946;   91.320; -445.193;  -54.651
462.233;  447.440;  842.800;  888.361
462.519;  472.436; -814.201; -464.639
462.806; 1536.681; -768.197; -497.645
463.093; 1363.948; -445.191;  -66.656
463.380;  -83.497; -920.186; -824.664
463.666;   72.883; -259.197;  -18.646
463.953;  162.099; -406.195; -243.648
464.239;  275.699; -173.195;  -77.648
464.526;  693.114;  413.806;  743.350
464.813;  455.863; -565.190; -304.658
465.099;  622.521;  606.807;  607.348
465.386;  563.027;  903.807;  921.348
465.672;   36.381; -694.197; -522.645
465.959;   20.487; -598.188; -520.662
466.245;   48.727; -468.193; -359.652
466.532;  134.896; -109.195;   63.352
466.818;  132.903; -357.186; -216.664
467.104;  -44.443; -488.182; -415.672
467.391;  -41.634; -628.189; -459.658
467.677;   29.808; -289.186;    9.335
467.964;   15.175; -682.189; -471.660
468.250;  118.811; -331.186; -160.665
468.536;  163.268;   90.811;  180.341
468.822;  -92.873; -821.184; -574.668
469.109;  334.965;  351.827;  471.311
469.395;  375.040;  729.808;  787.346
469.681;  320.272;   46.811;  156.341
469.967; 1810.878; -699.188; -382.660
470.254; 4099.389; -494.188; -306.662
470.540; 2601.684; -601.196; -476.646
470.826;  349.872; -488.181; -397.675
471.112;  485.832;  288.816;  113.331
471.398;  160.038; -253.183;  -58.670
471.684;   49.510; -626.177; -447.680
471.970;  -38.923; -918.180; -981.675
472.256;   18.538; -521.192; -441.654
472.542;   28.480; -499.171; -434.691
472.828;   -7.948; -743.182; -607.672
473.114;   34.439; -380.166; -283.700
473.400;   -6.068; -504.175; -293.684
473.686;   52.447; -452.166; -400.701
473.972;   51.552; -230.174; -131.687
474.258;  -92.935; -925.173; -843.689
474.544;  294.199; -183.178;   -2.679
474.830;  514.234;  -65.175;   45.316
475.116;  703.765; -123.190; -196.658
475.401; 1034.880; -558.180; -467.676
475.687;  236.579; -725.180; -718.676
475.973;  -32.338; -673.181; -770.673
476.259;  420.537;  736.825;  764.315
476.544;  545.221; -539.176; -437.682
476.830; 1218.175; -398.172; -322.690
477.116; 1079.619; -430.177; -336.682
477.401;  267.979;  346.820;  358.324
477.687;  -14.868; -289.175; -405.684
477.973;   59.367;   21.819;   28.326
478.258;   -8.326; -448.163; -348.706
478.544;   92.918;   21.815;   61.334
478.829;  -97.713; -818.171; -738.692
479.115;  -93.126; -749.172; -651.690
479.401;   -6.854; -444.174; -449.686
479.686;   46.478; -253.180;  -74.676
479.972;  -96.894; -886.178; -776.680
480.257;   29.141; -258.166;  -65.700
480.542;  -34.907; -614.170; -469.693
480.828;  480.730; 1288.824; 1392.317
481.113;  -39.173; -464.176; -426.683
481.399;   -3.094; -236.161; -202.711
481.684;  -61.460; -620.166; -462.700
481.969;   33.825; -158.159;  -73.713
482.255;  -23.393; -439.169; -285.695
482.540;  -51.994; -569.178; -441.680
482.825;   29.597; -395.187; -404.663
483.110;  161.511;  -85.169; -105.696
483.396;  234.654; -840.157; -652.718
483.681;  791.252;  543.826;  730.313
483.966;  238.316; -696.160; -700.712
484.251;  -18.550; -404.174; -310.687
484.536;    0.754; -356.165; -378.703
484.822;   29.955; -205.173; -218.687
485.107;  -42.395; -599.152; -502.726
485.392;  231.262;  662.836;  541.296
485.677;  150.125;  354.832;  163.302
485.962;  213.950;  160.843;  270.283
486.247;  189.985;  -14.162;   -8.707
486.532;   31.442; -178.166; -325.701
486.817;  304.399;  381.839;  431.291
487.102;  142.482; -453.154; -514.722
487.387;  910.756; -637.156; -652.718
487.672; 1715.869; -154.164;  -38.705
487.957; 1137.408; -394.160; -286.711
488.241;  253.927; -290.150; -314.729
488.526; 1099.207; -280.152; -148.726
488.811; 1649.809; -881.177; -818.680
489.096; 1286.286; -666.154; -702.723
489.381;  734.802;    3.847;  162.275
489.666;  547.906; -428.161; -510.710
489.950;  353.790;  558.846;  627.277
490.235;  -61.679; -480.151; -458.728
490.520; -141.195; -756.161; -723.710
490.804; -114.241; -827.156; -736.719
491.089;  -43.052; -469.149; -299.732
491.374;   79.767; -132.164;  -75.704
491.658;  -60.536; -817.147; -717.735
491.943;  186.712; -657.152; -609.727
492.227;  380.676; -178.155;  -38.721
492.512;  109.650; -294.157; -341.717
492.797; -163.760; -713.149; -716.731
493.081; -120.633; -588.147; -598.735
493.366; -103.593; -751.161; -635.711
493.650;  404.939;  831.859;  917.254
493.935;    4.663; -648.147; -447.734
494.219;  -72.078; -778.142; -687.743
494.503;  -96.167; -585.150; -487.730
494.788;  113.738;   46.842;   74.285
495.072;  187.129;  184.850;  434.271
495.356;  230.053; -463.148; -343.733
495.641;  602.976; -812.146; -736.736
495.925;  604.465; -976.156; -903.719
496.209;   43.048; -599.149; -451.732
496.494; -101.378; -763.142; -544.744
496.778;    3.782; -364.154; -360.722
497.062; -124.635; -819.156; -627.719
497.346;  -85.189; -869.160; -640.711
497.631;  271.257;  580.852;  560.266
497.915;  132.390;  -64.145;  175.261
498.199;   85.354; -341.157; -277.718
498.483;   37.704; -562.152; -508.725
498.767;  364.330;  301.850;  300.271
499.051;  289.244; -126.149; -100.732
499.335;   24.842; -693.149; -739.731
499.619;  -74.625; -381.129; -423.767
499.903;   44.175; -272.155;  -65.721
500.187;    6.192; -588.153; -316.724
500.471;   -7.889; -796.152; -595.727
500.755;  188.005;   62.839;  -96.710
501.039;   39.375; -270.155; -357.721
501.323;  177.341;  -21.141;  264.254
501.607;   56.075; -447.163; -503.706
501.891;    1.955; -607.156; -512.718
502.174;  -54.895; -726.144; -585.741
502.458;  121.117;   89.849;  370.273
502.742;   59.973; -180.138; -191.751
503.026;  143.462; -412.147; -254.734
503.310;  236.923; -437.159; -375.713
503.593;  143.765; -464.147; -325.735
503.877;  237.427; -232.133; -156.760
504.161;  268.995;    2.847;  -50.724
504.444;  109.841; -841.158; -710.716
504.728;  635.866; -487.164; -522.704
505.012; 1051.026; -257.150;  -76.729
505.295;  803.007; -417.161; -212.711
505.579;  787.864; -256.156; -496.719
505.862; 1078.585; -555.145; -333.738
506.146;  979.326; -681.159; -758.714
506.429;  617.827;  568.841;  461.286
506.713;   92.422; -732.151; -667.728
506.996;  508.981;   90.846;  295.278
507.280;  491.659; -633.165; -474.703
507.563;  375.973; -469.155; -261.721
507.847;  128.493; -423.153; -112.724
508.130;   80.008; -665.161; -456.711
508.413;  165.835; -758.167; -577.700
508.697;  348.035; -151.167;   12.300
508.980;  243.595; -422.153; -312.724
509.263;  -25.732; -466.155; -450.720
509.547;   65.526; -124.150;   82.271
509.830;   90.910; -172.160;  140.289
510.113;  190.364;  128.844;  298.281
510.396;    3.902; -530.152; -300.725
510.680;  207.487; -818.145; -812.738
510.963;  943.487;  184.846;  180.277
511.246;  796.036; -493.150; -357.730
511.529;  387.594; -482.145;  -83.739
511.812;  562.523; -250.134;   10.241
512.095;  336.219; -740.151; -396.728
512.378;  101.570; -317.147; -245.736
512.661;    4.283; -703.137; -623.753
512.944;   29.024; -750.142; -637.744
513.227;   76.480; -170.137; -171.752
513.510;   32.205; -479.144; -671.741
513.793;  -30.953; -485.140; -435.747
514.076;  234.202;  -43.127;  -39.771
514.359;  135.649; -294.149; -135.732
514.642;  139.328; -442.142; -567.744
514.925; 1153.345;  581.860;  561.253
515.208; 1414.118; -498.134; -443.758
515.491;  945.436; -276.133; -182.761
515.773;  491.210; -410.143; -337.742
516.056; 3087.492;  249.864;  409.246
516.339; 4067.697; -754.136; -652.755
516.622; 2807.533; -518.150; -488.730
516.904; 1974.320;  882.857;  975.257
517.187;  793.978; -730.138; -523.752
517.470;  598.018; -568.143; -510.743
517.752;  584.601; -624.136; -470.756
518.035;  485.761; -708.139; -725.749
518.318;  509.497; -799.136; -744.755
518.600; 3471.241; -300.132; -325.762
518.883; 4891.028;  310.858;   88.256
519.165; 2380.468; -585.138; -426.751
519.448;  599.141;  -61.132;  -19.762
519.730;  302.713; -573.126; -415.773
520.013;  514.931;  588.867;  664.240
520.295; 1227.625;  -94.134;  -15.759
520.578; 2678.658; -335.131; -305.764
520.860; 3098.341; -254.132;   56.238
521.143; 1622.204; -763.135; -584.756
521.425;  708.830; -251.125; -279.775
521.707; 1006.403; -622.127; -380.771
521.990; 2602.004; -199.127;  167.229
522.272; 2867.249; -116.140;   -4.748
522.554; 1342.611; -237.143; -157.742
522.836;  518.322;  -24.134;   99.241
523.119;  280.761; -496.148; -189.734
523.401;  178.067; -448.130; -314.766
523.683;   69.184; -865.137; -693.753
523.965;  437.675;  408.862;  260.248
524.247;  421.158;   54.878;  170.220
524.529;  253.725; -451.134; -367.759
524.812;  593.470;   -3.130;  191.234
525.094; 1177.574; -773.138; -631.751
525.376; 1972.742; -143.124;   78.223
525.658; 1107.594; -441.136; -339.754
525.940;    9.754; -805.131; -671.764
526.222;   32.698; -188.136;  -88.755
526.504;  202.351; -190.131;   32.237
526.786;  169.528; -960.133; -647.760
527.068;  466.550; -124.123;  -67.778
527.349;  145.089; -865.137; -774.754
527.631;  193.940; -137.132;   22.238
527.913;  149.002; -664.127; -450.771
528.195;  215.221; -761.125; -639.774
528.477;  358.118;  -93.134;  -30.758
528.759;  162.870; -648.130; -522.766
529.040;   49.248; -569.123; -293.778
529.322;   69.924; -235.125;  -10.774
529.604;  196.473;  -47.130;   93.233
529.886;  178.212; -546.126; -302.773
530.167;  180.362;  232.870;  192.235
530.449;   74.469;    1.853;   63.265
530.731;    7.957; -572.122; -459.779
531.012;   87.285; -513.120; -216.784
531.294;  100.138; -118.116;  -43.792
531.575;  273.830;  290.875;  538.225
531.857;   14.711; -548.135; -266.757
532.138;  252.439; -113.141;   40.254
532.420;  279.006;  294.865;  403.244
532.701;  234.931; -722.133; -751.760
532.983;  523.535;  232.867;  182.239
533.264;  200.410; -243.126;  175.228
533.546; -133.102; -491.136; -508.755
533.827;  100.827;  173.867;   -1.759
534.109;   27.811; -352.135;  -80.757
534.390;  109.646; -725.132; -582.762
534.671;  348.106; -270.135;  -82.756
534.953;  158.652; -751.123; -611.779
535.234;  -30.682; -426.117; -255.789
535.515; -161.104; -891.119; -735.785
535.796;  -88.003; -431.128; -193.770
536.078; -216.058;-1050.124; -904.777
536.359;   14.153;  -22.123;    3.221
536.640;  -47.677; -480.125; -197.774
536.921;  247.480;  225.871;  143.232
537.202;  556.770;  -87.138;  -16.751
537.483;  678.257;  251.869;  377.236
537.764;  286.162;   17.870;   98.235
538.045; -119.283; -543.134; -371.758
538.326;  -57.918; -596.129; -447.768
538.607;  -25.296; -686.127; -476.771
538.888;  311.773;   98.879;    5.218
539.169;  193.466; -704.122; -535.781
539.450;  529.978;  236.871;   16.233
539.731;  272.678; -361.121; -182.783
540.012;  214.085;  199.880;  412.216
540.293;  151.534;   82.876;  158.224
540.574;  -40.635; -895.113; -717.796
540.855;  699.976;  435.879;  377.218
541.136;  800.662;   47.878;  139.220
541.416;  408.471; -161.130; -220.766
541.697;  307.452; -274.131; -170.763
541.978; 1484.309; -270.135; -315.757
542.259; 1851.604; -211.127; -236.771
542.539;  912.629; -191.116; -186.790
542.820;  362.029;  461.875;  480.225
543.101;  143.589;  -52.145;  -77.738
543.381;  -16.296; -638.127; -591.771
543.662;  390.800;  159.873; -254.771
543.942;  764.998; -751.127; -830.770
544.223; 1530.364;  193.878;  161.219
544.504;  976.541; -275.124; -182.777
544.784;  816.112; -592.126; -408.773
545.065; 2330.534;  104.884; -254.791
545.345; 2860.797;  227.881;   14.215
545.626; 1923.364;  -14.113; -108.796
545.906; 1262.261;   77.869;   98.235
546.186;  570.318;   92.874;  -95.773
546.467;  316.145;   99.877;  -95.778
546.747;  516.229;  264.884;  327.210
547.027;  566.739;   91.876;  111.223
547.308;  434.997; -376.127; -530.770
547.588;  586.883;  299.871;  371.232
547.868;  348.663;  458.870;  588.235
548.149;  361.744;  609.885;  593.207
548.429;  201.602; -347.127; -299.771
548.709;  224.685; -645.120; -461.784
548.989;  680.209;   84.882;   88.213
549.269; 3042.939;   10.868;  139.239
549.550; 6927.150;  215.877;  117.222
549.830; 6158.588; -758.111; -556.799
550.110; 1246.099; -468.110; -320.801
550.390; 1205.458; -128.122;  -56.779
550.670; 1497.959; -868.114; -783.795
550.950; 1107.576; -509.121; -471.782
551.230;  364.671;  549.879;  460.218
551.510;  -35.726; -381.121; -326.782
551.790;   31.409; -173.109; -127.803
552.070;  481.545;  940.877; 1181.223
552.350;  578.602; -492.119; -377.786
552.630;  782.368;   -2.121;   77.219
552.909;  546.835;  181.884;   73.209
553.189;  288.147;  -49.132;   33.237
553.469;  259.501; -703.119; -514.786
553.749;  233.006; -469.127; -357.772
554.029;  250.423;   33.883;  -24.790
554.308;  202.550; -154.115;  -37.794
554.588;   96.995; -196.128; -204.770
554.868;   61.777; -366.121;  -47.782
555.147;  234.546; -114.115;  -46.793
555.427;  868.938; -260.116; -250.792
555.707; 5590.943; -284.115; -200.793
555.986; 6581.093; -719.111; -538.800
556.266; 3596.527;   23.884;   72.210
556.546;  101.374; -888.121; -675.782
556.825;  345.256; -657.114; -556.794
557.105; 2575.992; -125.128;   17.230
557.384; 2931.034;  122.884;  187.209
557.664; 1095.537; -717.116; -508.792
557.943;  135.876; -557.121; -411.782
558.222;  231.614; -345.118; -344.788
558.502;  395.948; -116.115;  -76.793
558.781;  701.842;  194.885;  499.208
559.061;  587.413; -232.118; -227.788
559.340;  455.820;  302.883;  353.211
559.619; 1067.327;   93.884;  148.210
559.899; 1441.222; -239.117; -266.789
560.178; 1318.147; -778.115; -593.793
560.457; 4553.925; -623.117; -562.790
560.736; 6073.895; -472.111; -482.800
561.015; 4148.390; -500.128; -502.769
561.295;  575.336;  180.893;  215.193
561.574;  471.344;  119.885;  116.207
561.853;  745.815;  274.891;  303.197
562.132;  678.851;  -45.114;  182.206
562.411;  670.168;  396.879;  553.219
562.690;  129.242; -592.115; -458.792
562.969;  292.074;  472.888;  630.203
563.248;  942.865; 2966.878; 2487.219
563.527;  352.494; -290.111; -408.800
563.806;  505.302; -650.127; -521.771
564.085;  578.556; -297.105; -206.810
564.364;  299.527; -594.117; -405.790
564.643;  723.569; -276.121; -223.781
564.922; 2663.307;  221.890;  397.198
565.201; 2626.511; -640.109; -700.803
565.479; 1153.840; -297.115; -219.792
565.758;  415.393; -810.128; -712.770
566.037;  648.413; -155.109; -100.803
566.316;  348.534; -286.116;  -28.791
566.595;   76.344;  -17.115;  -12.793
566.873;  208.696; -166.111;  -79.801
567.152; -110.427; -490.113; -590.797
567.431;   25.129; -113.116;    6.210
567.709;   21.736; -344.107; -212.807
567.988;  311.455; -810.114; -769.794
568.266;  698.543; -160.115;  -68.793
568.545;  555.519; -644.100; -514.819
568.824;  847.239;  160.885;  356.208
569.102;  751.655; -351.114; -235.794
569.381;  272.238; -492.116; -407.792
569.659; -101.132; -553.113; -553.796
569.938;   32.063; -743.122; -465.780
570.216;  129.816; -225.109; -225.804
570.494; -111.341; -632.114; -572.795
570.773;   89.974;  202.879;  114.218
571.051;   -5.951; -373.123; -357.778
571.330;  117.165; -221.113; -174.796
571.608;   32.743; -181.098; -173.823
571.886; -174.014; -671.111; -581.799
572.164; -144.623; -739.121; -621.782
572.443; -103.539; -562.105; -512.811
572.721; -100.075; -399.117; -289.790
572.999;  -62.084; -280.117; -168.788
573.277;  170.052;  379.894;  620.191
573.555;  446.755;   94.894;   37.190
573.834; 1903.916;  -86.117; -114.788
574.112; 2251.839;  880.893;  811.193
574.390;  697.995; -143.111;  -96.801
574.668;   15.575;  -91.112;  -61.797
574.946;   -2.545; -165.106; -187.810
575.224;   32.811;   71.891;  -16.803
575.502;  -60.169; -200.116; -204.791
575.780; -170.124; -767.112; -829.798
576.058;  511.894; 1589.889; 1004.200
576.336;  -30.599; -210.110; -129.801
576.614; -125.023; -511.112; -340.798
576.891;   50.749; -711.115; -823.794
577.169;  639.227; -158.108; -285.805
577.447;  851.838;  169.893;  202.193
577.725;  440.082;  629.888;  854.201
578.003;   37.680;  -71.112; -371.798
578.280;  113.373; -208.104; -242.812
578.558;   57.448; -450.115; -422.793
578.836;  177.759; -210.114; -145.795
579.114;   45.574; -630.112; -670.797
579.391;  134.118;   -6.117;  -18.789
579.669; -151.049; -595.114; -704.794
579.947;  230.234; -326.107; -127.806
580.224;  403.534; -692.107; -524.806
580.502;  470.339;  127.893;   76.193
580.779;   89.426;  -42.117;   75.210
581.057; -139.583; -584.109; -470.804
581.334; -179.207; -726.102; -695.815
581.612;   93.356;   54.895;  511.190
581.889;  -35.889;  -83.101; -129.818
582.167;  -53.570; -298.099; -190.821
582.444; -165.097; -845.102; -814.817
582.721;  234.604;  657.899;  715.183
582.999;  101.726; -326.100; -167.821
583.276;  668.054; -812.123; -713.779
583.553; 1000.597; -364.102; -294.816
583.831;  257.569; -607.104; -631.812
584.108;  143.224;  349.892;  174.195
584.385;   14.392; -122.102;  -98.815
584.662; -126.303; -651.111; -828.801
584.940;   92.296;  204.889;  204.199
585.217;  -36.832;  -73.113; -303.796
585.494;   43.708;   71.890;  118.198
585.771;  296.718; -250.109; -354.804
586.048;  683.768; -196.113;  -76.796
586.325;  368.800; -721.110; -773.801
586.602;  141.574;  230.896;  213.188
586.879;  -46.478; -499.100; -580.820
587.156;   66.158; -156.105; -331.810
587.433;  -93.799; -701.102; -667.817
587.710;   87.977;  152.888;  234.202
587.987;  468.165; -264.105; -236.811
588.264; 1165.979;  315.888;  387.202
588.541; 2059.877;  -61.104;   26.187
588.818; 3766.121;   72.892;  171.196
589.095; 3285.271; -163.104; -174.812
589.371;  474.615; -459.109; -414.804
589.648;   22.939; -581.107; -437.807
589.925;  -23.740; -517.114; -621.795
590.202;  -12.923; -741.112; -607.798
590.478;  142.667; -166.105;  -73.811
590.755;  468.729; -241.108; -132.806
591.032; 3499.903; -741.110; -699.802
591.308; 4723.397; -732.094; -790.831
591.585; 2489.002; -573.110; -560.802
591.862;  141.203;-1056.102; -950.817
592.138;   51.026; -475.108; -474.805
592.415;  193.875; -486.104; -495.813
592.691; 2196.472;  460.896;  518.188
592.968; 2527.246; -208.098; -123.824
593.244; 1258.429; -695.116; -595.790
593.521;  107.203; -105.102;  -42.817
593.797;  -91.541; -810.122; -720.780
594.074;  411.063; -611.096; -588.826
594.350;  976.677;  828.905;  729.172
594.626;  469.497; -303.111; -283.801
594.903;  117.704; -643.101; -645.817
595.179;  314.180;  243.896;  418.187
595.455;    5.441; -136.107; -150.807
595.731;   44.982;  -19.103;  -38.814
596.008;  -76.511; -464.111; -434.800
596.284;   21.125; -187.100; -242.820
596.560;   26.105; -501.093; -493.833
596.836;  287.360; -173.105;  -70.810
597.112;  487.227; -582.108; -437.805
597.388;  405.660;  -49.097;  -48.826
597.665;  206.671;  437.887;  530.203
597.941; -108.055; -572.089; -658.839
598.217;    7.407; -323.110; -293.802
598.493;  399.720;   61.891; -204.804
598.769;  698.817; -175.100;  -50.819
599.045;  398.831; -490.108; -562.806
599.321;   16.023; -193.100; -261.820
599.597;  203.619; -355.109; -476.804
599.872;  736.577;  409.896;  429.187
600.148;  547.862;  -61.097; -172.826
600.424;  430.437;   91.893;  202.193
600.700;  341.040; -170.107; -280.807
600.976;  132.854; -442.097; -464.825
601.252;  326.315; -226.109; -272.803
601.527;  180.578; -833.104; -840.813
601.803;  202.068; -453.105; -404.812
602.079;  218.517; -124.100; -118.819
602.354;  771.119; -620.092; -531.835
602.630; 1158.568; -140.113; -482.796
602.906; 3491.011; -910.101; -863.818
603.181; 9161.102; -627.119; -534.786
603.457; 7969.659;   98.903; -278.826
603.733; 1105.480; -605.120; -626.783
604.008; 1446.256; -245.106; -164.810
604.284; 4110.406; -636.101; -580.817
604.559; 3775.682;   -3.112;  -42.799
604.835;  669.860; -163.105; -225.810
605.110;  537.030; -732.099; -892.821
605.385;  992.609;  224.907;  267.167
605.661;  940.181; -625.095; -729.829
605.936; 1487.931; -664.108; -737.806
606.211; 1403.591;  -17.103; -170.815
606.487;  237.753; -329.114; -376.794
606.762;  -18.498; -791.119; -745.786
607.037;  -48.940; -501.105; -433.810
607.313; -108.228; -589.096; -574.828
607.588;  -24.445; -375.106; -137.810
607.863;   56.910;  -28.101; -143.818
608.138;  304.506;  513.890;  516.198
608.413;   19.836; -576.099; -592.822
608.688;   50.626; -203.108; -267.805
608.964;  321.848; -509.106; -218.809
609.239;  317.157; -107.105; -212.810
609.514;  417.867;  281.895;  240.188
609.789;  835.573; -187.104; -716.812
610.064; 1150.870; -435.096; -609.827
610.339; 1183.015; -855.109; -799.804
610.614; 1622.524; -131.100; -315.820
610.889;  956.267;  215.895;  107.188
611.163;   32.768; -407.104; -591.812
611.438;  113.255;   81.886; -167.794
611.713;  -20.994; -467.101; -499.817
611.988;   80.709; -144.101; -328.818
612.263; -102.707; -771.102; -717.815
612.538;  343.167;  385.887;  251.204
612.812;  185.526; -832.100; -911.820
613.087;  170.843; -358.098; -338.823
613.362;  -83.060; -497.107; -557.807
613.637;   83.585;  261.897;  138.186
613.911;   -7.081; -256.092; -345.835
614.186;  148.338; -249.107; -292.807
614.460;  878.645; -842.081; -758.854
614.735; 1080.276;  -55.087;  -17.843
615.010;  274.862;   43.912;  -82.841
615.284;  395.225;  360.892;  246.195
615.559;  426.318; -792.092; -955.835
615.833;  400.633;  -76.099;  -87.822
616.108;   23.734; -225.090; -390.837
616.382;  222.878;  274.913;  402.156
616.656;  184.234; -241.090; -232.837
616.931;  627.034; -785.099; -700.822
617.205; 1406.479; -973.104; -979.813
617.480; 1373.727;  -91.125;    6.225
617.754;  227.224; -396.125; -128.774
618.028;  -43.116; -369.129; -382.768
618.302;  150.423;   73.892;  -25.805
618.577; -127.413; -371.103; -518.815
618.851;  -79.689; -399.109; -600.803
619.125;  -92.175; -335.134; -378.759
619.399;  -43.521; -244.104; -374.813
619.673;  -98.561; -330.115; -515.792
619.947;  -68.541; -333.114; -448.795
620.222;  -31.602; -198.110; -204.801
620.496;   -5.624;  -47.121;  -96.782
620.770;   49.965; -187.122;  -93.781
621.044;  380.058;  323.895;  346.190
621.318;  955.980; -653.120; -614.783
621.592;  946.077; -430.121; -409.783
621.866;  425.084; -476.112; -572.799
622.140;   10.731; -207.116; -356.791
622.413;   69.889;  138.889;  112.200
622.687;  -90.094; -746.101; -492.817
622.961;   35.824; -130.108; -143.805
623.235; -130.710; -633.111; -661.800
623.509; -204.033; -816.105; -848.811
623.783;   45.835;  -12.107;   48.193
624.056;  -48.418; -254.120; -280.783
624.330;  127.775;   63.888;   -3.797
624.604;   65.827; -271.116; -355.790
624.877;  130.504;  180.890;   26.198
625.151;   45.652; -249.114; -238.794
625.425;  -53.918; -150.103; -283.814
625.698; -132.906; -367.119; -374.785
625.972; -172.293; -799.110; -765.802
626.245;  157.729;  685.884;  484.210
626.519;  -82.813; -426.120; -340.784
626.792;  -35.560; -192.107; -380.807
627.066; -156.044; -485.122; -662.779
627.339; -177.398; -736.110; -663.802
627.613;  143.085;  351.880;  148.216
627.886;  109.510;  187.891; -612.803
628.160;  -16.920;  312.880; -161.783
628.433; -186.469; -695.125; -703.775
628.706; -153.113; -517.120; -615.784
628.979;   71.239;  296.876;  117.223
629.253; -167.799; -785.119; -833.786
629.526;  504.710; -334.126; -253.772
629.799;  400.749; -641.123; -479.778
630.072;  203.786; -497.128; -516.769
630.346; -164.271;-1115.116;-1080.790
630.619;  612.141; -467.107; -545.808
630.892;  926.691;  709.889;  593.200
631.165;  552.579;  790.896;  679.187
631.438; -187.420;-1092.112;-1055.798
631.711;  140.153;  453.877;  257.221
631.984; -116.177; -523.117; -624.789
632.257; -154.482; -636.117; -681.789
632.530;  -97.305; -412.119; -433.785
632.803;   58.849; -109.115;    7.207
633.076;  -71.155; -360.123; -422.777
633.349;   48.092;  173.872;  121.231
633.622;  -51.407; -187.119; -240.785
633.895; -264.318; -903.120; -823.783
634.167;  -92.487; -496.126; -525.773
634.440;   -8.163;  -19.116; -137.792
634.713;   20.499;  -22.119; -120.786
634.986;  170.178;  593.871;  453.233
635.258; -124.153; -507.115; -597.793
635.531;  208.813;  742.882; -343.788
635.804;  -35.679; -303.117; -318.789
636.077; -198.168; -830.116; -852.791
636.349;  -11.256; -586.115; -474.793
636.622;  736.009; 1695.874; 1392.228
636.894;  292.488; -474.120; -909.784
637.167;  111.501; -836.127; -789.771
637.439;   83.996; -278.128; -213.770
637.712;  -80.789; -312.126; -293.772
637.984; -147.767; -635.116; -707.791
638.257;  637.045;  515.877;  488.222
638.529;  749.032; -881.125; -924.776
638.802;  292.186; -508.128; -449.769
639.074; -232.836; -927.122; -952.781
639.346; -269.387; -942.135; -930.757
639.619;   41.126;  -79.142; -319.744
639.891;   -6.944;  -83.122; -168.779
640.163; -134.042; -689.122; -756.780
640.435;   87.661;  273.878;  103.220
640.708;   14.963;  -72.122; -132.780
640.980;  -80.834; -366.122; -362.781
641.252;  335.368;  -25.121;  -71.781
641.524; 2567.571;  580.879;  573.219
641.796; 2485.373;-1094.121; -907.782
642.068;  427.876; -191.121; -300.782
642.340; -104.122; -486.121; -566.783
642.613;  113.680;  294.880;  323.217
642.885; -175.917; -787.120; -878.783
643.157; -131.815; -810.120; -658.784
643.428;  137.388;  170.880;  218.216
643.700; -106.110; -498.120; -425.784
643.972;  -37.207;  -16.119; -133.785
644.244; -154.705; -474.119; -559.785
644.516;  -55.602; -250.119; -114.786
644.788;  145.600;  662.881;  548.214
645.060;  -13.897;  -12.119; -124.786
645.332; -202.795; -525.118; -535.787
645.603;  124.107;  479.882;  342.213
645.875; -126.390; -334.118; -369.787
646.147;  346.612; 1487.882; 1242.212
646.418; -172.185; -931.117; -918.788
646.690;  120.117; -714.117; -715.789
646.962;  -23.080; -413.117; -451.789
647.233;   65.322;   15.883;   11.211
647.505; -194.075; -595.117; -475.790
647.776;  101.627;  328.884;  229.210
648.048;  -27.171; -248.116; -418.790
648.320; -122.268; -752.116; -679.791
648.591; -286.166;-1055.116; -958.791
648.862; -157.963; -505.116; -577.792
649.134;   51.639;  115.885;  198.208
649.405;  -94.058; -661.115; -618.792
649.677; -135.256; -475.115; -598.793
649.948;    9.847; -181.115; -296.793
650.219;    7.649;  -37.115; -147.793
650.491; -108.248; -431.114; -520.794
650.762; -192.046; -705.114; -731.794
651.033; -123.544; -437.114; -424.795
651.304; -201.441; -743.114; -728.795
651.576; -114.239; -680.114; -645.795
651.847;  -76.336; -250.113; -140.796
652.118;    0.466;  -32.113; -189.796
652.389; -218.531; -639.113; -722.796
652.660;   -9.429; -147.113;  -89.797
652.931; -278.126; -897.112; -871.797
653.202; -116.624; -382.112; -541.798
653.473; -139.821; -633.112; -533.798
653.744;  165.781; -595.112; -590.798
654.015;  174.483; -356.112; -303.799
654.286; -103.114; -642.111; -663.799
654.557; -122.012; -586.111; -521.799
654.828; -269.509;-1114.111;-1088.800
655.099; -135.507; -404.111; -291.800
655.370; -137.804; -427.111; -543.801
655.641; -237.102; -656.110; -714.801
655.911; -167.299; -618.110; -638.801
656.182;  125.703;  437.890;  387.198
656.453;  264.305;  830.890;  746.198
656.724; -122.692; -466.110; -426.802
656.994; -128.090; -553.109; -568.803
657.265; -220.787; -862.109; -873.803
657.536; -109.885; -500.109; -377.804
657.806; -184.182; -561.109; -593.804
658.077; -213.180; -866.109; -950.804
658.347; -153.277; -523.108; -598.805
658.618; -212.575; -646.108; -694.805
658.888;  -19.372;  -41.108;  112.195
659.159; -129.570; -432.108; -548.806
659.429;  -45.168; -292.108; -349.806
659.700;   13.435; -435.107; -390.807
659.970;  -87.863; -370.107; -359.807
660.241;   -5.560; -754.107; -921.807
660.511;  667.242; -147.107; -174.808
660.781;  108.945; -793.106; -748.808
661.052;  -81.153; -222.106; -381.808
661.322;   13.550;   21.894;   -9.809
661.592;   47.852;  257.894;  148.191
661.862; -108.845; -369.106; -382.810
662.133; -156.843; -551.105; -502.810
662.403; -194.441; -770.105; -676.810
662.673;  -73.738; -256.105; -213.811
662.943; -176.036; -612.105; -551.811
663.213;  -35.033;  -85.105;  -81.811
663.483; -126.031; -593.104; -568.812
663.753;  -61.428; -194.104; -152.812
664.023;   54.974;   68.896;  -32.813
664.293; -105.123; -319.104; -126.813
664.563; -162.021; -694.104; -648.813
664.833; -218.718; -743.103; -608.814
665.103; -227.116; -730.103; -793.814
665.373; -245.114; -766.103; -806.814
665.643; -153.411; -863.103; -918.815
665.913;  -11.809; -534.103; -714.815
666.182;  161.194; -685.102; -719.816
666.452;  379.696;  -22.102;  -89.816
666.722;  -94.001; -724.102; -784.816
666.992; -260.699; -948.102; -921.817
667.261; -167.496; -824.102; -808.817
667.531;  350.206;  134.899;   45.183
667.801;  716.108; -440.101; -412.818
668.070;  438.311;  714.899;  697.182
668.340; -170.287; -883.101; -840.819
668.609;  177.016;  588.900;  301.181
668.879; -121.782; -490.100; -558.819
669.149; -143.879; -539.100; -516.820
669.418; -156.077; -698.100; -726.820
669.688; -132.474; -482.100; -666.820
669.957;   72.428; -423.099; -546.821
670.226;  -27.569; -268.099; -331.821
670.496; -147.567; -431.099; -635.822
670.765; -154.765; -418.099; -501.822
671.034; -259.562; -872.099; -828.822
671.304;   -4.960;   55.902; -111.823
671.573; -292.857;-1085.098; -957.823
671.842;   48.445; -380.098; -294.823
672.112;    4.548; -692.098; -586.824
672.381;   -8.350; -239.098; -214.824
672.650; -249.747;-1005.097;-1021.825
672.919; -186.345; -631.097; -507.825
673.188; -141.342; -681.097; -878.825
673.457; -290.640;-1101.097;-1143.826
673.726; -158.738; -579.096; -646.826
673.995; -122.235; -533.096; -479.826
674.265;  -25.433; -263.096; -333.827
674.534;    8.870; -183.096; -235.827
674.802;   12.772; -618.096; -703.828
675.071; 1450.375; -886.095; -801.828
675.340; 5194.977; -464.095; -339.828
675.609; 1794.680;  103.905;   82.171
675.878;   89.382; -949.095; -893.829
676.147;   46.484;  -26.095;   -8.829
676.416;  166.187; -210.094; -294.830
676.685; 1116.589; 1000.906; -622.830
676.953;  136.092; -603.094; -452.831
677.222;  -43.006; -193.094; -273.831
677.491;  -11.803;  -24.094; -127.831
677.759;    8.399;   11.907;  172.168
678.028;   14.402; -279.093; -222.832
678.297;   -6.496;   71.907;  197.168
678.565; -250.693; -898.093; -944.833
678.834;  -98.891; -311.093; -268.833
679.102; -109.689; -411.092; -391.834
679.371; -249.686; -898.092; -727.834
679.639; -206.884; -797.092; -786.834
679.908; -226.881; -794.092; -724.835
680.176; -302.279; -895.091; -941.835
680.445; -155.176; -346.091; -352.835
680.713;   16.126;  -58.091;  -23.836
680.982; -211.771; -523.091; -525.836
681.250; -172.169; -578.091; -507.837
681.518; -181.066; -534.090; -751.837
681.787;  -22.464; -204.090; -167.837
682.055; -137.862; -490.090; -422.838
682.323; -263.359; -993.090; -992.838
682.591;   49.843; -216.090; -538.838
682.859;  110.746;    9.911;  -35.839
683.128;   53.248;  232.911;  497.161
683.396; -298.449;-1102.089;-1122.840
683.664;  -57.447; -241.089;   21.160
683.932;   74.356;  144.911;  -76.840
684.200; -126.242; -576.088; -320.841
684.468;   20.460;  -73.088; -124.841
684.736;  -43.037; -214.088; -175.841
685.004; -205.235;-1024.088; -982.842
685.272; -147.132; -880.088; -774.842
685.540;  -98.630; -499.087; -557.843
685.808; -153.127; -651.087; -682.843
686.076; -192.825; -894.087; -969.843
686.343; -141.822; -601.087; -815.844
686.611;   81.180; -195.087; -224.844
686.879;  688.383; -530.086; -553.844
687.147; 4361.785; -483.086; -480.845
687.414; 1225.887;  -12.086; -169.845
687.682;  -10.710; -658.086; -757.846
687.950;  499.792;  259.915;  263.154
688.217;  -26.305; -792.085; -760.846
688.485;  -60.003; -632.085; -636.847
688.753;  718.600;  -11.085; -102.847
689.020;  142.302; -820.085; -851.847
689.288; -188.295; -853.084; -787.848
689.555;  -39.293; -195.084; -148.848
689.823;  -39.090; -241.084; -345.849
690.090; -171.688; -546.084; -651.849
690.358; -268.286; -877.084; -897.849
690.625;   33.317;  120.917;   45.150
690.892; -126.381; -403.083; -369.850
691.160;  -22.878;   72.917;  -35.850
691.427;   55.624;  141.917;  130.149
691.694; -256.173; -855.083; -929.851
691.962; -244.671;-1177.082;-1060.852
692.229;   78.132;  127.918;   56.148
692.496;  112.534;  130.918;  -49.852
692.763;    0.336; -164.082; -201.853
693.031; -121.561; -739.082; -716.853
693.298;  -89.359; -509.081; -368.853
693.565;  478.344; -155.081; -163.854
693.832; 1649.146;   -5.081;   -9.854
694.099;  188.249; -643.081; -642.855
694.366; -128.949; -882.081; -896.855
694.633; -104.746; -920.080; -633.855
694.900; 1504.156; 4367.920; -114.856
695.167;  614.359; -214.080; -380.856
695.434;   55.461; -646.080; -623.856
695.701;  328.463;  121.921;  -61.857
695.968;  578.566; -365.079; -361.857
696.234; 1588.068; -415.079; -646.858
696.501;14959.371; -776.079; -614.858
696.768; 7120.973; -554.079; -617.858
697.035;  460.976; -632.078; -667.859
697.302;   48.378; -448.078; -552.859
697.568;  -18.219; -458.078; -497.859
697.835;  -61.517; -683.078; -624.860
698.102;  -67.914; -498.078; -407.860
698.368;  167.988;  384.923;  396.139
698.635;  -48.810;  -47.077; -424.861
698.901;   -4.407; -240.077; -348.861
699.168;   86.895; -534.077; -456.862
699.435;  105.698;  -72.077;  -13.862
699.701; -248.500; -868.076; -764.862
699.968;  -46.897;  144.924; -441.863
700.234; -214.495; -783.076; -822.863
700.500;  -96.792; -448.076; -539.864
700.767;   14.710;   -1.075;   26.136
701.033; -247.788;-1015.075; -963.864
701.299; -103.785; -450.075; -483.865
701.566;  310.817;  950.925;  763.135
701.832;   65.220;  -31.075;  -76.865
702.098; -184.078;-1054.074;-1034.866
702.365; -195.275;-1098.074;-1030.866
702.631;  -76.273;-1038.074;-1063.867
702.897; 1965.130; -765.074; -676.867
703.163; 3065.132;  348.926;  254.133
703.429;  216.435; -256.073; -273.868
703.695;  -62.963; -796.073; -792.868
703.961;   21.139; -214.073; -210.868
704.227; -122.458; -630.073; -725.869
704.493;  259.744;  613.927;  510.131
704.759;  -41.953; -565.072; -540.870
705.025;   45.149; -203.072; -194.870
705.291;   -0.948; -666.072; -562.870
705.557;  374.754;  719.928;   34.129
705.823;   24.157; -742.072; -694.871
706.089;  191.259; -307.071; -326.871
706.355;  606.462; -315.071; -244.872
706.620; 8363.064; -776.071; -729.872
706.886;10534.466; -309.071; -362.873
707.152;  908.269; -818.070; -973.873
707.418; -104.529;-1153.070;-1186.873
707.683;    6.474; -550.070; -530.874
707.949;  -34.524; -547.070; -578.874
708.215;  -12.221; -129.070; -207.874
708.480;    1.281; -520.069; -420.875
708.746;  139.684;   68.931;   28.125
709.011;  -97.814; -578.069; -612.876
709.277; -100.212; -538.069; -543.876
709.542;  -61.509; -428.069; -387.876
709.808;   22.293;  -59.068;   89.123
710.073; -116.104; -577.068; -695.877
710.339;   -3.002; -242.068; -228.877
710.604;   88.901; -780.068; -845.878
710.869;  391.903; -277.068; -366.878
711.135; -119.094; -715.067; -628.879
711.400; -146.992; -507.067; -608.879
711.665;  -91.989; -404.067; -479.879
711.931; -167.287; -661.067; -677.880
712.196; -212.685; -876.067; -954.880
712.461;  124.018; -402.066; -490.880
712.726;  111.820; -727.066; -771.881
712.991; -189.277; -647.066; -664.881
713.256;  -54.975; -350.066; -332.882
713.521;  -94.272; -417.065; -381.882
713.787;  -69.770; -454.065; -472.882
714.052;  -37.167; -214.065; -400.883
714.317; -187.565;-1045.065; -981.883
714.581; 1550.138; -374.065; -268.883
714.846; 1858.240; -822.064; -888.884
715.111;  196.042;  261.936;  257.116
715.376;  -15.955;  -86.064; -223.885
715.641;  -22.553; -365.064; -367.885
715.906;  374.950;   15.936; -551.885
716.171;  217.452;  221.937;  209.114
716.436;  101.255;  -78.063; -104.886
716.700; -173.443; -818.063; -692.886
716.965; -196.840; -794.063; -807.887
717.230; -117.338; -339.063; -392.887
717.494;   -2.636;  -40.062; -134.888
717.759; -178.833; -784.062; -640.888
718.024;   97.569;  269.938;  250.112
718.288;  156.372;  685.938;  395.111
718.553; -243.626; -803.062; -977.889
718.817; -276.423; -883.061; -899.889
719.082;  -36.121; -115.061; -125.890
719.346; -264.318;-1000.061; -947.890
719.611;  -46.616; -300.061; -255.891
719.875; -162.413; -568.060; -537.891
720.140;  -76.411; -453.060; -603.891
720.404;   89.091; -136.060; -249.892
720.668; 1226.294; -475.060; -411.892
720.933;  429.996;  146.940;  137.108
721.197; -159.601; -667.059; -600.893
721.461; -239.399; -851.059; -826.893
721.725;   44.004;  -21.059; -250.894
721.990;  -82.194; -284.059; -204.894
722.254;    3.709;  -26.059; -108.894
722.518; -128.389; -286.058; -442.895
722.782; -114.186; -743.058; -594.895
723.046;  259.816;  614.942;  570.105
723.310;  109.118;  374.942;  210.104
723.574; -156.379; -654.058; -614.896
723.838; -161.377; -576.057; -642.897
724.102;  -66.774; -226.057; -239.897
724.366; -235.072;-1032.057; -978.897
724.630; -180.969; -749.057; -571.898
724.894; -124.167; -722.057; -514.898
725.158;   -4.464;   38.944; -295.898
725.422;  -78.662; -394.056; -327.899
725.685; -119.260; -441.056; -349.899
725.949; -136.157; -566.056; -519.900
726.213; -165.455; -732.056; -811.900
726.477;  186.848;-1020.055; -933.900
726.740;  197.250; -274.055; -104.901
727.004;  563.653; -384.055; -510.901
727.268; 4643.555; -442.055; -400.901
727.531; 1127.758; -961.055; -775.902
727.795; -119.140; -713.054; -673.902
728.059;  -79.737; -552.054; -557.903
728.322; -107.535; -841.054; -669.903
728.586;  -18.033; -692.054; -701.903
728.849; -161.630; -695.053; -756.904
729.112; -171.928; -812.053; -912.904
729.376; -256.125; -959.053; -905.904
729.639; -111.023; -536.053; -536.905
729.903; -207.220; -733.053; -699.905
730.166;  -52.318; -437.052; -399.906
730.429;  -45.715; -317.052; -468.906
730.693; -100.413; -355.052; -894.906
730.956;  418.690;  810.948;  651.093
731.219; 1004.892; -310.052; -103.907
731.482;  159.394;-1003.051; -894.907
731.745;   80.097; -794.051; -935.908
732.009;   62.099;  -30.051;   50.092
732.272; -160.298; -904.051; -771.909
732.535;  -77.896; -300.051; -310.909
732.798; -257.493;-1083.050;-1166.909
733.061; -123.191; -430.050; -456.910
733.324;   48.712;   31.950; -180.910
733.587;  169.714;  290.950;  365.090
733.850; -115.484; -973.049;-1050.911
734.113;   71.219;   33.951;   32.089
734.376;   44.321; -328.049; -447.912
734.639;  442.424; 1188.951; 1011.088
734.901;  110.826; -180.049; -402.912
735.164;  761.829; -883.048; -837.913
735.427; 1747.431; -166.048; -355.913
735.690;  149.234; -205.048; -234.913
735.952;  -46.564; -923.048; -925.914
736.215; -135.161;-1113.048;-1009.914
736.478;   22.841; -771.047; -774.915
736.740;  354.743;   33.953;  129.085
737.003; 1142.446; -658.047; -672.915
737.266; 5503.748;  -94.047;   46.084
737.528;  585.651; -682.047; -660.916
737.791;  440.953; -316.046; -327.916
738.053; 1336.956;  465.954;  649.083
738.316;16018.758; -162.046; -136.917
738.578; 9698.461; -770.046; -736.918
738.841;  589.663; -382.046; -446.918
739.103;  271.866; -875.045; -777.918
739.365;  736.568;   79.955;  -69.919
739.628;  -31.030; -884.045; -805.919
739.890;  -78.927; -758.045; -710.919
740.152;  -78.725; -692.044; -754.920
740.414;   -5.922; -408.044; -359.920
740.677;  -65.120; -785.044; -634.921
740.939; -116.117; -587.044; -487.921
741.201;  387.085; -432.044; -572.921
741.463;   12.388; -689.043; -745.922
741.725;   46.890;  -21.043; -199.922
741.987;  110.992;  220.957;  116.078
742.249;  -18.905; -751.043; -859.923
742.511;  225.497; -703.043; -794.923
742.773;    9.500; -546.042; -546.924
743.035;  255.302;  796.958;  533.076
743.297;  -64.595; -963.042;-1013.924
743.559; 1022.907; -278.042; -262.925
743.821;   42.110; -735.042; -744.925
744.083;  -39.888;  -44.041; -149.925
744.345; -158.785; -869.041; -892.926
744.607;  103.517;   75.959;  122.074
744.868;  -72.581; -490.041; -554.927
745.130; -224.078; -994.041;-1008.927
745.392;  146.424;   -1.040;  -44.927
745.653;  -20.773; -411.040; -378.928
745.915;  343.629;  896.960;  631.072
746.177;   75.132;   35.960;  -43.928
746.438;  -23.866; -428.040; -543.929
746.700; -117.963; -947.039; -988.929
746.961;  -13.261; -659.039; -740.930
747.223;  189.342; -190.039;  -74.930
747.484;  145.344; -391.039; -471.930
747.746;  257.346;  -23.038; -106.931
748.007;  117.449; -647.038; -689.931
748.269;  437.651; -468.038; -440.931
748.530;  653.054; -852.038; -638.932
748.791;  363.256; -354.038; -420.932
749.053;  707.459;  286.963;  163.067
749.314;  649.461; -236.037; -169.933
749.575;  673.564; -945.037; -905.933
749.836; 1216.566; -217.037;   86.066
750.098; 4166.268;  -60.037;  -21.934
750.359;51449.071;  414.964;  555.066
750.620;11486.473; -121.036; -220.935
750.881; 1457.976; -585.036; -513.935
751.142; 2004.278; -950.036; -938.936
751.403;24469.681; -789.036; -705.936
751.664; 9057.883;-1034.035; -999.936
751.925;  699.386; -175.035; -262.937
752.186;  413.088; -298.035; -278.937
752.447;  198.291; -590.035; -445.937
752.708;   73.393; -532.035; -648.938
752.969;  -25.505; -566.034; -576.938
753.230;   -9.702; -777.034; -672.939
753.491;  -15.700; -650.034; -631.939
753.751;  177.703;  109.966;   19.061
754.012;  199.805;  258.967;  181.060
754.273;  154.708; -174.033;  -71.940
754.534;  -25.690; -487.033; -580.940
754.794; -152.387; -926.033; -911.941
755.055;  311.715; 1051.967;  881.059
755.316;  -63.282; -700.032; -566.942
755.576;  -54.980; -606.032; -576.942
755.837;  -52.978; -527.032; -695.942
756.097;  -56.575; -530.032; -564.943
756.358; -149.073; -725.032; -770.943
756.618; -103.970; -705.031; -641.943
756.879;   11.832; -254.031; -349.944
757.139; -281.665;-1098.031;-1116.944
757.400;  -72.263; -538.031; -553.945
757.660;  -18.760; -365.031; -401.945
757.920;   42.442; -266.030; -228.945
758.181;  -40.455; -468.030; -351.946
758.441; -146.353; -870.030; -809.946
758.701;  -60.051; -308.030; -215.946
758.961;   11.252; -220.030; -278.947
759.222;  -59.346; -574.029; -502.947
759.482; -125.743; -683.029; -723.948
759.742; -164.741; -706.029; -547.948
760.002;   66.062;  -83.029; -143.948
760.262;   98.564;   50.972;  182.051
760.522;  -71.133; -498.028; -574.949
760.782; -106.431; -738.028; -612.949
761.042;  -60.529; -618.028; -573.950
761.302;  138.974;   55.972;  -18.950
761.562;  124.376; -164.027; -154.951
761.822;   89.679; -710.027; -551.951
762.082; -109.619;-1104.027;-1093.951
762.342;   90.784; -328.027; -403.952
762.601;   99.886; -567.027; -506.952
762.861;  529.589; -281.026; -207.952
763.121;  664.991; -406.026; -411.953
763.381;11984.194; -499.026; -485.953
763.640;10808.996; -139.026; -307.954
763.900;  518.798; -242.026; -203.954
764.160;  138.301; -458.025; -491.954
764.419;  -52.697; -726.025; -782.955
764.679; -104.394; -795.025; -726.955
764.939;   12.008; -124.025; -210.955
765.198; -123.789; -608.025; -563.956
765.458; -159.987; -710.024; -612.956
765.717; -129.684; -454.024; -590.957
765.976;  -81.482; -428.024; -411.957
766.236; -102.679; -475.024; -610.957
766.495;   65.723;  260.977;   73.042
766.755; -184.775;-1090.023; -987.958
767.014;   -2.472; -594.023; -665.958
767.273;  -43.270; -373.023; -397.959
767.533;  -65.967; -228.023; -307.959
767.792;   -7.265; -151.022; -188.960
768.051;  -81.962; -228.022; -276.960
768.310; -110.060; -546.022; -650.960
768.569;   13.643; -161.022;    4.039
768.828;  -25.655; -285.022; -363.961
769.088; -229.053;-1050.021; -942.961
769.347; -117.850; -755.021; -599.962
769.606; -176.748; -876.021; -857.962
769.865; -212.545;-1016.021;-1033.963
770.124;  -34.843; -411.021; -336.963
770.383;  -59.440; -778.020; -910.963
770.641;   -2.838; -398.020; -400.964
770.900; -117.935; -953.020; -846.964
771.159; -130.933; -851.020; -951.964
771.418;  -76.330; -917.020; -779.965
771.677;  202.572; -224.019; -293.965
771.936;  202.674; -794.019; -865.966
772.194; 3989.077; -465.019; -437.966
772.453;15253.879; -213.019; -391.966
772.712; 1115.482;  416.982;  329.033
772.970;  248.984;   32.982;   63.033
773.229;  192.087;  -22.018;  102.033
773.488; -147.611; -814.018; -770.968
773.746;  174.192;  296.982;  335.032
774.005;   67.494;  190.983;  -22.969
774.263;   63.597;  243.983;  177.031
774.522; -135.701; -422.017; -548.969
774.780; -143.499; -484.017; -417.970
775.039; -142.096; -551.017; -531.970
775.297;   -5.194; -135.016; -351.970
775.555; -132.691; -489.016; -612.971
775.814; -227.289; -618.016; -570.971
776.072; -203.086; -749.016; -740.971
776.330; -163.384; -630.016; -520.972
776.589; -170.081; -703.015; -721.972
776.847; -228.179; -645.015; -624.973
777.105; -278.477;-1016.015;-1032.973
777.363; -121.974; -459.015; -454.973
777.621; -217.772; -660.015; -717.974
777.879;   19.931;  -42.014;   32.026
778.138; -133.467; -554.014; -717.974
778.396; -154.664; -585.014; -526.975
778.654; -286.262;-1015.014; -970.975
778.912;  -80.459; -269.014; -371.976
779.170; -199.057; -880.013; -803.976
779.427; -233.254; -922.013; -897.976
779.685; -225.552; -880.013; -832.977
779.943; -151.450; -654.013; -593.977
780.201; -253.847; -964.012; -883.978
780.459; -205.045; -651.012; -610.978
780.717; -113.442; -440.012; -390.978
780.974; -166.740; -449.012; -490.979
781.232;  -86.737; -358.012; -338.979
781.490; -140.035; -551.011; -472.979
781.747; -143.432; -555.011; -476.980
782.005;  100.670;  462.989;  254.020
782.263; -279.727; -542.011;-1004.981
782.520; -124.725; -326.011; -501.981
782.778; -260.823;-1013.010;-1051.981
783.035; -319.720; -962.010; -938.982
783.293;  -67.918; -248.010; -206.982
783.550;  -84.615; -134.010; -198.982
783.808; -209.213; -764.010; -776.983
784.065; -279.510; -745.009; -874.983
784.322;  -11.108;   25.991;  -86.984
784.580; -266.005; -915.009; -771.984
784.837; -101.703; -392.009; -466.984
785.094; -265.801; -783.009; -762.985
785.352; -102.798; -304.008; -404.985
785.609; -216.796; -934.008; -839.985
785.866; -121.493; -345.008; -401.986
786.123; -144.291; -639.008; -583.986
786.380; -160.088; -665.008; -604.987
786.637;  -63.086; -225.007; -380.987
786.895;  -63.183; -456.007; -543.987
787.152;  -69.181; -135.007; -267.988
787.409;    1.622; -123.007; -225.988
787.666; -118.776; -299.006; -378.988
787.923; -166.574; -616.006; -695.989
788.179; -198.071; -551.006; -584.989
788.436; -189.769; -585.006; -585.990
788.693;  -22.366;  -92.006;  -87.990
788.950;  264.336; -125.005; -112.990
789.207;  239.239; -381.005; -372.991
789.464;  -60.159; -161.005; -301.991
789.720;   12.244;  150.995;  110.009
789.977; -300.554;-1003.005; -671.992
790.234;  -32.151;   44.996;  -66.992
790.490; -250.249; -884.004;-1031.993
790.747;  -26.847;  -85.004;   22.007
791.004;  -25.644; -426.004; -348.993
791.260; -160.442; -430.004; -560.994
791.517; -141.139; -843.003; -788.994
791.773;  -74.637; -379.003; -342.994
792.030; -179.334; -596.003; -660.995
792.286; -187.532; -686.003; -636.995
792.543;   24.871;  -74.002; -159.995
792.799;  -87.427; -584.002; -382.996
793.055; -287.925;-1179.002;-1210.996
793.312; -196.122; -827.002; -816.997
793.568;  -89.820; -746.002; -599.997
793.824;   46.983; -226.001; -284.997
794.081;   68.385; -447.001; -508.998
794.337;   78.688; -664.001; -561.998
794.593; 2507.190; -319.001; -271.999
794.849; 9224.293; -746.001; -772.999
795.105;  399.995; -270.000; -261.999
795.361;   -3.202; -490.000; -457.000
795.617;  -95.600; -875.000; -945.000
795.873; -101.900; -360.000; -407.000
796.129;  -46.300; -368.000; -306.000
796.385;    6.400; -124.000; -156.000
796.641;  174.900;  412.000;  550.000
796.897; -116.100; -666.000; -635.000
797.153;  216.700;  453.000;  357.000
797.409; -175.900; -785.000; -868.000
797.665; -138.100; -625.000; -732.000
797.921; -162.300; -775.000; -762.000
798.176; -120.300; -744.000; -747.000
798.432; -112.600; -824.000; -596.000
798.688; -160.400;-1174.000;-1078.000
798.943;  111.100; -165.000; -147.000
799.199;  -31.600;-1005.000; -959.000
799.455;  396.800;  369.000;  316.000
799.710;  132.500; -813.000; -380.000
799.966;  418.000; -162.000; -160.000
800.221;  658.800; -638.000; -721.000
800.477;16379.400; -743.000; -710.000
800.732;11157.300; -773.000; -800.000
800.988;  946.700;  205.000;  -19.000
801.243; 3370.500; -454.000; -344.000
801.498;10895.600; -814.000; -739.000
801.754;  664.500; -289.000; -163.000
802.009;  124.100; -257.000; -335.000
802.264; -137.800; -967.000;-1033.000
802.520;   47.900;  222.000;   -3.000
802.775;  -40.300; -524.000; -359.000
803.030;  158.100;  395.000;  356.000
803.285; -184.800; -840.000; -903.000
803.540;  -97.300; -686.000; -699.000
803.795;  -77.400; -648.000; -583.000
804.051;  -53.400; -279.000; -346.000
804.306;  118.500;  168.000;  128.000
804.561;  262.100;  451.000;  362.000
804.816;  318.400;  714.000;  861.000
805.071;   55.900; -185.000; -280.000
805.325;  303.000; -257.000; -427.000
805.580; -209.700; -841.000; -877.000
805.835;    1.400; -204.000; -297.000
806.090; -127.200; -760.000; -676.000
806.345;   30.700; -344.000; -264.000
806.600;  -76.000; -549.000; -632.000
806.854;  -49.500; -408.000; -538.000
807.109;  -42.400; -493.000; -577.000
807.364;    0.000; -407.000; -328.000
807.618;  -33.900; -415.000; -381.000
807.873;   82.200; -470.000; -494.000
808.128;  163.300; -257.000; -518.000
808.382;  201.800; -224.000; -332.000
808.637;   83.600; -440.000; -511.000
808.891;  296.100; -257.000; -180.000
809.146;   82.300; -902.000; -794.000
809.400;  351.100; -848.000; -923.000
809.654;  441.900; -779.000; -551.000
809.909;  666.200; -841.000; -927.000
810.163;11366.000; -813.000; -651.000
810.418;22475.800; -940.000; -861.000
810.672; 1369.700; -685.000; -690.000
810.926; 1002.100; -993.000; -973.000
811.180; 2336.600; -439.000; -372.000
811.434;48206.700;  240.000;  135.000
811.689;14436.500; -231.000; -365.000
811.943;  755.600; -936.000; -953.000
812.197;  412.100; -893.000; -671.000
812.451;  188.900; -379.000; -514.000
812.705;  -51.600; -809.000; -619.000
812.959;  -63.400; -263.000; -388.000
813.213;   13.700; -283.000; -209.000
813.467;  225.400;  470.000;  253.000
813.721; -214.000; -764.000; -792.000
813.975; -200.900; -826.000; -877.000
814.229;  128.100;  430.000;  353.000
814.482;  -95.600; -517.000; -566.000
814.736; -208.000; -766.000; -744.000
814.990; -207.700; -779.000; -872.000
815.244;  -55.700; -228.000; -285.000
815.497; -153.500; -636.000; -601.000
815.751;   22.400; -141.000;   82.000
816.005; -143.300; -470.000; -586.000
816.258; -110.000; -510.000; -363.000
816.512; -157.100; -693.000; -610.000
816.766;   15.500;  121.000;  157.000
817.019;  103.600;  148.000;  149.000
817.273; -228.300;-1000.000; -802.000
817.526;    1.600; -206.000; -173.000
817.779;  -98.700;-1049.000; -960.000
818.033; -148.000; -693.000; -807.000
818.286; -207.900; -725.000; -792.000
818.540; -149.300; -403.000; -403.000
818.793; -131.300; -402.000; -489.000
819.046; -149.000; -582.000; -520.000
819.299;  -19.500; -157.000; -166.000
819.553; -156.200; -552.000; -592.000
819.806; -276.800;-1016.000; -838.000
820.059;  -59.000; -334.000; -354.000
820.312;   19.200;  152.000;  185.000
820.565;   49.000;  110.000;  -27.000
820.818;  -76.000;  -59.000; -173.000
821.071; -266.900;-1041.000; -957.000
821.324; -173.200; -536.000; -540.000
821.577; -144.800; -457.000; -483.000
821.830;  -89.800; -270.000; -172.000
822.083; -210.100; -733.000; -288.000
822.336;  -57.900; -261.000; -167.000
822.589; -214.600; -805.000; -688.000
822.842; -251.300; -875.000; -770.000
823.094; -302.700;-1076.000;-1114.000
823.347; -237.400; -925.000; -729.000
823.600;   85.700;  402.000;  187.000
823.853;  -45.200; -311.000; -267.000
824.105;  -84.600; -331.000; -575.000
824.358; -223.800; -617.000; -716.000
824.611;  135.300;  234.000;   40.000
824.863;  -71.500; -612.000; -591.000
825.116;  126.700;  -33.000;   27.000
825.368;   89.300; -366.000; -372.000
825.621;  248.300; -186.000; -240.000
825.873;   38.500; -704.000; -737.000
826.126; 1009.400; -669.000; -641.000
826.378;17452.700; -389.000; -505.000
826.630; 2926.700; -890.000; -898.000
826.883;    3.500; -754.000; -693.000
827.135;  103.600; -279.000; -270.000
827.387; -230.600; -893.000; -839.000
827.639;  -15.900;  -86.000;   32.000
827.892; -218.200; -742.000; -582.000
828.144; -230.400; -848.000; -804.000
828.396;  -35.700;  104.000;  -80.000
828.648; -128.600; -440.000; -333.000
828.900; -244.500; -702.000; -795.000
829.152; -183.800; -684.000; -683.000
829.404;  -84.600; -215.000; -267.000
829.656;   -9.200;  321.000;  214.000
829.908;   32.600;  393.000;  229.000
830.160; -285.900;-1064.000;-1047.000
830.412; -145.400; -481.000; -430.000
830.664; -152.700; -557.000; -665.000
830.916; -136.300; -268.000; -206.000
831.167; -283.600;-1073.000; -951.000
831.419; -163.900; -623.000; -566.000
831.671; -235.700; -764.000; -809.000
831.923; -156.500; -311.000; -447.000
832.174;  -49.200; -273.000; -331.000
832.426; -221.000; -493.000; -582.000
832.678; -328.700;-1043.000;-1091.000
832.929; -286.600; -947.000; -935.000
833.181;  -78.200; -575.000; -677.000
833.432;  -61.900;  -59.000; -186.000
833.684;   26.800;  112.000;  -27.000
833.935; -221.500; -610.000; -566.000
834.187; -197.800; -829.000; -823.000
834.438;  -65.800;  -58.000;  -25.000
834.689;  -52.700; -255.000; -123.000
834.941;  -57.700; -343.000; -244.000
835.192; -121.900; -590.000; -533.000
835.443; -175.100; -419.000; -506.000
835.695;   36.100;  138.000;  -16.000
835.946; -144.900; -608.000; -378.000
836.197; -144.700; -599.000; -622.000
836.448; -139.500; -528.000; -395.000
836.699;  -70.200; -253.000; -341.000
836.950;   39.900;   72.000;    7.000
837.201; -260.400;-1003.000; -987.000
837.452;  -80.600; -356.000; -170.000
837.703; -190.500; -791.000; -737.000
837.954;  -39.800; -205.000; -365.000
838.205; -157.200;-1029.000;-1008.000
838.456;  231.100; -196.000; -282.000
838.707;   12.800; -423.000; -519.000
838.958;  -20.900; -634.000; -647.000
839.209;  434.000;   18.000;   40.000
839.460;  143.200; -439.000; -201.000
839.710;  298.100; -135.000; -297.000
839.961;  670.500;  730.000;  612.000
840.212;  474.800; -382.000; -497.000
840.462; 1835.600; -328.000; -277.000
840.713;26939.100; -571.000; -536.000
840.964; 8146.900;  -62.000; -143.000
841.214;  673.200; -384.000; -624.000
841.465;  825.500; -214.000; -141.000
841.715;  671.800; -417.000; -380.000
841.966;  895.700; -746.000; -685.000
842.216;15711.700; -330.000; -431.000
842.466;45021.500; -169.000; -313.000
842.717; 1739.100; -964.000; -952.000
842.967;  417.300; -635.000; -641.000
843.217;  413.400;   20.000;   28.000
843.468;  121.900; -104.000; -132.000
843.718;  -81.200; -718.000; -726.000
843.968; -194.300; -837.000; -765.000
844.218;   75.800; -315.000; -262.000
844.469;  -95.400; -577.000; -561.000
844.719; -153.900; -537.000; -682.000
844.969; -168.500; -550.000; -580.000
845.219; -231.000; -814.000; -862.000
845.469; -120.000; -392.000; -342.000
845.719; -209.600; -792.000; -884.000
845.969;   31.200;  119.000;  174.000
846.219; -182.600; -738.000; -720.000
846.469;   75.600;  464.000;  432.000
846.718;  -37.000; -115.000;   31.000
846.968; -225.900; -827.000; -827.000
847.218;  -47.100; -224.000; -371.000
847.468; -184.400; -586.000; -555.000
847.718; -236.600; -827.000; -798.000
847.967; -242.400; -826.000; -915.000
848.217; -120.800; -449.000; -569.000
848.467; -104.700; -405.000; -376.000
848.716; -162.300; -708.000; -725.000
848.966;  -30.100; -372.000; -358.000
849.215;  -53.500; -428.000; -419.000
849.465; -170.200; -785.000; -615.000
849.714; -268.900;-1132.000;-1150.000
849.964; -109.700; -551.000; -613.000
850.213;   11.800; -393.000; -355.000
850.463;  129.200;  137.000;  340.000
850.712;   -5.600; -542.000; -567.000
850.961;    8.600; -739.000; -678.000
851.211;  138.300; -513.000; -504.000
851.460;  162.500; -635.000; -650.000
851.709;  857.600;  -25.000;   18.000
851.958;16979.900; -912.000; -750.000
852.208;15591.000; -859.000; -879.000
852.457;  589.800; -181.000;  -13.000
852.706;   75.500; -791.000; -823.000
852.955;   -6.900; -507.000; -528.000
853.204;  -75.700; -521.000; -461.000
853.453; -141.400; -418.000; -458.000
853.702; -219.200; -660.000; -750.000
853.951; -172.600; -532.000; -520.000
854.200; -181.300; -613.000; -562.000
854.449; -229.600; -695.000; -661.000
854.698;  -87.800; -340.000; -279.000
854.946; -102.800; -181.000; -284.000
855.195; -244.600; -843.000; -868.000
855.444; -141.900; -395.000; -420.000
855.693; -153.400; -345.000; -432.000
855.941; -193.000; -387.000; -516.000
856.190;  -67.100; -256.000; -382.000
856.439; -209.900; -652.000; -703.000
856.687;  -17.900;  -99.000;  -72.000
856.936; -219.400; -621.000; -323.000
857.184; -312.200;-1067.000;-1020.000
857.433; -167.300; -423.000; -512.000
857.681; -279.900; -989.000; -953.000
857.930; -105.100; -282.000; -433.000
858.178; -262.600; -856.000; -929.000
858.427; -255.400; -802.000; -781.000
858.675; -172.500; -377.000; -544.000
858.923; -219.600; -527.000; -819.000
859.172; -289.100;-1094.000;-1070.000
859.420; -133.800; -339.000; -239.000
859.668; -206.700; -624.000; -628.000
859.916;    5.500;  109.000;  115.000
860.164; -153.000; -699.000; -603.000
860.413;  462.000; -878.000; -696.000
860.661;  211.200; -709.000; -577.000
860.909; -122.400; -339.000; -325.000
861.157;  -95.600; -277.000; -444.000
861.405; -246.900; -534.000; -670.000
861.653;   62.600;  310.000;  310.000
861.901;  237.800; -543.000; -613.000
862.149;  -89.300; -801.000; -824.000
862.396; -120.200; -297.000; -187.000
862.644;  -96.500; -368.000; -347.000
862.892;   -5.300;   98.000;  138.000
863.140; -136.300; -549.000; -530.000
863.388; -305.800; -815.000; -759.000
863.635; -195.700; -642.000; -601.000
863.883;   50.800;  231.000;  190.000
864.131; -113.000; -288.000; -357.000
864.378; -223.700; -675.000; -540.000
864.626; -123.700; -347.000; -415.000
864.873; -195.200; -556.000; -505.000
865.121; -223.100; -714.000; -799.000
865.368;  -47.300; -173.000;   75.000
865.616;   14.800;  -33.000;  -40.000
865.863; -134.800; -462.000; -506.000
866.111; -197.300; -795.000; -824.000
866.358;   62.500; -426.000; -420.000
866.605; 3920.000;  -64.000; -804.000
866.853; 2876.400; -621.000; -537.000
867.100;  -93.400; -728.000; -775.000
867.347; -183.700; -672.000; -611.000
867.594; -128.400; -740.000; -714.000
867.841;  141.100;   97.000;   17.000
868.089; -223.900; -746.000; -698.000
868.336; -185.500; -477.000; -420.000
868.583; -235.300; -637.000; -741.000
868.830;  -33.400; -131.000; -170.000
869.077; -249.000; -859.000; -787.000
869.324; -191.800; -502.000; -458.000
869.571; -186.600; -398.000; -430.000
869.818; -194.500; -485.000; -439.000
870.065; -162.500; -439.000; -513.000
870.311; -154.100; -456.000; -542.000
870.558; -135.200; -332.000; -311.000
870.805; -106.500; -320.000; -384.000
871.052; -135.200; -494.000; -369.000
871.298;  -82.400; -204.000; -131.000
871.545;  -61.400; -151.000; -185.000
871.792; -103.400; -173.000; -222.000
872.038;  -54.400;   43.000; -126.000
872.285; -181.000; -496.000; -387.000
872.532; -127.900; -357.000; -387.000
872.778;   95.400;  556.000;  403.000
873.025; -108.400; -384.000; -359.000
873.271;  142.000;  501.000;  578.000
873.517;    2.200; -133.000; -209.000
873.764;  -32.200; -193.000;  -80.000
874.010;  -38.800; -143.000; -230.000
874.257;  -45.200;  123.000;   90.000
874.503; -189.500; -579.000; -479.000
874.749;  -85.800;   31.000;  275.000
874.995;  -69.200;  -80.000;  -20.000
875.242; -170.600; -540.000; -478.000
875.488; -181.300; -414.000; -439.000
875.734;  -50.600; -106.000; -234.000
875.980;  281.900; -872.000;-1032.000
876.226;  409.900; -157.000; -255.000
876.472;   62.500;  343.000;  237.000
876.718;  -32.300;  184.000;  158.000
876.964;   22.500;   56.000;   55.000
877.210; -240.500; -547.000; -677.000
877.456; -192.000; -630.000; -557.000
877.702; -322.700; -821.000; -832.000
877.948; -152.900; -377.000; -497.000
878.193;   86.100;  361.000;  255.000
878.439; -141.000; -487.000; -472.000
878.685; -136.200; -272.000; -343.000
878.931; -171.200; -618.000; -676.000
879.176; -103.300; -201.000; -201.000
879.422; -291.400; -933.000; -820.000
879.668;  108.700;   10.000;   79.000
879.913;  219.100;   53.000;  137.000
880.159;  -47.100; -112.000;  -17.000
880.404;  -29.000; -152.000; -162.000
880.650;  -25.600;   91.000;  141.000
880.895; -259.500; -670.000; -710.000
881.141; -183.500; -454.000; -428.000
881.386; -216.700; -503.000; -658.000
881.631; -141.500; -311.000; -166.000
881.877;   -5.500;  112.000;  -13.000
882.122; -223.900; -684.000; -600.000
882.367;  -91.600; -136.000; -186.000
882.612; -101.300;  -80.000; -176.000
882.858; -260.100; -877.000; -823.000
883.103; -134.100; -297.000; -267.000
883.348; -232.200; -759.000; -852.000
883.593; -245.600; -677.000; -602.000
883.838;  -37.900; -311.000;  -24.000
884.083;   80.600;  353.000;  288.000
884.328; -124.500; -564.000; -545.000
884.573;  -47.200; -196.000; -143.000
884.818;  350.000; -694.000; -531.000
885.063;  199.600; -348.000; -315.000
885.308; -144.200; -475.000; -398.000
885.553;   67.400;  245.000;  325.000
885.797; -183.500; -545.000; -615.000
886.042;  -40.800;    8.000;   58.000
886.287; -128.800; -253.000; -211.000
886.532;  -39.200;   26.000;  204.000
886.776;  -86.900; -407.000; -525.000
887.021; -206.500; -621.000; -574.000
887.265; -242.400; -685.000; -689.000
887.510; -234.900; -557.000; -496.000
887.755;  -71.100; -194.000; -164.000
887.999; -233.300; -552.000; -575.000
888.244;  -32.000;  -58.000;  161.000
888.488;   41.600;  371.000;  393.000
888.732; -165.300; -368.000; -520.000
888.977; -233.000; -622.000; -567.000
889.221; -257.200; -683.000; -659.000
889.465; -193.500; -422.000; -566.000
889.710;  -76.900;  -56.000; -299.000
889.954;   61.600;  579.000;  467.000
890.198; -202.400; -584.000; -707.000
890.442; -256.200; -716.000; -712.000
890.687; -268.800; -800.000; -753.000
890.931; -119.300; -273.000; -210.000
891.175; -193.300; -502.000; -500.000
891.419;  -89.100; -105.000; -110.000
891.663; -107.200; -239.000; -112.000
891.907; -283.200; -801.000; -545.000
892.151; -284.700; -920.000; -815.000
892.395; -129.400; -274.000; -387.000
892.638;   51.200;  408.000;  291.000
892.882; -312.100; -780.000; -867.000
893.126;  132.000;  758.000;  558.000
893.370; -137.400; -167.000; -168.000
893.614; -215.900; -714.000; -715.000
893.857; -138.200; -183.000; -197.000
894.101; -188.200; -527.000; -631.000
894.345;  -45.300;  300.000;  150.000
894.588;  111.800;  569.000;  380.000
894.832; -136.700; -178.000;  -84.000
895.075;  -88.700;   15.000;  -92.000
895.319; -192.300; -552.000; -420.000
895.563; -152.900; -413.000; -353.000
895.806; -252.200; -628.000; -741.000
896.049;  -64.600; -576.000; -368.000
896.293;  209.000;  527.000;  405.000
896.536; -127.500; -465.000; -468.000
896.779;  -53.000; -149.000;   -1.000
897.023; -232.100; -751.000; -714.000
897.266;  -13.200;  325.000;  269.000
897.509; -285.400; -900.000; -901.000
897.752;  -41.300;  149.000;  171.000
897.996; -311.800; -972.000; -864.000
898.239;  -28.300;  168.000;  102.000
898.482; -168.800; -431.000; -453.000
898.725;  -14.300;  101.000;   53.000
898.968; -238.000; -609.000; -744.000
899.211; -173.900; -513.000; -361.000
899.454; -179.400; -633.000; -539.000
899.697;  -62.300;   90.000;  -43.000
899.940; -258.800; -761.000; -757.000
900.182; -158.000; -335.000; -405.000
900.425; -108.600; -150.000; -298.000
900.668;   23.400;  491.000;  350.000
900.911; -132.800; -292.000; -345.000
901.154;  -20.800;  141.000;   -3.000
901.396; -167.500; -407.000; -412.000
901.639; -213.000; -430.000; -496.000
901.882; -275.500; -790.000; -809.000
902.124;  -96.700;  -29.000; -143.000
902.367; -172.100; -315.000; -361.000
902.609; -231.800; -476.000; -453.000
902.852;  -94.000; -108.000; -260.000
903.094; -187.900; -458.000; -337.000
903.337;  -10.600;  -26.000;   53.000
903.579; -167.600; -228.000; -441.000
903.821; -239.500; -597.000; -744.000
904.064;  -85.800;   85.000;  127.000
904.306; -117.700; -126.000; -166.000
904.548; -156.600; -152.000; -366.000
904.790; -107.900; -195.000; -340.000
905.033; -229.400; -625.000; -577.000
905.275; -191.100; -513.000; -524.000
905.517;  128.100;  468.000;  256.000
905.759; -119.300; -667.000; -761.000
906.001; -171.900; -322.000; -369.000
906.243;  -82.000; -162.000; -224.000
906.485;  239.300; -265.000; -207.000
906.727;  139.100; -499.000; -542.000
906.969;  -46.500;  -30.000; -135.000
907.211;  261.700; -316.000; -382.000
907.453;  389.100; -188.000; -237.000
907.695;    7.100; -158.000; -385.000
907.936;  171.400;  818.000;  706.000
908.178;  -45.500;   92.000; -135.000
908.420; -103.900; -111.000; -162.000
908.662; -214.000; -633.000; -682.000
908.903; -140.900; -208.000; -123.000
909.145;  -38.200; -240.000; -305.000
909.386;   58.700;  315.000;  280.000
909.628;  114.500;  363.000;  397.000
909.870;   45.000;   29.000;  264.000
910.111; -154.100; -809.000; -949.000
910.353;   32.800; -123.000; -161.000
910.594;  -24.900; -574.000; -606.000
910.835;  132.700; -265.000; -326.000
911.077;  210.100; -503.000; -604.000
911.318;  400.100; -505.000; -471.000
911.559;  649.700; -577.000; -880.000
911.801; 2243.700; -284.000; -280.000
912.042;19827.800;  -50.000; -159.000
912.283;40811.600;  404.000;  371.000
912.524; 4765.400; -396.000; -457.000
912.765;  701.500; -193.000;   79.000
913.006;  406.600; -307.000; -338.000
913.247;   57.000; -270.000; -290.000
913.488;   46.000;  -43.000;   30.000
913.729; -145.500; -373.000; -373.000
913.970;  -64.400;  -96.000; -292.000
914.211;  -69.700; -160.000; -198.000
914.452;  -47.700; -118.000;  -11.000
914.693;   74.200;  510.000;  592.000
914.934;  107.600;  510.000;  440.000
915.175;  -76.700;   53.000;  -95.000
915.415;  -87.600; -137.000;   27.000
915.656;  -50.400;  -28.000;  192.000
915.897;  -90.300; -252.000;  -82.000
916.137;  -92.300;   74.000;   -9.000
916.378; -181.900; -573.000; -517.000
916.619; -123.300; -159.000;  -63.000
916.859;   39.200;  303.000;  330.000
917.100;  332.900; 1655.000; 1070.000
917.340;  215.300;  930.000;  728.000
917.581;  159.200;  965.000;  789.000
917.821;   -1.100; -171.000;  143.000
918.061;    2.000; -199.000;  -72.000
918.302;  -75.400; -152.000; -211.000
918.542;  -18.500;  -22.000;    3.000
918.782;  101.900;  369.000;  377.000
919.023;  262.400;  360.000;  427.000
919.263; 2641.400; 8131.000;  202.000
919.503; 1565.200; -137.000;  -54.000
919.743; 1023.400;  390.000;  266.000
919.983;  317.500; -134.000;  -26.000
920.223;  189.100;  135.000;   14.000
920.463;  282.100;  631.000;  554.000
920.703;  245.400;   84.000;   39.000
920.943;  248.900; -110.000;   90.000
921.183;  355.800; -414.000; -405.000
921.423;  791.800;  307.000;  546.000
921.663; 1086.500; -174.000; -257.000
921.903; 2562.100;  237.000;  173.000
922.143;15499.100;  372.000;  389.000
922.383;52573.700;  158.000;  115.000
922.622;13169.400; -120.000;  -15.000
922.862; 1653.300;  796.000;  785.000
923.102;  664.600;  -51.000;   33.000
923.341;  236.200;   59.000;   74.000
923.581;  204.800;  450.000;  360.000
923.821;   61.700;  301.000;  398.000
924.060;   79.500;  351.000;  193.000
924.300;  -68.900;  -16.000; -128.000
924.539;   39.500;  584.000;  473.000
924.779;   81.800;  812.000;  597.000
925.018;  -11.200;  247.000;  353.000
925.257;   28.400;  595.000;  666.000
925.497;   12.500;  447.000;  412.000
925.736;  -80.000;  -35.000;  102.000
925.975;   66.100;  687.000;  669.000
926.214;  117.500;  907.000;  850.000
926.454;  108.500;  706.000;  757.000
926.693;  -25.900;  419.000;  543.000
926.932;  183.800; 1021.000;  825.000
927.171;  249.200; 1107.000; 1044.000
927.410;  201.300; 1144.000;  967.000
927.649;  140.100;  924.000;  742.000
927.888;   59.100;  590.000;  564.000
928.127;   20.100;  680.000;  678.000
928.366;  153.700;  842.000;  826.000
928.605;  123.500;  831.000;  737.000
928.844;  536.300; 1451.000; 1393.000
929.083;  992.600;  770.000;  613.000
929.321;  563.300; 1335.000; 1359.000
929.560;  239.000; 1158.000; 1122.000
929.799;   13.600;  574.000;  475.000
930.038;  214.600; 1025.000; 1394.000
930.276;   17.500;  334.000;  397.000
930.515;   76.200;  827.000;  681.000
930.753;   30.900;  614.000;  589.000
930.992;   26.700;  664.000;  717.000
931.230;   89.700;  847.000;  847.000
931.469;  457.900; 2162.000;  892.000
931.707;  231.100;  840.000;  751.000
931.946;  229.100; 1278.000; 1344.000
932.184;  226.900; 1437.000; 1175.000
932.423;  190.200; 1265.000;  963.000
932.661;  289.800; 1296.000; 1428.000
932.899;   79.400;  987.000;  821.000
933.137;  125.700;  754.000;  564.000
933.376;  330.100; 1664.000; 1335.000
933.614;  359.400; 1759.000; 1196.000
933.852;  115.900; 1357.000; 1171.000
934.090;  370.200; 1722.000; 1747.000
934.328;  232.200; 1252.000; 1457.000
934.566;  251.000; 1431.000; 1110.000
934.804;  274.800; 1263.000; 1309.000
935.042;  917.600; 1861.000; 1850.000
935.280; 3309.800; 2088.000; 2063.000
935.518; 2504.300; 2113.000; 2007.000
935.756;  621.500; 2481.000; 2316.000
935.994;  393.300; 1808.000; 1751.000
936.231;  778.300; 2890.000; 2950.000
936.469;  435.500; 2367.000; 2378.000
936.707;  418.500; 2220.000; 2167.000
936.945;  532.800; 2825.000; 2882.000
937.182;  473.500; 2679.000; 2741.000
937.420;  697.200; 3602.000; 3031.000
937.657;  874.400; 3365.000; 3478.000
937.895;  730.700; 3331.000; 3488.000
938.133;  673.000; 3540.000; 3528.000
938.370;  783.500; 3896.000; 4191.000
938.607;  851.400; 4488.000; 4205.000
938.845; 1241.000; 5587.000; 5549.000
939.082; 1016.300; 5387.000; 5177.000
939.320; 1193.500; 5799.000; 5728.000
939.557; 1418.900; 6549.000; 6491.000
939.794; 1588.700; 7285.000; 7097.000
940.031; 1919.900; 8421.000; 8368.000
940.269; 2242.600; 9552.000; 9107.000
940.506; 2371.300;10901.000;10507.000

