
Integration time [ms]: 200.000
Averaging Nr. [scans]: 10
Smoothing Nr. [pixels]: 0
Data measured with spectrometer [name]: 2101013U2
Wave   ;Sample   ;Dark     ;Reference
[nm]   ;[counts] ;[counts] ;[counts] 

394.013;   92.765; -450.257; -315.536
394.305;  364.062; -461.258; -419.536
394.596; 1248.633; -676.269; -527.514
394.887; 2814.454; -796.268; -654.518
395.178; 1178.392;  145.736;   11.476
395.470;  100.706; -210.263; -356.526
395.761;  379.772;  305.734;  394.479
396.052;  654.475; -545.284; -306.489
396.343;  603.463; -557.276; -454.503
396.634;  171.624; -200.279; -290.497
396.926;  143.150; -618.268; -565.517
397.217;  194.069;   11.725;  -17.504
397.508;   70.389; -366.273; -154.507
397.799;   32.224; -555.279; -571.497
398.090;  -81.383; -973.280; -902.495
398.381;  205.081;   11.708;  -11.473
398.672;  -44.217; -585.292; -742.473
398.963;   20.732; -348.279; -373.498
399.254;  177.594;   54.709; -209.475
399.545; -107.132;-1017.266; -883.520
399.836;   90.249; -407.277; -343.501
400.127;   82.951; -205.295; -209.468
400.418;   55.782; -423.274; -392.506
400.709;   90.401; -359.281; -333.493
401.000;   66.399; -268.291; -309.476
401.290;  185.771;  225.698;  115.545
401.581;   95.154; -166.286; -228.485
401.872;    5.616; -542.298; -486.462
402.163;   62.142; -313.296; -252.467
402.454;  137.595; -123.291; -163.475
402.744;   46.531; -844.297; -813.465
403.035;  628.070; -226.293;  -86.471
403.326;  831.586; -366.292; -384.474
403.617;  574.209;  204.701;  165.539
403.907;  253.682; -593.283; -679.490
404.198; 2599.714; -545.307; -599.446
404.489; 6766.389; -618.283; -588.491
404.779; 2502.476; -618.302; -660.456
405.070;  298.449;  -67.304; -174.451
405.360;  422.572; -259.293; -238.472
405.651;  464.890;  125.699;   98.542
405.942;  295.748;  209.714;  127.516
406.232;  371.666; -432.285; -413.487
406.523;  794.264;  641.706;  758.530
406.813;  113.150; -579.286; -644.484
407.104;  577.080;  261.708;  144.527
407.394;  246.211; -604.299; -591.462
407.685;  248.265;  336.715;  222.513
407.975;   74.987; -400.283; -382.490
408.265;  192.813; -134.289; -190.478
408.556;   64.791; -472.291; -459.475
408.846;  320.365;  474.706;  429.530
409.137;  114.423;   -1.288; -216.480
409.427;   59.066; -193.285; -271.487
409.717;   -6.507; -776.273; -692.508
410.007;  225.058;    4.715; -170.486
410.298;  138.954; -360.295; -342.469
410.588;   77.062; -495.285; -510.486
410.878;  -59.063; -792.287; -873.482
411.168;  130.219; -481.298; -478.463
411.459;  130.680; -295.283; -242.489
411.749;   36.789; -609.292; -507.474
412.039;   33.321; -755.289; -386.480
412.329;  287.740;   40.722;  132.501
412.619;  244.151;  -62.286; -148.485
412.909;  590.016;  639.711;  594.521
413.199;  453.817; -130.280; -251.495
413.490;  622.804;  521.710;  352.523
413.780;  110.022;-1013.279; -913.496
414.070;  462.164;  -46.276;  235.497
414.360;  383.236; -729.278; -666.498
414.650;  367.432; -726.288; -688.482
414.940;  540.821; -538.280; -441.496
415.230; 1078.229;   50.712;   74.519
415.520; 7044.732;  155.730;   66.486
415.809;26400.400; -305.281; -125.493
416.099;21169.752; -388.277; -229.501
416.389; 5758.879;  435.726;  236.494
416.679; 3414.211;   91.738;   85.473
416.969;  578.043; -527.287; -503.483
417.259;  776.324;  341.721;  171.503
417.549;  861.299;  522.718;  318.508
417.838; 1836.153; -205.268; -147.518
418.128; 5930.411;  650.710;  492.522
418.418; 4941.101; -491.272; -579.509
418.708; 3477.879;    9.726;  -48.506
418.997;12394.174; -474.275; -480.505
419.287;13021.188; -733.273; -790.507
419.577;12297.279; -160.283; -123.489
419.866;39945.350; -588.277; -498.501
420.156;41776.227; -242.270;  -55.513
420.446; 8292.101; -112.263;  -26.526
420.735; 1201.419; -376.271; -446.512
421.025; 1321.335; 1830.722;  315.502
421.314; 1094.417; -203.271; -226.512
421.604; 2402.444;   89.732;  233.484
421.893; 1356.212; -705.271; -602.511
422.183;  259.202; -487.263; -461.526
422.472;  511.914;  -36.271; -107.511
422.762;  607.776; -416.266; -379.521
423.051;  291.865; -916.276; -916.503
423.341;  392.690; -491.273; -439.507
423.630;  575.883; -121.265;   15.477
423.919;  500.973;   58.725;   49.495
424.209;  436.708;  -31.263;   56.473
424.498;  602.550;   68.732;  161.483
424.787; 1187.858; -535.267; -601.518
425.077; 3945.781;   34.735;   29.478
425.366; 5972.615; -734.262; -744.528
425.655;11351.791;  639.727;  259.493
425.945;21635.278; -313.247; -268.554
426.234;12664.244;  117.741;  300.467
426.523; 5626.450;  -86.259; -350.534
426.812; 7812.170;  107.734;  159.480
427.101;11485.539; -127.269; -323.515
427.390;14760.332;  -55.270;  -86.514
427.680; 3979.275; -624.257; -411.538
427.969;  649.489; -330.255; -301.540
428.258;  386.465; -385.257; -477.536
428.547;  828.406;  449.728;  397.490
428.836; 1851.409; -421.253; -398.543
429.125; 2768.753; -199.259;  -72.534
429.414; 1138.538; -330.251; -294.548
429.703; 3642.538; -231.251; -213.548
429.992; 9968.042; -938.250; -828.549
430.281; 6791.493; -397.264; -331.524
430.570;  825.226;  -21.252;   32.454
430.859;  868.350;  279.741;  352.466
431.148;  728.172;  636.752;  631.446
431.437;  459.225;  391.748;  367.454
431.725;  167.667; -544.257; -481.536
432.014;   72.118; -845.253; -756.545
432.303;  474.367; -149.239; -105.569
432.592;  769.401; -460.263; -178.525
432.881; 1181.874; -601.248; -437.554
433.169; 6729.590; -343.255;  -61.540
433.458;13163.310;  445.765;  540.424
433.747; 5824.422; -397.261; -289.529
434.036; 1222.437; -275.242; -280.564
434.324; 2385.958; -395.249; -379.551
434.613; 4064.029;   40.757;  159.437
434.902; 1528.955;  333.760;  439.433
435.190;  959.366;   75.761;  295.431
435.479;  545.906;  -52.245;   83.441
435.767;  139.716; -411.244; -427.561
436.056;  288.332; -340.242; -294.563
436.345;  413.258; -372.240; -223.568
436.633;  555.052;   60.750;  383.450
436.922;  469.761;  208.760;  414.432
437.210; 1024.097; -194.236;    1.426
437.499; 3447.008; -583.235; -432.576
437.787; 3817.097; -339.236;  -10.574
438.075;  938.973;   56.761;  162.430
438.364; 1148.876;  -44.238;  250.429
438.652;  703.008; -286.226; -138.592
438.941;  252.163;    3.770;  269.415
439.229;   25.022; -665.252; -466.545
439.517;   72.318; -160.234;  -85.577
439.806;  -11.573; -501.225; -290.595
440.094;  307.028;  377.766;  650.421
440.382;  231.432; -653.233; -302.580
440.670;  280.507; -361.235; -285.576
440.959;   70.849; -347.223; -170.599
441.247;  118.677; -151.229; -109.587
441.535;  168.416; -266.235;   31.423
441.823;   20.224; -497.234; -305.578
442.111;  315.182;  173.771;  327.412
442.400;  825.005; -628.245; -335.559
442.688; 2428.227; -111.234; -620.579
442.976; 1717.160; -786.213; -450.617
443.264;  188.836; -324.224; -364.597
443.552;  132.809; -258.226;   51.408
443.840;  340.314;  602.765;  876.423
444.128;  200.431;  265.767;  269.420
444.416;  -30.315; -694.228; -312.588
444.704;   20.187; -465.219;  -92.605
444.992;  111.013;   -0.226;  240.407
445.280;   64.263; -517.230;  -94.585
445.568;   37.064; -694.212; -396.618
445.856;  575.267; -174.221;  357.398
446.143; 1326.682;  -54.220;   -7.604
446.431; 1115.990;  -25.228;  625.411
446.719;  463.611;  489.783;  675.391
447.007;  323.756;  481.769;  705.416
447.295;  305.346;  597.777;  871.402
447.583;  107.174; -464.229;  -34.587
447.870;  211.963; -434.221; -202.601
448.158;  677.862; -104.230;  129.415
448.446;  505.583; -800.219; -338.604
448.733;  249.138;   13.776;  269.403
449.021;  417.164;   60.788;  341.382
449.309;  276.782; -296.210;  208.379
449.596;  345.706;  128.783;   59.392
449.884;  132.354; -571.222; -325.600
450.172;   98.597; -756.227; -406.590
450.459;  566.639;  645.786;  780.387
450.747; 2536.604; -411.218; -147.608
451.034; 7869.092;  493.772;  889.411
451.322; 6499.442; -413.214; -170.614
451.609;  667.439;  292.777;  508.403
451.897;  601.861; -550.203; -183.634
452.184; 1817.246; -622.223; -400.598
452.472; 1888.709;   97.792;  269.375
452.759;  534.184;  512.781;  864.395
453.047;  149.660; -407.212; -125.617
453.334;  105.894; -732.219; -216.606
453.621;  138.045; -438.214; -161.615
453.909;  212.351;   13.796;  384.368
454.196;  183.208; -299.199; -123.641
454.483;  314.878;  317.798;  540.364
454.771;  185.513; -215.208;  196.374
455.058;   84.617; -316.207;  102.374
455.345;  186.278;   71.807;  344.347
455.632;  130.921; -128.207;  235.373
455.919;   83.237;  -82.196;  182.354
456.207; -127.986; -774.198; -450.642
456.494;  -45.907; -475.200;  -66.639
456.781;    6.372; -399.202; -198.635
457.068;   90.429; -253.206;  -29.628
457.355;  -44.669; -698.206; -401.629
457.642;  -14.762; -552.205; -290.630
457.929;  -45.134; -778.194; -417.651
458.216;   60.261; -575.212; -354.617
458.503;  296.272; -173.193;  -19.652
458.790;  224.710; -864.208; -630.625
459.077;  335.778;  -77.202;  110.364
459.364;  895.057; -350.195; -210.649
459.651; 1802.727;  -46.206;  220.372
459.938;  794.398; -864.209; -665.623
460.225;  211.282;  132.799;  276.363
460.512; -106.967; -836.197; -688.645
460.799;  185.403;  -32.218;  320.392
461.086;  129.299; -370.200; -251.640
461.372;   47.414; -509.198; -279.642
461.659;  194.038; -165.196;  108.354
461.946;  117.570; -445.193;  -54.651
462.233;  437.796;  842.800;  888.361
462.519;  358.892; -814.201; -464.639
462.806; 1039.034; -768.197; -497.645
463.093;  967.996; -445.191;  -66.656
463.380;  -81.852; -920.186; -824.664
463.666;   74.636; -259.197;  -18.646
463.953;  143.451; -406.195; -243.648
464.239;  267.651; -173.195;  -77.648
464.526;  633.164;  413.806;  743.350
464.813;  451.311; -565.190; -304.658
465.099;  521.972;  606.807;  607.348
465.386;  573.977;  903.807;  921.348
465.672;   15.334; -694.197; -522.645
465.959;   47.633; -598.188; -520.662
466.245;    0.477; -468.193; -359.652
466.532;  162.848; -109.195;   63.352
466.818;  109.648; -357.186; -216.664
467.104;  -22.002; -488.182; -415.672
467.391;  -37.987; -628.189; -459.658
467.677;  102.452; -289.186;    9.335
467.964;   12.622; -682.189; -471.660
468.250;  130.856; -331.186; -160.665
468.536;  137.615;   90.811;  180.341
468.822; -101.829; -821.184; -574.668
469.109;  269.500;  351.827;  471.311
469.395;  368.889;  729.808;  787.346
469.681;  269.319;   46.811;  156.341
469.967; 1353.024; -699.188; -382.660
470.254; 2865.534; -494.188; -306.662
470.540; 1883.536; -601.196; -476.646
470.826;  275.812; -488.181; -397.675
471.112;  418.075;  288.816;  113.331
471.398;  138.581; -253.183;  -58.670
471.684;   10.548; -626.177; -447.680
471.970;  -90.183; -918.180; -981.675
472.256;   15.788; -521.192; -441.654
472.542;    5.713; -499.171; -434.691
472.828;  -34.807; -743.182; -607.672
473.114;   26.868; -380.166; -283.700
473.400;  -19.032; -504.175; -293.684
473.686;   21.976; -452.166; -400.701
473.972;  102.387; -230.174; -131.687
474.258; -134.300; -925.173; -843.689
474.544;  263.937; -183.178;   -2.679
474.830;  360.371;  -65.175;   45.316
475.116;  583.313; -123.190; -196.658
475.401;  683.620; -558.180; -467.676
475.687;  217.019; -725.180; -718.676
475.973;  -14.697; -673.181; -770.673
476.259;  434.273;  736.825;  764.315
476.544;  426.558; -539.176; -437.682
476.830;  903.108; -398.172; -322.690
477.116;  783.456; -430.177; -336.682
477.401;  263.219;  346.820;  358.324
477.687;  -39.531; -289.175; -405.684
477.973;   65.208;   21.819;   28.326
478.258;   -4.198; -448.163; -348.706
478.544;  107.762;   21.815;   61.334
478.829; -115.280; -818.171; -738.692
479.115;  -68.792; -749.172; -651.690
479.401;  -54.019; -444.174; -449.686
479.686;   64.218; -253.180;  -74.676
479.972; -108.056; -886.178; -776.680
480.257;   55.670; -258.166;  -65.700
480.542;  -23.275; -614.170; -469.693
480.828;  469.866; 1288.824; 1392.317
481.113;  -29.636; -464.176; -426.683
481.399;    8.331; -236.161; -202.711
481.684;  -94.631; -620.166; -462.700
481.969;   58.048; -158.159;  -73.713
482.255;  -13.661; -439.169; -285.695
482.540;   -8.656; -569.178; -441.680
482.825;  -16.258; -395.187; -404.663
483.110;  116.343;  -85.169; -105.696
483.396;  144.375; -840.157; -652.718
483.681;  634.087;  543.826;  730.313
483.966;  119.541; -696.160; -700.712
484.251;   14.386; -404.174; -310.687
484.536;   32.083; -356.165; -378.703
484.822;   -3.211; -205.173; -218.687
485.107;  -61.377; -599.152; -502.726
485.392;  273.990;  662.836;  541.296
485.677;  126.955;  354.832;  163.302
485.962;  202.572;  160.843;  270.283
486.247;  148.911;  -14.162;   -8.707
486.532;   50.671; -178.166; -325.701
486.817;  291.324;  381.839;  431.291
487.102;  110.102; -453.154; -514.722
487.387;  763.978; -637.156; -652.718
487.672; 1242.796; -154.164;  -38.705
487.957;  861.733; -394.160; -286.711
488.241;  254.744; -290.150; -314.729
488.526;  836.125; -280.152; -148.726
488.811; 1243.447; -881.177; -818.680
489.096; 1000.205; -666.154; -702.723
489.381;  547.620;    3.847;  162.275
489.666;  387.731; -428.161; -510.710
489.950;  335.809;  558.846;  627.277
490.235;  -89.262; -480.151; -458.728
490.520;  -66.070; -756.161; -723.710
490.804; -116.920; -827.156; -736.719
491.089;  -15.936; -469.149; -299.732
491.374;   58.294; -132.164;  -75.704
491.658;  -50.022; -817.147; -717.735
491.943;  204.930; -657.152; -609.727
492.227;  353.797; -178.155;  -38.721
492.512;   82.272; -294.157; -341.717
492.797; -152.044; -713.149; -716.731
493.081; -116.518; -588.147; -598.735
493.366; -106.968; -751.161; -635.711
493.650;  394.548;  831.859;  917.254
493.935;    4.778; -648.147; -447.734
494.219;  -96.168; -778.142; -687.743
494.503;  -85.850; -585.150; -487.730
494.788;   64.161;   46.842;   74.285
495.072;  221.946;  184.850;  434.271
495.356;  217.768; -463.148; -343.733
495.641;  552.990; -812.146; -736.736
495.925;  521.086; -976.156; -903.719
496.209;   22.263; -599.149; -451.732
496.494; -112.167; -763.142; -544.744
496.778;    5.802; -364.154; -360.722
497.062; -136.314; -819.156; -627.719
497.346; -105.164; -869.160; -640.711
497.631;  257.472;  580.852;  560.266
497.915;   97.503;  -64.145;  175.261
498.199;  135.875; -341.157; -277.718
498.483;   67.023; -562.152; -508.725
498.767;  320.847;  301.850;  300.271
499.051;  221.060; -126.149; -100.732
499.335;   -0.342; -693.149; -739.731
499.619;  -56.725; -381.129; -423.767
499.903;   92.695; -272.155;  -65.721
500.187;   30.711; -588.153; -316.724
500.471;  -13.371; -796.152; -595.727
500.755;  176.630;   62.839;  -96.710
501.039;   16.096; -270.155; -357.721
501.323;  162.351;  -21.141;  264.254
501.607;   68.102; -447.163; -503.706
501.891;  -21.523; -607.156; -512.718
502.174;  -70.283; -726.144; -585.741
502.458;  115.534;   89.849;  370.273
502.742;   42.181; -180.138; -191.751
503.026;   88.977; -412.147; -254.734
503.310;  203.447; -437.159; -375.713
503.593;  126.879; -464.147; -325.735
503.877;  179.231; -232.133; -156.760
504.161;  250.514;    2.847;  -50.724
504.444;  117.564; -841.158; -710.716
504.728;  497.893; -487.164; -522.704
505.012;  812.843; -257.150;  -76.729
505.295;  672.231; -417.161; -212.711
505.579;  621.986; -256.156; -496.719
505.862;  857.299; -555.145; -333.738
506.146;  776.650; -681.159; -758.714
506.429;  577.651;  568.841;  461.286
506.713;   88.840; -732.151; -667.728
506.996;  479.601;   90.846;  295.278
507.280;  352.887; -633.165; -474.703
507.563;  254.393; -469.155; -261.721
507.847;   85.912; -423.153; -112.724
508.130;   67.732; -665.161; -456.711
508.413;  110.064; -758.167; -577.700
508.697;  287.165; -151.167;   12.300
508.980;  148.514; -422.153; -312.724
509.263;  -14.311; -466.155; -450.720
509.547;   59.243; -124.150;   82.271
509.830;   95.335; -172.160;  140.289
510.113;  143.685;  128.844;  298.281
510.396;   42.621; -530.152; -300.725
510.680;  307.700; -818.145; -812.738
510.963; 1204.807;  184.846;  180.277
511.246; 1000.353; -493.150; -357.730
511.529;  409.606; -482.145;  -83.739
511.812;  448.427; -250.134;   10.241
512.095;  248.436; -740.151; -396.728
512.378;   82.484; -317.147; -245.736
512.661;  -22.710; -703.137; -623.753
512.944;  -15.065; -750.142; -637.744
513.227;  110.487; -170.137; -171.752
513.510;   -8.183; -479.144; -671.741
513.793;   -4.844; -485.140; -435.747
514.076;  185.201;  -43.127;  -39.771
514.359;  128.064; -294.149; -135.732
514.642;   63.739; -442.142; -567.744
514.925;  931.154;  581.860;  561.253
515.208;  989.722; -498.134; -443.758
515.491;  678.140; -276.133; -182.761
515.773;  403.222; -410.143; -337.742
516.056; 2437.898;  249.864;  409.246
516.339; 3054.403; -754.136; -652.755
516.622; 2676.050; -518.150; -488.730
516.904; 2225.931;  882.857;  975.257
517.187;  967.485; -730.138; -523.752
517.470;  573.429; -568.143; -510.743
517.752;  493.907; -624.136; -470.756
518.035;  352.369; -708.139; -725.749
518.318;  356.903; -799.136; -744.755
518.600; 2639.344; -300.132; -325.762
518.883; 3435.638;  310.858;   88.256
519.165; 1770.376; -585.138; -426.751
519.448;  515.743;  -61.132;  -19.762
519.730;  214.911; -573.126; -415.773
520.013;  545.435;  588.867;  664.240
520.295; 1456.829;  -94.134;  -15.759
520.578; 3067.160; -335.131; -305.764
520.860; 3334.444; -254.132;   56.238
521.143; 1675.309; -763.135; -584.756
521.425;  633.427; -251.125; -279.775
521.707;  850.602; -622.127; -380.771
521.990; 2091.802; -199.127;  167.229
522.272; 2212.158; -116.140;   -4.748
522.554; 1249.423; -237.143; -157.742
522.836;  601.726;  -24.134;   99.241
523.119;  293.575; -496.148; -189.734
523.401;  178.169; -448.130; -314.766
523.683;   79.491; -865.137; -693.753
523.965;  382.482;  408.862;  260.248
524.247;  337.054;   54.878;  170.220
524.529;  212.229; -451.134; -367.759
524.812;  487.471;   -3.130;  191.234
525.094;  961.082; -773.138; -631.751
525.376; 1516.038; -143.124;   78.223
525.658;  944.000; -441.136; -339.754
525.940;  -37.644; -805.131; -671.764
526.222;   39.604; -188.136;  -88.755
526.504;  183.553; -190.131;   32.237
526.786;  248.532; -960.133; -647.760
527.068;  503.545; -124.123;  -67.778
527.349;  177.495; -865.137; -774.754
527.631;  180.043; -137.132;   22.238
527.913;  123.201; -664.127; -450.771
528.195;  108.518; -761.125; -639.774
528.477;  294.922;  -93.134;  -30.758
528.759;   61.871; -648.130; -522.766
529.040;   -6.656; -569.123; -293.778
529.322;   80.022; -235.125;  -10.774
529.604;  210.473;  -47.130;   93.233
529.886;  167.310; -546.126; -302.773
530.167;  217.063;  232.870;  192.235
530.449;   79.683;    1.853;   63.265
530.731;  -23.548; -572.122; -459.779
531.012;   10.879; -513.120; -216.784
531.294;   58.427; -118.116;  -43.792
531.575;  241.427;  290.875;  538.225
531.857;   23.816; -548.135; -266.757
532.138;  221.749; -113.141;   40.254
532.420;  279.511;  294.865;  403.244
532.701;  292.735; -722.133; -751.760
532.983;  566.639;  232.867;  182.239
533.264;  215.508; -243.126;  175.228
533.546;  -38.996; -491.136; -508.755
533.827;  114.731;  173.867;   -1.759
534.109;   59.716; -352.135;  -80.757
534.390;   92.748; -725.132; -582.762
534.671;  366.711; -270.135;  -82.756
534.953;  135.047; -751.123; -611.779
535.234;    2.209; -426.117; -255.789
535.515; -177.611; -891.119; -735.785
535.796;  -40.304; -431.128; -193.770
536.078; -241.662;-1050.124; -904.777
536.359;   28.248;  -22.123;    3.221
536.640;  -48.080; -480.125; -197.774
536.921;  226.180;  225.871;  143.232
537.202;  441.078;  -87.138;  -16.751
537.483;  554.659;  251.869;  377.236
537.764;  255.063;   17.870;   98.235
538.045;  -87.079; -543.134; -371.758
538.326;  -64.518; -596.129; -447.768
538.607;  -46.697; -686.127; -476.771
538.888;  254.067;   98.879;    5.218
539.169;  188.760; -704.122; -535.781
539.450;  487.379;  236.871;   16.233
539.731;  270.472; -361.121; -182.783
540.012;  216.679;  199.880;  412.216
540.293;  132.031;   82.876;  158.224
540.574;  -47.247; -895.113; -717.796
540.855;  663.170;  435.879;  377.218
541.136;  684.157;   47.878;  139.220
541.416;  332.372; -161.130; -220.766
541.697;  253.754; -274.131; -170.763
541.978; 1202.514; -270.135; -315.757
542.259; 1400.503; -211.127; -236.771
542.539;  727.720; -191.116; -186.790
542.820;  274.926;  461.875;  480.225
543.101;  202.202;  -52.145;  -77.738
543.381;  -37.098; -638.127; -591.771
543.662;  371.899;  159.873; -254.771
543.942;  579.597; -751.127; -830.770
544.223; 1227.759;  193.878;  161.219
544.504;  733.538; -275.124; -182.777
544.784;  660.910; -592.126; -408.773
545.065; 1847.424;  104.884; -254.791
545.345; 2134.989;  227.881;   14.215
545.626; 1478.553;  -14.113; -108.796
545.906; 1002.662;   77.869;   98.235
546.186;  421.616;   92.874;  -95.773
546.467;  266.941;   99.877;  -95.778
546.747;  444.820;  264.884;  327.210
547.027;  479.636;   91.876;  111.223
547.308;  345.196; -376.127; -530.770
547.588;  522.483;  299.871;  371.232
547.868;  299.164;  458.870;  588.235
548.149;  327.334;  609.885;  593.207
548.429;  157.200; -347.127; -299.771
548.709;  145.978; -645.120; -461.784
548.989;  582.301;   84.882;   88.213
549.269; 2458.542;   10.868;  139.239
549.550; 5257.046;  215.877;  117.222
549.830; 4635.275; -758.111; -556.799
550.110;  952.284; -468.110; -320.801
550.390; 1008.153; -128.122;  -56.779
550.670; 1226.047; -868.114; -783.795
550.950;  897.470; -509.121; -471.782
551.230;  313.965;  549.879;  460.218
551.510;  -36.632; -381.121; -326.782
551.790;   43.994; -173.109; -127.803
552.070;  484.341;  940.877; 1181.223
552.350;  422.294; -492.119; -377.786
552.630;  636.662;   -2.121;   77.219
552.909;  446.025;  181.884;   73.209
553.189;  311.450;  -49.132;   33.237
553.469;  196.094; -703.119; -514.786
553.749;  163.904; -469.127; -357.772
554.029;  211.614;   33.883;  -24.790
554.308;  162.039; -154.115;  -37.794
554.588;   58.795; -196.128; -204.770
554.868;   30.471; -366.121;  -47.782
555.147;  148.435; -114.115;  -46.793
555.427;  651.828; -260.116; -250.792
555.707; 4333.933; -284.115; -200.793
555.986; 4774.179; -719.111; -538.800
556.266; 2735.918;   23.884;   72.210
556.546;   72.868; -888.121; -675.782
556.825;  236.044; -657.114; -556.794
557.105; 2014.392; -125.128;   17.230
557.384; 2175.024;  122.884;  187.209
557.664;  795.227; -717.116; -508.792
557.943;   75.970; -557.121; -411.782
558.222;  169.605; -345.118; -344.788
558.502;  347.337; -116.115;  -76.793
558.781;  622.432;  194.885;  499.208
559.061;  404.605; -232.118; -227.788
559.340;  416.711;  302.883;  353.211
559.619;  864.018;   93.884;  148.210
559.899; 1102.213; -239.117; -266.789
560.178; 1065.037; -778.115; -593.793
560.457; 3480.915; -623.117; -562.790
560.736; 4475.781; -472.111; -482.800
561.015; 3087.789; -500.128; -502.769
561.295;  488.719;  180.893;  215.193
561.574;  458.934;  119.885;  116.207
561.853;  623.700;  274.891;  303.197
562.132;  581.340;  -45.114;  182.206
562.411;  538.063;  396.879;  553.219
562.690;  119.831; -592.115; -458.792
562.969;  261.161;  472.888;  630.203
563.248;  952.760; 2966.878; 2487.219
563.527;  274.580; -290.111; -408.800
563.806;  371.300; -650.127; -521.771
564.085;  456.638; -297.105; -206.810
564.364;  201.417; -594.117; -405.790
564.643;  596.463; -276.121; -223.781
564.922; 2087.492;  221.890;  397.198
565.201; 1854.096; -640.109; -700.803
565.479;  898.430; -297.115; -219.792
565.758;  288.292; -810.128; -712.770
566.037;  498.098; -155.109; -100.803
566.316;  267.124; -286.116;  -28.791
566.595;   80.733;  -17.115;  -12.793
566.873;  180.582; -166.111;  -79.801
567.152; -126.839; -490.113; -590.797
567.431;   43.919; -113.116;    6.210
567.709;   20.719; -344.107; -212.807
567.988;  216.544; -810.114; -769.794
568.266;  563.533; -160.115;  -68.793
568.545;  368.797; -644.100; -514.819
568.824;  736.829;  160.885;  356.208
569.102;  539.844; -351.114; -235.794
569.381;  226.128; -492.116; -407.792
569.659; -100.844; -553.113; -553.796
569.938;  -27.542; -743.122; -465.780
570.216;  101.801; -225.109; -225.804
570.494; -117.452; -632.114; -572.795
570.773;   76.868;  202.879;  114.218
571.051;  -16.156; -373.123; -357.778
571.330;   65.853; -221.113; -174.796
571.608;   43.519; -181.098; -173.823
571.886; -162.327; -671.111; -581.799
572.164; -148.029; -739.121; -621.782
572.443; -105.157; -562.105; -512.811
572.721;  -65.685; -399.117; -289.790
572.999;  -65.093; -280.117; -168.788
573.277;  199.935;  379.894;  620.191
573.555;  361.937;   94.894;   37.190
573.834; 1446.907;  -86.117; -114.788
574.112; 1720.122;  880.893;  811.193
574.390;  538.681; -143.111;  -96.801
574.668;   -3.538;  -91.112;  -61.797
574.946;  -18.963; -165.106; -187.810
575.224;   25.596;   71.891;  -16.803
575.502;  -17.679; -200.116; -204.791
575.780; -170.036; -767.112; -829.798
576.058;  483.780; 1589.889; 1004.200
576.336;  -38.713; -210.110; -129.801
576.614; -115.736; -511.112; -340.798
576.891;    2.639; -711.115; -823.794
577.169;  484.311; -158.108; -285.805
577.447;  638.422;  169.893;  202.193
577.725;  395.069;  629.888;  854.201
578.003;   17.767;  -71.112; -371.798
578.280;  102.354; -208.104; -242.812
578.558;   34.837; -450.115; -422.793
578.836;  162.348; -210.114; -145.795
579.114;    9.762; -630.112; -670.797
579.391;  128.309;   -6.117;  -18.789
579.669; -155.460; -595.114; -704.794
579.947;  173.518; -326.107; -127.806
580.224;  270.117; -692.107; -524.806
580.502;  369.323;  127.893;   76.193
580.779;   38.117;  -42.117;   75.210
581.057; -127.598; -584.109; -470.804
581.334; -167.727; -726.102; -695.815
581.612;   88.638;   54.895;  511.190
581.889;  -57.611;  -83.101; -129.818
582.167;  -68.593; -298.099; -190.821
582.444; -188.718; -845.102; -814.817
582.721;  183.283;  657.899;  715.183
582.999;   58.504; -326.100; -167.821
583.276;  424.950; -812.123; -713.779
583.553;  687.477; -364.102; -294.816
583.831;  153.950; -607.104; -631.812
584.108;   86.609;  349.892;  174.195
584.385;  -19.528; -122.102;  -98.815
584.662; -168.517; -651.111; -828.801
584.940;   39.282;  204.889;  204.199
585.217;  -48.044;  -73.113; -303.796
585.494;   41.793;   71.890;  118.198
585.771;  225.903; -250.109; -354.804
586.048;  471.755; -196.113;  -76.796
586.325;  270.986; -721.110; -773.801
586.602;  176.654;  230.896;  213.188
586.879;  -78.301; -499.100; -580.820
587.156;   50.439; -156.105; -331.810
587.433; -121.920; -701.102; -667.817
587.710;  105.065;  152.888;  234.202
587.987;  315.246; -264.105; -236.811
588.264;  979.767;  315.888;  387.202
588.541; 1616.557;  -61.104;   26.187
588.818; 2872.605;   72.892;  171.196
589.095; 2513.452; -163.104; -174.812
589.371;  403.600; -459.109; -414.804
589.648;  -12.678; -581.107; -437.807
589.925;  -43.451; -517.114; -621.795
590.202;  -77.436; -741.112; -607.798
590.478;  112.348; -166.105;  -73.811
590.755;  311.113; -241.108; -132.806
591.032; 2727.589; -741.110; -699.802
591.308; 3372.670; -732.094; -790.831
591.585; 1844.988; -573.110; -560.802
591.862;   66.982;-1056.102; -950.817
592.138;   13.710; -475.108; -474.805
592.415;  134.755; -486.104; -495.813
592.691; 1831.253;  460.896;  518.188
592.968; 2096.622; -208.098; -123.824
593.244;  944.019; -695.116; -595.790
593.521;   67.982; -105.102;  -42.817
593.797;  -99.146; -810.122; -720.780
594.074;  290.638; -611.096; -588.826
594.350;  816.251;  828.905;  729.172
594.626;  296.883; -303.111; -283.801
594.903;   59.983; -643.101; -645.817
595.179;  286.160;  243.896;  418.187
595.455;    9.224; -136.107; -150.807
595.731;   57.262;  -19.103;  -38.814
596.008;  -66.524; -464.111; -434.800
596.284;   20.602; -187.100; -242.820
596.560;   16.078; -501.093; -493.833
596.836;  203.842; -173.105;  -70.810
597.112;  317.511; -582.108; -437.805
597.388;  274.235;  -49.097;  -48.826
597.665;  199.759;  437.887;  530.203
597.941; -124.186; -572.089; -658.839
598.217;   -2.508; -323.110; -293.802
598.493;  296.204;   61.891; -204.804
598.769;  506.695; -175.100;  -50.819
599.045;  265.514; -490.108; -562.806
599.321;   25.801; -193.100; -261.820
599.597;  124.604; -355.109; -476.804
599.872;  603.657;  409.896;  429.187
600.148;  397.837;  -61.097; -172.826
600.424;  377.321;   91.893;  202.193
600.700;  239.223; -170.107; -280.807
600.976;  110.830; -442.097; -464.825
601.252;  269.099; -226.109; -272.803
601.527;  147.659; -833.104; -840.813
601.803;  140.249; -453.105; -404.812
602.079;  213.795; -124.100; -118.819
602.354;  609.390; -620.092; -531.835
602.630;  870.756; -140.113; -482.796
602.906; 2667.689; -910.101; -863.818
603.181; 6998.394; -627.119; -534.786
603.457; 6120.834;   98.903; -278.826
603.733;  871.773; -605.120; -626.783
604.008; 1169.838; -245.106; -164.810
604.284; 3223.785; -636.101; -580.817
604.559; 2884.069;   -3.112;  -42.799
604.835;  558.342; -163.105; -225.810
605.110;  385.608; -732.099; -892.821
605.385;  813.181;  224.907;  267.167
605.661;  672.455; -625.095; -729.829
605.936; 1091.215; -664.108; -737.806
606.211; 1023.370;  -17.103; -170.815
606.487;  194.342; -329.114; -376.794
606.762;  -38.806; -791.119; -745.786
607.037;  -37.858; -501.105; -433.810
607.313;  -83.754; -589.096; -574.828
607.588;  -23.062; -375.106; -137.810
607.863;   61.289;  -28.101; -143.818
608.138;  248.291;  513.890;  516.198
608.413;  -18.388; -576.099; -592.822
608.688;   14.110; -203.108; -267.805
608.964;  182.030; -509.106; -218.809
609.239;  237.039; -107.105; -212.810
609.514;  368.049;  281.895;  240.188
609.789;  651.854; -187.104; -716.812
610.064;  885.945; -435.096; -609.827
610.339;  945.300; -855.109; -799.804
610.614; 1259.002; -131.100; -315.820
610.889;  772.849;  215.895;  107.188
611.163;   -7.050; -407.104; -591.812
611.438;   62.944;   81.886; -167.794
611.713;  -35.215; -467.101; -499.817
611.988;   41.087; -144.101; -328.818
612.263;  -93.927; -771.102; -717.815
612.538;  332.755;  385.887;  251.204
612.812;   90.503; -832.100; -911.820
613.087;  115.019; -358.098; -338.823
613.362; -115.376; -497.107; -557.807
613.637;   92.965;  261.897;  138.186
613.911;  -31.209; -256.092; -345.835
614.186;  132.121; -249.107; -292.807
614.460;  581.808; -842.081; -758.854
614.735;  846.844;  -55.087;  -17.843
615.010;  203.231;   43.912;  -82.841
615.284;  341.809;  360.892;  246.195
615.559;  290.989; -792.092; -955.835
615.833;  363.810;  -76.099;  -87.822
616.108;  -42.496; -225.090; -390.837
616.382;  182.245;  274.913;  402.156
616.656;  130.405; -241.090; -232.837
616.931;  487.811; -785.099; -700.822
617.205; 1019.359; -973.104; -979.813
617.480; 1060.224;  -91.125;    6.225
617.754;  166.421; -396.125; -128.774
618.028;  -10.616; -369.129; -382.768
618.302;  131.708;   73.892;  -25.805
618.577; -112.533; -371.103; -518.815
618.851; -137.904; -399.109; -600.803
619.125;  -66.671; -335.134; -378.759
619.399;  -32.440; -244.104; -374.813
619.673;  -88.471; -330.115; -515.792
619.947;  -88.253; -333.114; -448.795
620.222;  -46.216; -198.110; -204.801
620.496;   20.170;  -47.121;  -96.782
620.770;    2.560; -187.122;  -93.781
621.044;  293.039;  323.895;  346.190
621.318;  788.874; -653.120; -614.783
621.592;  679.971; -430.121; -409.783
621.866;  272.570; -476.112; -572.799
622.140;   -7.679; -207.116; -356.791
622.413;   94.476;  138.889;  112.200
622.687; -121.915; -746.101; -492.817
622.961;   33.708; -130.108; -143.805
623.235; -155.423; -633.111; -661.800
623.509; -188.852; -816.105; -848.811
623.783;    7.418;  -12.107;   48.193
624.056;  -49.125; -254.120; -280.783
624.330;  101.362;   63.888;   -3.797
624.604;   34.217; -271.116; -355.790
624.877;  115.790;  180.890;   26.198
625.151;   17.341; -249.114; -238.794
625.425;  -31.738; -150.103; -283.814
625.698; -123.913; -367.119; -374.785
625.972; -188.907; -799.110; -765.802
626.245;  163.519;  685.884;  484.210
626.519; -105.720; -426.120; -340.784
626.792;  -65.177; -192.107; -380.807
627.066; -183.249; -485.122; -662.779
627.339; -184.212; -736.110; -663.802
627.613;   88.579;  351.880;  148.216
627.886;  107.095;  187.891; -612.803
628.160;  -41.626;  312.880; -161.783
628.433; -182.472; -695.125; -703.775
628.706; -144.820; -517.120; -615.784
628.979;   64.036;  296.876;  117.223
629.253; -187.907; -785.119; -833.786
629.526;  372.208; -334.126; -253.772
629.799;  301.045; -641.123; -479.778
630.072;   75.286; -497.128; -516.769
630.346; -196.480;-1115.116;-1080.790
630.619;  452.424; -467.107; -545.808
630.892;  779.077;  709.889;  593.200
631.165;  451.159;  790.896;  679.187
631.438; -191.033;-1092.112;-1055.798
631.711;  102.149;  453.877;  257.221
631.984; -127.286; -523.117; -624.789
632.257; -130.791; -636.117; -681.789
632.530;  -80.013; -412.119; -433.785
632.803;   48.938; -109.115;    7.207
633.076; -124.559; -360.123; -422.777
633.349;   24.691;  173.872;  121.231
633.622;  -73.514; -187.119; -240.785
633.895; -247.825; -903.120; -823.783
634.167; -143.789; -496.126; -525.773
634.440;  -16.973;  -19.116; -137.792
634.713;   20.192;  -22.119; -120.786
634.986;  169.978;  593.871;  453.233
635.258; -147.264; -507.115; -597.793
635.531;  211.504;  742.882; -343.788
635.804;  -47.188; -303.117; -318.789
636.077; -199.877; -830.116; -852.791
636.349;  -75.966; -586.115; -474.793
636.622;  710.307; 1695.874; 1392.228
636.894;  198.181; -474.120; -909.784
637.167;   74.400; -836.127; -789.771
637.439;   17.295; -278.128; -213.770
637.712;  -88.091; -312.126; -293.772
637.984; -158.477; -635.116; -707.791
638.257;  559.441;  515.877;  488.222
638.529;  507.529; -881.125; -924.776
638.802;  262.086; -508.128; -449.769
639.074; -269.141; -927.122; -952.781
639.346; -241.982; -942.135; -930.757
639.619;    2.337;  -79.142; -319.744
639.891;  -20.349;  -83.122; -168.779
640.163; -171.347; -689.122; -756.780
640.435;   47.256;  273.878;  103.220
640.708;   24.158;  -72.122; -132.780
640.980;  -59.440; -366.122; -362.781
641.252;  258.263;  -25.121;  -71.781
641.524; 2115.665;  580.879;  573.219
641.796; 1869.867;-1094.121; -907.782
642.068;  346.770; -191.121; -300.782
642.340;  -97.528; -486.121; -566.783
642.613;   81.574;  294.880;  323.217
642.885; -174.524; -787.120; -878.783
643.157; -122.121; -810.120; -658.784
643.428;  108.981;  170.880;  218.216
643.700;  -95.017; -498.120; -425.784
643.972;  -21.214;  -16.119; -133.785
644.244; -123.312; -474.119; -559.785
644.516;  -79.610; -250.119; -114.786
644.788;  147.492;  662.881;  548.214
645.060;    2.795;  -12.119; -124.786
645.332; -156.003; -525.118; -535.787
645.603;   95.599;  479.882;  342.213
645.875; -119.598; -334.118; -369.787
646.147;  375.904; 1487.882; 1242.212
646.418; -197.094; -931.117; -918.788
646.690;   77.308; -714.117; -715.789
646.962;   -0.889; -413.117; -451.789
647.233;   -3.987;   15.883;   11.211
647.505; -193.885; -595.117; -475.790
647.776;   94.118;  328.884;  229.210
648.048;  -30.680; -248.116; -418.790
648.320; -178.778; -752.116; -679.791
648.591; -271.676;-1055.116; -958.791
648.862; -169.673; -505.116; -577.792
649.134;   47.029;  115.885;  198.208
649.405; -120.369; -661.115; -618.792
649.677; -110.866; -475.115; -598.793
649.948;  -40.664; -181.115; -296.793
650.219;   18.138;  -37.115; -147.793
650.491; -131.559; -431.114; -520.794
650.762; -200.657; -705.114; -731.794
651.033; -142.655; -437.114; -424.795
651.304; -180.553; -743.114; -728.795
651.576; -156.650; -680.114; -645.795
651.847;  -42.548; -250.113; -140.796
652.118;  -24.846;  -32.113; -189.796
652.389; -177.243; -639.113; -722.796
652.660;   -7.441; -147.113;  -89.797
652.931; -263.139; -897.112; -871.797
653.202; -157.837; -382.112; -541.798
653.473; -129.134; -633.112; -533.798
653.744;  123.668; -595.112; -590.798
654.015;  122.570; -356.112; -303.799
654.286; -128.427; -642.111; -663.799
654.557;  -91.525; -586.111; -521.799
654.828; -282.923;-1114.111;-1088.800
655.099; -128.921; -404.111; -291.800
655.370; -125.218; -427.111; -543.801
655.641; -199.916; -656.110; -714.801
655.911; -167.614; -618.110; -638.801
656.182;  148.189;  437.890;  387.198
656.453;  211.791;  830.890;  746.198
656.724; -128.907; -466.110; -426.802
656.994; -160.105; -553.109; -568.803
657.265; -209.302; -862.109; -873.803
657.536; -108.900; -500.109; -377.804
657.806; -154.798; -561.109; -593.804
658.077; -251.595; -866.109; -950.804
658.347; -122.893; -523.108; -598.805
658.618; -199.391; -646.108; -694.805
658.888;   -6.588;  -41.108;  112.195
659.159; -127.286; -432.108; -548.806
659.429;   -6.184; -292.108; -349.806
659.700;  -41.882; -435.107; -390.807
659.970;  -37.279; -370.107; -359.807
660.241;  -55.177; -754.107; -921.807
660.511;  551.725; -147.107; -174.808
660.781;   22.228; -793.106; -748.808
661.052;  -67.570; -222.106; -381.808
661.322;   -1.768;   21.894;   -9.809
661.592;   78.534;  257.894;  148.191
661.862; -108.363; -369.106; -382.810
662.133; -136.261; -551.105; -502.810
662.403; -239.759; -770.105; -676.810
662.673;  -75.556; -256.105; -213.811
662.943; -168.154; -612.105; -551.811
663.213;   -6.152;  -85.105;  -81.811
663.483; -148.050; -593.104; -568.812
663.753;  -58.947; -194.104; -152.812
664.023;   14.855;   68.896;  -32.813
664.293;  -76.043; -319.104; -126.813
664.563; -174.440; -694.104; -648.813
664.833; -214.038; -743.103; -608.814
665.103; -247.636; -730.103; -793.814
665.373; -214.234; -766.103; -806.814
665.643; -197.531; -863.103; -918.815
665.913;  -47.629; -534.103; -714.815
666.182;   63.173; -685.102; -719.816
666.452;  260.376;  -22.102;  -89.816
666.722;  -99.722; -724.102; -784.816
666.992; -261.220; -948.102; -921.817
667.261; -172.918; -824.102; -808.817
667.531;  276.885;  134.899;   45.183
667.801;  551.187; -440.101; -412.818
668.070;  400.289;  714.899;  697.182
668.340; -194.708; -883.101; -840.819
668.609;  137.794;  588.900;  301.181
668.879; -146.904; -490.100; -558.819
669.149; -126.601; -539.100; -516.820
669.418; -171.499; -698.100; -726.820
669.688;  -79.397; -482.100; -666.820
669.957;   18.605; -423.099; -546.821
670.226;  -55.592; -268.099; -331.821
670.496; -150.090; -431.099; -635.822
670.765; -134.288; -418.099; -501.822
671.034; -252.785; -872.099; -828.822
671.304;   -2.583;   55.902; -111.823
671.573; -292.081;-1085.098; -957.823
671.842;   34.021; -380.098; -294.823
672.112;  -42.976; -692.098; -586.824
672.381;  -15.474; -239.098; -214.824
672.650; -221.872;-1005.097;-1021.825
672.919; -151.569; -631.097; -507.825
673.188; -191.667; -681.097; -878.825
673.457; -308.965;-1101.097;-1143.826
673.726; -159.763; -579.096; -646.826
673.995;  -92.360; -533.096; -479.826
674.265;  -20.358; -263.096; -333.827
674.534;    0.044; -183.096; -235.827
674.802;  -45.153; -618.096; -703.828
675.071; 1114.549; -886.095; -801.828
675.340; 3872.351; -464.095; -339.828
675.609; 1363.153;  103.905;   82.171
675.878;   -7.344; -949.095; -893.829
676.147;   93.958;  -26.095;   -8.829
676.416;  133.760; -210.094; -294.830
676.685;  938.763; 1000.906; -622.830
676.953;   55.665; -603.094; -452.831
677.222;  -54.633; -193.094; -273.831
677.491;  -34.530;  -24.094; -127.831
677.759;    8.672;   11.907;  172.168
678.028;  -21.726; -279.093; -222.832
678.297;    2.676;   71.907;  197.168
678.565; -248.421; -898.093; -944.833
678.834;  -81.719; -311.093; -268.833
679.102; -142.917; -411.092; -391.834
679.371; -273.214; -898.092; -727.834
679.639; -231.312; -797.092; -786.834
679.908; -217.010; -794.092; -724.835
680.176; -265.708; -895.091; -941.835
680.445;  -98.305; -346.091; -352.835
680.713;   -0.903;  -58.091;  -23.836
680.982; -163.201; -523.091; -525.836
681.250; -192.198; -578.091; -507.837
681.518; -163.196; -534.090; -751.837
681.787;  -15.794; -204.090; -167.837
682.055;  -94.092; -490.090; -422.838
682.323; -268.889; -993.090; -992.838
682.591;   51.813; -216.090; -538.838
682.859;  110.815;    9.911;  -35.839
683.128;   71.718;  232.911;  497.161
683.396; -296.780;-1102.089;-1122.840
683.664;  -38.078; -241.089;   21.160
683.932;   45.024;  144.911;  -76.840
684.200; -132.273; -576.088; -320.841
684.468;  -54.371;  -73.088; -124.841
684.736;  -61.669; -214.088; -175.841
685.004; -249.266;-1024.088; -982.842
685.272; -129.264; -880.088; -774.842
685.540; -136.062; -499.087; -557.843
685.808; -142.359; -651.087; -682.843
686.076; -198.957; -894.087; -969.843
686.343; -128.655; -601.087; -815.844
686.611;   50.847; -195.087; -224.844
686.879;  531.250; -530.086; -553.844
687.147; 3492.052; -483.086; -480.845
687.414; 1003.654;  -12.086; -169.845
687.682;  -71.843; -658.086; -757.846
687.950;  361.659;  259.915;  263.154
688.217;  -68.739; -792.085; -760.846
688.485;  -53.637; -632.085; -636.847
688.753;  566.466;  -11.085; -102.847
689.020;   60.968; -820.085; -851.847
689.288; -192.230; -853.084; -787.848
689.555;  -14.327; -195.084; -148.848
689.823; -113.125; -241.084; -345.849
690.090; -136.923; -546.084; -651.849
690.358; -258.921; -877.084; -897.849
690.625;   48.482;  120.917;   45.150
690.892; -113.616; -403.083; -369.850
691.160;    2.686;   72.917;  -35.850
691.427;   47.189;  141.917;  130.149
691.694; -278.309; -855.083; -929.851
691.962; -273.707;-1177.082;-1060.852
692.229;   27.395;  127.918;   56.148
692.496;  131.398;  130.918;  -49.852
692.763;   15.600; -164.082; -201.853
693.031; -157.698; -739.082; -716.853
693.298; -102.395; -509.081; -368.853
693.565;  338.707; -155.081; -163.854
693.832; 1237.809;   -5.081;   -9.854
694.099;   70.011; -643.081; -642.855
694.366; -155.986; -882.081; -896.855
694.633; -122.784; -920.080; -633.855
694.900; 1467.918; 4367.920; -114.856
695.167;  471.621; -214.080; -380.856
695.434;   40.023; -646.080; -623.856
695.701;  291.525;  121.921;  -61.857
695.968;  473.728; -365.079; -361.857
696.234; 1383.830; -415.079; -646.858
696.501;13046.432; -776.079; -614.858
696.768; 6413.734; -554.079; -617.858
697.035;  377.637; -632.078; -667.859
697.302;    9.139; -448.078; -552.859
697.568;  -13.259; -458.078; -497.859
697.835; -108.156; -683.078; -624.860
698.102;  -47.754; -498.078; -407.860
698.368;  180.148;  384.923;  396.139
698.635;  -33.050;  -47.077; -424.861
698.901;  -41.647; -240.077; -348.861
699.168;    8.855; -534.077; -456.862
699.435;   90.757;  -72.077;  -13.862
699.701; -237.440; -868.076; -764.862
699.968;  -93.538;  144.924; -441.863
700.234; -186.436; -783.076; -822.863
700.500; -104.334; -448.076; -539.864
700.767;   17.769;   -1.075;   26.136
701.033; -224.529;-1015.075; -963.864
701.299; -107.127; -450.075; -483.865
701.566;  304.876;  950.925;  763.135
701.832;   67.978;  -31.075;  -76.865
702.098; -216.520;-1054.074;-1034.866
702.365; -202.618;-1098.074;-1030.866
702.631; -141.915;-1038.074;-1063.867
702.897; 1528.287; -765.074; -676.867
703.163; 2426.389;  348.926;  254.133
703.429;  202.692; -256.073; -273.868
703.695; -124.706; -796.073; -792.868
703.961;   48.596; -214.073; -210.868
704.227; -127.901; -630.073; -725.869
704.493;  258.401;  613.927;  510.131
704.759;  -68.397; -565.072; -540.870
705.025;   49.005; -203.072; -194.870
705.291;  -45.292; -666.072; -562.870
705.557;  372.910;  719.928;   34.129
705.823;    3.112; -742.072; -694.871
706.089;  206.715; -307.071; -326.871
706.355;  559.017; -315.071; -244.872
706.620; 7642.819; -776.071; -729.872
706.886; 9573.621; -309.071; -362.873
707.152;  813.524; -818.070; -973.873
707.418;  -88.774;-1153.070;-1186.873
707.683;  -31.972; -550.070; -530.874
707.949;  -83.669; -547.070; -578.874
708.215;    8.433; -129.070; -207.874
708.480;  -31.965; -520.069; -420.875
708.746;  141.937;   68.931;   28.125
709.011; -123.260; -578.069; -612.876
709.277; -123.458; -538.069; -543.876
709.542;  -51.856; -428.069; -387.876
709.808;   26.547;  -59.068;   89.123
710.073; -127.651; -577.068; -695.877
710.339;   -2.749; -242.068; -228.877
710.604;   16.153; -780.068; -845.878
710.869;  339.056; -277.068; -366.878
711.135; -110.142; -715.067; -628.879
711.400; -130.340; -507.067; -608.879
711.665; -113.737; -404.067; -479.879
711.931; -154.435; -661.067; -677.880
712.196; -191.333; -876.067; -954.880
712.461;   86.669; -402.066; -490.880
712.726;   62.672; -727.066; -771.881
712.991; -149.526; -647.066; -664.881
713.256;  -66.624; -350.066; -332.882
713.521; -128.021; -417.065; -381.882
713.787;  -94.419; -454.065; -472.882
714.052;  -43.217; -214.065; -400.883
714.317; -211.414;-1045.065; -981.883
714.581; 1330.788; -374.065; -268.883
714.846; 1587.890; -822.064; -888.884
715.111;  223.292;  261.936;  257.116
715.376;  -39.205;  -86.064; -223.885
715.641;  -11.403; -365.064; -367.885
715.906;  299.399;   15.936; -551.885
716.171;  210.502;  221.937;  209.114
716.436;   67.004;  -78.063; -104.886
716.700; -191.894; -818.063; -692.886
716.965; -186.392; -794.063; -807.887
717.230;  -76.089; -339.063; -392.887
717.494;   -0.587;  -40.062; -134.888
717.759; -156.085; -784.062; -640.888
718.024;   24.018;  269.938;  250.112
718.288;  177.020;  685.938;  395.111
718.553; -242.878; -803.062; -977.889
718.817; -244.776; -883.061; -899.889
719.082;  -21.473; -115.061; -125.890
719.346; -245.471;-1000.061; -947.890
719.611;  -44.069; -300.061; -255.891
719.875; -179.766; -568.060; -537.891
720.140; -114.564; -453.060; -603.891
720.404;   26.638; -136.060; -249.892
720.668;  877.340; -475.060; -411.892
720.933;  370.943;  146.940;  137.108
721.197; -188.155; -667.059; -600.893
721.461; -249.053; -851.059; -826.893
721.725;   47.550;  -21.059; -250.894
721.990;  -69.448; -284.059; -204.894
722.254;  -37.546;  -26.059; -108.894
722.518; -148.443; -286.058; -442.895
722.782; -152.041; -743.058; -594.895
723.046;  243.161;  614.942;  570.105
723.310;  104.963;  374.942;  210.104
723.574; -154.234; -654.058; -614.896
723.838; -168.032; -576.057; -642.897
724.102;  -25.330; -226.057; -239.897
724.366; -248.527;-1032.057; -978.897
724.630; -171.925; -749.057; -571.898
724.894; -148.623; -722.057; -514.898
725.158;  -13.721;   38.944; -295.898
725.422;  -90.618; -394.056; -327.899
725.685; -110.416; -441.056; -349.899
725.949; -137.014; -566.056; -519.900
726.213; -163.011; -732.056; -811.900
726.477;  109.791;-1020.055; -933.900
726.740;  146.993; -274.055; -104.901
727.004;  437.095; -384.055; -510.901
727.268; 3968.098; -442.055; -400.901
727.531;  982.700; -961.055; -775.902
727.795;  -91.798; -713.054; -673.902
728.059; -105.995; -552.054; -557.903
728.322; -151.893; -841.054; -669.903
728.586;  -36.091; -692.054; -701.903
728.849; -146.789; -695.053; -756.904
729.112; -188.886; -812.053; -912.904
729.376; -217.084; -959.053; -905.904
729.639; -124.082; -536.053; -536.905
729.903; -219.179; -733.053; -699.905
730.166;  -63.177; -437.052; -399.906
730.429;  -31.575; -317.052; -468.906
730.693; -118.772; -355.052; -894.906
730.956;  367.330;  810.948;  651.093
731.219;  784.232; -310.052; -103.907
731.482;   59.534;-1003.051; -894.907
731.745;    3.837; -794.051; -935.908
732.009;   63.739;  -30.051;   50.092
732.272; -186.059; -904.051; -771.909
732.535;  -62.656; -300.051; -310.909
732.798; -285.954;-1083.050;-1166.909
733.061;  -88.552; -430.050; -456.910
733.324;   29.650;   31.950; -180.910
733.587;  178.453;  290.950;  365.090
733.850; -116.745; -973.049;-1050.911
734.113;   63.557;   33.951;   32.089
734.376;  -21.940; -328.049; -447.912
734.639;  398.162; 1188.951; 1011.088
734.901;   82.964; -180.049; -402.912
735.164;  493.766; -883.048; -837.913
735.427; 1390.869; -166.048; -355.913
735.690;  150.671; -205.048; -234.913
735.952; -132.327; -923.048; -925.914
736.215; -130.124;-1113.048;-1009.914
736.478;  -36.422; -771.047; -774.915
736.740;  273.680;   33.953;  129.085
737.003;  787.782; -658.047; -672.915
737.266; 4480.085;  -94.047;   46.084
737.528;  444.287; -682.047; -660.916
737.791;  354.689; -316.046; -327.916
738.053; 1226.192;  465.954;  649.083
738.316;13872.694; -162.046; -136.917
738.578; 8871.296; -770.046; -736.918
738.841;  539.698; -382.046; -446.918
739.103;  129.901; -875.045; -777.918
739.365;  596.403;   79.955;  -69.919
739.628;  -67.595; -884.045; -805.919
739.890;  -60.092; -758.045; -710.919
740.152; -101.390; -692.044; -754.920
740.414;   -9.488; -408.044; -359.920
740.677;  -79.185; -785.044; -634.921
740.939;  -84.683; -587.044; -487.921
741.201;  248.919; -432.044; -572.921
741.463;   -0.279; -689.043; -745.922
741.725;    7.124;  -21.043; -199.922
741.987;   81.426;  220.957;  116.078
742.249;  -50.272; -751.043; -859.923
742.511;  179.431; -703.043; -794.923
742.773;   -2.467; -546.042; -546.924
743.035;  227.735;  796.958;  533.076
743.297; -143.363; -963.042;-1013.924
743.559;  839.940; -278.042; -262.925
743.821;  -10.858; -735.042; -744.925
744.083;   28.444;  -44.041; -149.925
744.345; -196.953; -869.041; -892.926
744.607;   98.549;   75.959;  122.074
744.868; -108.549; -490.041; -554.927
745.130; -207.247; -994.041;-1008.927
745.392;   63.956;   -1.040;  -44.927
745.653;   -7.542; -411.040; -378.928
745.915;  305.860;  896.960;  631.072
746.177;   96.763;   35.960;  -43.928
746.438;   -7.235; -428.040; -543.929
746.700; -120.433; -947.039; -988.929
746.961;  -45.731; -659.039; -740.930
747.223;  162.172; -190.039;  -74.930
747.484;   91.874; -391.039; -471.930
747.746;  193.576;  -23.038; -106.931
748.007;  109.879; -647.038; -689.931
748.269;  343.781; -468.038; -440.931
748.530;  470.983; -852.038; -638.932
748.791;  293.686; -354.038; -420.932
749.053;  612.688;  286.963;  163.067
749.314;  571.490; -236.037; -169.933
749.575;  531.292; -945.037; -905.933
749.836; 1049.895; -217.037;   86.066
750.098; 3380.797;  -60.037;  -21.934
750.359;42318.499;  414.964;  555.066
750.620;10090.102; -121.036; -220.935
750.881; 1216.204; -585.036; -513.935
751.142; 1687.106; -950.036; -938.936
751.403;21176.108; -789.036; -705.936
751.664; 8344.611;-1034.035; -999.936
751.925;  652.713; -175.035; -262.937
752.186;  355.815; -298.035; -278.937
752.447;  145.618; -590.035; -445.937
752.708;    5.620; -532.035; -648.938
752.969;    7.722; -566.034; -576.938
753.230;  -43.976; -777.034; -672.939
753.491;  -32.973; -650.034; -631.939
753.751;  159.029;  109.966;   19.061
754.012;  187.431;  258.967;  181.060
754.273;   78.734; -174.033;  -71.940
754.534;   11.136; -487.033; -580.940
754.794; -175.362; -926.033; -911.941
755.055;  292.240; 1051.967;  881.059
755.316;  -53.857; -700.032; -566.942
755.576;  -37.055; -606.032; -576.942
755.837;  -69.553; -527.032; -695.942
756.097;  -65.050; -530.032; -564.943
756.358; -148.248; -725.032; -770.943
756.618; -105.246; -705.031; -641.943
756.879;   -4.043; -254.031; -349.944
757.139; -223.241;-1098.031;-1116.944
757.400; -112.439; -538.031; -553.945
757.660;  -46.837; -365.031; -401.945
757.920;   21.866; -266.030; -228.945
758.181;  -32.632; -468.030; -351.946
758.441; -168.330; -870.030; -809.946
758.701;  -36.927; -308.030; -215.946
758.961;  -24.825; -220.030; -278.947
759.222;  -46.023; -574.029; -502.947
759.482; -140.321; -683.029; -723.948
759.742; -164.218; -706.029; -547.948
760.002;   22.084;  -83.029; -143.948
760.262;   75.686;   50.972;  182.051
760.522;  -65.011; -498.028; -574.949
760.782; -121.109; -738.028; -612.949
761.042;  -46.207; -618.028; -573.950
761.302;  137.695;   55.972;  -18.950
761.562;  134.198; -164.027; -154.951
761.822;   88.400; -710.027; -551.951
762.082; -109.998;-1104.027;-1093.951
762.342;  135.305; -328.027; -403.952
762.601;  124.007; -567.027; -506.952
762.861;  532.209; -281.026; -207.952
763.121;  622.211; -406.026; -411.953
763.381;11690.414; -499.026; -485.953
763.640;11154.516; -139.026; -307.954
763.900;  527.418; -242.026; -203.954
764.160;  156.521; -458.025; -491.954
764.419;  -27.777; -726.025; -782.955
764.679; -122.975; -795.025; -726.955
764.939;    3.127; -124.025; -210.955
765.198; -122.970; -608.025; -563.956
765.458; -121.568; -710.024; -612.956
765.717; -132.666; -454.024; -590.957
765.976;  -78.963; -428.024; -411.957
766.236;  -97.561; -475.024; -610.957
766.495;   89.241;  260.977;   73.042
766.755; -178.056;-1090.023; -987.958
767.014;  -46.254; -594.023; -665.958
767.273;  -69.052; -373.023; -397.959
767.533;  -53.750; -228.023; -307.959
767.792;   14.153; -151.022; -188.960
768.051;  -45.645; -228.022; -276.960
768.310; -128.743; -546.022; -650.960
768.569;   36.660; -161.022;    4.039
768.828;  -43.438; -285.022; -363.961
769.088; -242.936;-1050.021; -942.961
769.347; -134.434; -755.021; -599.962
769.606; -174.131; -876.021; -857.962
769.865; -232.429;-1016.021;-1033.963
770.124;   -4.827; -411.021; -336.963
770.383; -136.924; -778.020; -910.963
770.641;  -15.522; -398.020; -400.964
770.900; -130.320; -953.020; -846.964
771.159; -128.918; -851.020; -951.964
771.418;  -44.915; -917.020; -779.965
771.677;  182.687; -224.019; -293.965
771.936;  153.289; -794.019; -865.966
772.194; 3490.392; -465.019; -437.966
772.453;14135.194; -213.019; -391.966
772.712; 1098.396;  416.982;  329.033
772.970;  198.398;   32.982;   63.033
773.229;  180.801;  -22.018;  102.033
773.488; -151.897; -814.018; -770.968
773.746;  136.505;  296.982;  335.032
774.005;   51.508;  190.983;  -22.969
774.263;   69.810;  243.983;  177.031
774.522; -124.488; -422.017; -548.969
774.780;  -96.085; -484.017; -417.970
775.039; -135.983; -551.017; -531.970
775.297;   20.419; -135.016; -351.970
775.555; -156.779; -489.016; -612.971
775.814; -222.676; -618.016; -570.971
776.072; -185.874; -749.016; -740.971
776.330; -132.572; -630.016; -520.972
776.589; -190.369; -703.015; -721.972
776.847; -204.067; -645.015; -624.973
777.105; -249.265;-1016.015;-1032.973
777.363; -113.263; -459.015; -454.973
777.621; -210.260; -660.015; -717.974
777.879;   12.042;  -42.014;   32.026
778.138; -154.356; -554.014; -717.974
778.396; -167.953; -585.014; -526.975
778.654; -274.651;-1015.014; -970.975
778.912;  -93.849; -269.014; -371.976
779.170; -222.347; -880.013; -803.976
779.427; -261.944; -922.013; -897.976
779.685; -255.942; -880.013; -832.977
779.943; -134.540; -654.013; -593.977
780.201; -269.637; -964.012; -883.978
780.459; -180.035; -651.012; -610.978
780.717; -114.033; -440.012; -390.978
780.974; -165.131; -449.012; -490.979
781.232; -111.528; -358.012; -338.979
781.490; -138.726; -551.011; -472.979
781.747; -128.524; -555.011; -476.980
782.005;   83.579;  462.989;  254.020
782.263; -276.919; -542.011;-1004.981
782.520; -105.417; -326.011; -501.981
782.778; -295.114;-1013.010;-1051.981
783.035; -295.112; -962.010; -938.982
783.293;  -69.410; -248.010; -206.982
783.550;  -64.508; -134.010; -198.982
783.808; -210.105; -764.010; -776.983
784.065; -247.503; -745.009; -874.983
784.322;  -17.101;   25.991;  -86.984
784.580; -221.498; -915.009; -771.984
784.837; -155.396; -392.009; -466.984
785.094; -234.294; -783.009; -762.985
785.352;  -98.092; -304.008; -404.985
785.609; -231.589; -934.008; -839.985
785.866; -110.287; -345.008; -401.986
786.123; -165.685; -639.008; -583.986
786.380; -173.282; -665.008; -604.987
786.637;  -71.280; -225.007; -380.987
786.895;  -83.678; -456.007; -543.987
787.152;  -36.876; -135.007; -267.988
787.409;  -34.373; -123.007; -225.988
787.666; -148.271; -299.006; -378.988
787.923; -178.969; -616.006; -695.989
788.179; -156.666; -551.006; -584.989
788.436; -181.264; -585.006; -585.990
788.693;  -53.562;  -92.006;  -87.990
788.950;  178.440; -125.005; -112.990
789.207;  171.843; -381.005; -372.991
789.464;  -44.755; -161.005; -301.991
789.720;   40.147;  150.995;  110.009
789.977; -281.950;-1003.005; -671.992
790.234;  -27.548;   44.996;  -66.992
790.490; -265.846; -884.004;-1031.993
790.747;   20.456;  -85.004;   22.007
791.004;  -61.141; -426.004; -348.993
791.260; -104.939; -430.004; -560.994
791.517; -172.737; -843.003; -788.994
791.773;  -83.734; -379.003; -342.994
792.030; -186.432; -596.003; -660.995
792.286; -168.130; -686.003; -636.995
792.543;   -8.927;  -74.002; -159.995
792.799;  -46.325; -584.002; -382.996
793.055; -301.823;-1179.002;-1210.996
793.312; -157.921; -827.002; -816.997
793.568; -123.018; -746.002; -599.997
793.824;   60.784; -226.001; -284.997
794.081;   32.086; -447.001; -508.998
794.337;   95.289; -664.001; -561.998
794.593; 2285.391; -319.001; -271.999
794.849; 8926.793; -746.001; -772.999
795.105;  420.295; -270.000; -261.999
795.361;   40.598; -490.000; -457.000
795.617; -142.500; -875.000; -945.000
795.873;  -63.900; -360.000; -407.000
796.129;  -41.500; -368.000; -306.000
796.385;   13.900; -124.000; -156.000
796.641;  185.700;  412.000;  550.000
796.897; -156.600; -666.000; -635.000
797.153;  188.100;  453.000;  357.000
797.409; -176.700; -785.000; -868.000
797.665; -150.600; -625.000; -732.000
797.921; -152.300; -775.000; -762.000
798.176; -115.100; -744.000; -747.000
798.432;  -91.200; -824.000; -596.000
798.688; -153.800;-1174.000;-1078.000
798.943;  116.100; -165.000; -147.000
799.199;  -67.600;-1005.000; -959.000
799.455;  389.700;  369.000;  316.000
799.710;  143.100; -813.000; -380.000
799.966;  416.400; -162.000; -160.000
800.221;  629.100; -638.000; -721.000
800.477;13952.000; -743.000; -710.000
800.732;10155.500; -773.000; -800.000
800.988;  909.300;  205.000;  -19.000
801.243; 3269.200; -454.000; -344.000
801.498;11418.900; -814.000; -739.000
801.754;  702.800; -289.000; -163.000
802.009;  165.300; -257.000; -335.000
802.264; -124.300; -967.000;-1033.000
802.520;   63.600;  222.000;   -3.000
802.775;  -68.700; -524.000; -359.000
803.030;  157.700;  395.000;  356.000
803.285; -180.500; -840.000; -903.000
803.540; -130.100; -686.000; -699.000
803.795;  -74.900; -648.000; -583.000
804.051;  -36.100; -279.000; -346.000
804.306;   75.600;  168.000;  128.000
804.561;  257.500;  451.000;  362.000
804.816;  287.500;  714.000;  861.000
805.071;   35.200; -185.000; -280.000
805.325;  245.100; -257.000; -427.000
805.580; -204.500; -841.000; -877.000
805.835;    2.900; -204.000; -297.000
806.090; -124.800; -760.000; -676.000
806.345;   -3.600; -344.000; -264.000
806.600; -106.300; -549.000; -632.000
806.854;  -40.100; -408.000; -538.000
807.109;   -3.300; -493.000; -577.000
807.364;   26.400; -407.000; -328.000
807.618;   15.200; -415.000; -381.000
807.873;   53.900; -470.000; -494.000
808.128;  195.500; -257.000; -518.000
808.382;  136.700; -224.000; -332.000
808.637;  150.900; -440.000; -511.000
808.891;  236.400; -257.000; -180.000
809.146;  100.700; -902.000; -794.000
809.400;  303.300; -848.000; -923.000
809.654;  419.300; -779.000; -551.000
809.909;  670.000; -841.000; -927.000
810.163; 9806.900; -813.000; -651.000
810.418;20420.700; -940.000; -861.000
810.672; 1352.900; -685.000; -690.000
810.926; 1040.900; -993.000; -973.000
811.180; 2246.300; -439.000; -372.000
811.434;48802.400;  240.000;  135.000
811.689;16092.000; -231.000; -365.000
811.943;  843.200; -936.000; -953.000
812.197;  455.500; -893.000; -671.000
812.451;  211.800; -379.000; -514.000
812.705;  -42.200; -809.000; -619.000
812.959;   32.000; -263.000; -388.000
813.213;    8.400; -283.000; -209.000
813.467;  182.700;  470.000;  253.000
813.721; -180.400; -764.000; -792.000
813.975; -197.600; -826.000; -877.000
814.229;  123.700;  430.000;  353.000
814.482; -111.400; -517.000; -566.000
814.736; -187.300; -766.000; -744.000
814.990; -187.100; -779.000; -872.000
815.244;  -45.000; -228.000; -285.000
815.497; -149.600; -636.000; -601.000
815.751;  -10.100; -141.000;   82.000
816.005; -136.100; -470.000; -586.000
816.258; -110.800; -510.000; -363.000
816.512; -161.300; -693.000; -610.000
816.766;   53.900;  121.000;  157.000
817.019;  116.000;  148.000;  149.000
817.273; -215.800;-1000.000; -802.000
817.526;   -1.600; -206.000; -173.000
817.779; -125.000;-1049.000; -960.000
818.033; -145.100; -693.000; -807.000
818.286; -208.500; -725.000; -792.000
818.540; -139.600; -403.000; -403.000
818.793; -101.300; -402.000; -489.000
819.046; -170.400; -582.000; -520.000
819.299;   -7.700; -157.000; -166.000
819.553; -199.700; -552.000; -592.000
819.806; -278.500;-1016.000; -838.000
820.059;  -59.300; -334.000; -354.000
820.312;   78.000;  152.000;  185.000
820.565;   -3.500;  110.000;  -27.000
820.818;  -20.100;  -59.000; -173.000
821.071; -272.600;-1041.000; -957.000
821.324; -171.900; -536.000; -540.000
821.577; -163.600; -457.000; -483.000
821.830;  -45.900; -270.000; -172.000
822.083; -226.100; -733.000; -288.000
822.336;  -45.100; -261.000; -167.000
822.589; -230.900; -805.000; -688.000
822.842; -279.400; -875.000; -770.000
823.094; -313.200;-1076.000;-1114.000
823.347; -216.100; -925.000; -729.000
823.600;   73.600;  402.000;  187.000
823.853;  -51.000; -311.000; -267.000
824.105; -113.300; -331.000; -575.000
824.358; -186.300; -617.000; -716.000
824.611;   68.800;  234.000;   40.000
824.863;  -96.200; -612.000; -591.000
825.116;   93.900;  -33.000;   27.000
825.368;   86.600; -366.000; -372.000
825.621;  168.300; -186.000; -240.000
825.873;   56.000; -704.000; -737.000
826.126;  815.300; -669.000; -641.000
826.378;15053.900; -389.000; -505.000
826.630; 2807.700; -890.000; -898.000
826.883;   20.700; -754.000; -693.000
827.135;   52.800; -279.000; -270.000
827.387; -200.400; -893.000; -839.000
827.639;    3.300;  -86.000;   32.000
827.892; -223.400; -742.000; -582.000
828.144; -236.700; -848.000; -804.000
828.396;    7.200;  104.000;  -80.000
828.648; -143.000; -440.000; -333.000
828.900; -237.700; -702.000; -795.000
829.152; -171.700; -684.000; -683.000
829.404;  -65.300; -215.000; -267.000
829.656;   59.900;  321.000;  214.000
829.908;   35.000;  393.000;  229.000
830.160; -289.300;-1064.000;-1047.000
830.412; -159.400; -481.000; -430.000
830.664; -182.700; -557.000; -665.000
830.916; -103.100; -268.000; -206.000
831.167; -277.600;-1073.000; -951.000
831.419; -145.200; -623.000; -566.000
831.671; -215.600; -764.000; -809.000
831.923; -104.900; -311.000; -447.000
832.174;  -86.400; -273.000; -331.000
832.426; -161.900; -493.000; -582.000
832.678; -333.200;-1043.000;-1091.000
832.929; -263.000; -947.000; -935.000
833.181; -130.100; -575.000; -677.000
833.432;  -55.900;  -59.000; -186.000
833.684;   39.600;  112.000;  -27.000
833.935; -186.800; -610.000; -566.000
834.187; -192.500; -829.000; -823.000
834.438;  -45.300;  -58.000;  -25.000
834.689;  -40.200; -255.000; -123.000
834.941;  -74.800; -343.000; -244.000
835.192; -147.300; -590.000; -533.000
835.443; -110.800; -419.000; -506.000
835.695;   19.700;  138.000;  -16.000
835.946; -145.000; -608.000; -378.000
836.197; -183.400; -599.000; -622.000
836.448; -136.700; -528.000; -395.000
836.699;  -59.900; -253.000; -341.000
836.950;   37.200;   72.000;    7.000
837.201; -304.200;-1003.000; -987.000
837.452;  -90.200; -356.000; -170.000
837.703; -170.300; -791.000; -737.000
837.954;  -53.000; -205.000; -365.000
838.205; -138.200;-1029.000;-1008.000
838.456;  187.500; -196.000; -282.000
838.707;   18.300; -423.000; -519.000
838.958;  -11.000; -634.000; -647.000
839.209;  370.700;   18.000;   40.000
839.460;  135.000; -439.000; -201.000
839.710;  228.500; -135.000; -297.000
839.961;  655.800;  730.000;  612.000
840.212;  408.900; -382.000; -497.000
840.462; 1593.400; -328.000; -277.000
840.713;24538.700; -571.000; -536.000
840.964; 7872.100;  -62.000; -143.000
841.214;  598.200; -384.000; -624.000
841.465;  797.000; -214.000; -141.000
841.715;  626.500; -417.000; -380.000
841.966;  866.900; -746.000; -685.000
842.216;14078.000; -330.000; -431.000
842.466;43024.700; -169.000; -313.000
842.717; 1827.600; -964.000; -952.000
842.967;  422.800; -635.000; -641.000
843.217;  412.800;   20.000;   28.000
843.468;  138.900; -104.000; -132.000
843.718;  -70.900; -718.000; -726.000
843.968; -195.500; -837.000; -765.000
844.218;    9.600; -315.000; -262.000
844.469;  -98.100; -577.000; -561.000
844.719; -166.500; -537.000; -682.000
844.969; -144.000; -550.000; -580.000
845.219; -201.200; -814.000; -862.000
845.469; -115.400; -392.000; -342.000
845.719; -253.200; -792.000; -884.000
845.969;   16.200;  119.000;  174.000
846.219; -181.000; -738.000; -720.000
846.469;  104.100;  464.000;  432.000
846.718;  -44.100; -115.000;   31.000
846.968; -226.400; -827.000; -827.000
847.218;  -48.500; -224.000; -371.000
847.468; -154.400; -586.000; -555.000
847.718; -238.900; -827.000; -798.000
847.967; -234.500; -826.000; -915.000
848.217;  -98.600; -449.000; -569.000
848.467;  -83.500; -405.000; -376.000
848.716; -196.800; -708.000; -725.000
848.966;   -6.800; -372.000; -358.000
849.215;  -78.000; -428.000; -419.000
849.465; -183.800; -785.000; -615.000
849.714; -264.600;-1132.000;-1150.000
849.964; -111.900; -551.000; -613.000
850.213;  -29.100; -393.000; -355.000
850.463;  175.300;  137.000;  340.000
850.712;  -22.400; -542.000; -567.000
850.961;  -32.000; -739.000; -678.000
851.211;   94.300; -513.000; -504.000
851.460;  154.300; -635.000; -650.000
851.709;  753.100;  -25.000;   18.000
851.958;14490.200; -912.000; -750.000
852.208;14116.400; -859.000; -879.000
852.457;  549.700; -181.000;  -13.000
852.706;   33.500; -791.000; -823.000
852.955;   10.400; -507.000; -528.000
853.204;  -95.600; -521.000; -461.000
853.453; -127.900; -418.000; -458.000
853.702; -234.900; -660.000; -750.000
853.951; -158.100; -532.000; -520.000
854.200; -175.600; -613.000; -562.000
854.449; -203.300; -695.000; -661.000
854.698; -121.600; -340.000; -279.000
854.946;  -61.500; -181.000; -284.000
855.195; -256.900; -843.000; -868.000
855.444; -128.000; -395.000; -420.000
855.693; -210.200; -345.000; -432.000
855.941; -144.000; -387.000; -516.000
856.190;  -69.000; -256.000; -382.000
856.439; -206.000; -652.000; -703.000
856.687;  -36.700;  -99.000;  -72.000
856.936; -170.400; -621.000; -323.000
857.184; -312.200;-1067.000;-1020.000
857.433; -139.000; -423.000; -512.000
857.681; -259.800; -989.000; -953.000
857.930;  -84.100; -282.000; -433.000
858.178; -293.600; -856.000; -929.000
858.427; -236.700; -802.000; -781.000
858.675; -190.600; -377.000; -544.000
858.923; -154.900; -527.000; -819.000
859.172; -300.000;-1094.000;-1070.000
859.420; -133.800; -339.000; -239.000
859.668; -199.000; -624.000; -628.000
859.916;   23.100;  109.000;  115.000
860.164; -176.600; -699.000; -603.000
860.413;  301.800; -878.000; -696.000
860.661;  105.900; -709.000; -577.000
860.909; -120.700; -339.000; -325.000
861.157; -122.800; -277.000; -444.000
861.405; -162.600; -534.000; -670.000
861.653;   82.100;  310.000;  310.000
861.901;  172.500; -543.000; -613.000
862.149;  -96.000; -801.000; -824.000
862.396;  -79.300; -297.000; -187.000
862.644; -109.900; -368.000; -347.000
862.892;   -1.600;   98.000;  138.000
863.140; -148.100; -549.000; -530.000
863.388; -232.200; -815.000; -759.000
863.635; -179.900; -642.000; -601.000
863.883;   48.800;  231.000;  190.000
864.131; -108.200; -288.000; -357.000
864.378; -215.400; -675.000; -540.000
864.626; -135.200; -347.000; -415.000
864.873; -168.300; -556.000; -505.000
865.121; -230.400; -714.000; -799.000
865.368;    8.600; -173.000;   75.000
865.616;  -53.100;  -33.000;  -40.000
865.863;  -93.100; -462.000; -506.000
866.111; -178.700; -795.000; -824.000
866.358;   58.800; -426.000; -420.000
866.605; 3615.300;  -64.000; -804.000
866.853; 2930.000; -621.000; -537.000
867.100;  -96.100; -728.000; -775.000
867.347; -142.400; -672.000; -611.000
867.594; -138.500; -740.000; -714.000
867.841;  107.900;   97.000;   17.000
868.089; -223.900; -746.000; -698.000
868.336; -138.700; -477.000; -420.000
868.583; -211.700; -637.000; -741.000
868.830;  -64.600; -131.000; -170.000
869.077; -272.000; -859.000; -787.000
869.324; -164.400; -502.000; -458.000
869.571; -153.100; -398.000; -430.000
869.818; -177.200; -485.000; -439.000
870.065; -160.300; -439.000; -513.000
870.311; -149.800; -456.000; -542.000
870.558; -152.100; -332.000; -311.000
870.805; -120.300; -320.000; -384.000
871.052; -133.100; -494.000; -369.000
871.298;  -55.200; -204.000; -131.000
871.545;  -81.200; -151.000; -185.000
871.792; -119.200; -173.000; -222.000
872.038;  -81.500;   43.000; -126.000
872.285; -186.800; -496.000; -387.000
872.532; -115.400; -357.000; -387.000
872.778;  100.400;  556.000;  403.000
873.025; -113.800; -384.000; -359.000
873.271;  110.300;  501.000;  578.000
873.517;   -3.600; -133.000; -209.000
873.764;  -23.700; -193.000;  -80.000
874.010;  -77.700; -143.000; -230.000
874.257;   -5.000;  123.000;   90.000
874.503; -177.600; -579.000; -479.000
874.749;  -60.000;   31.000;  275.000
874.995;  -72.000;  -80.000;  -20.000
875.242; -189.900; -540.000; -478.000
875.488; -153.400; -414.000; -439.000
875.734;  -79.000; -106.000; -234.000
875.980;  140.400; -872.000;-1032.000
876.226;  339.100; -157.000; -255.000
876.472;   24.600;  343.000;  237.000
876.718;   -7.000;  184.000;  158.000
876.964;   -4.000;   56.000;   55.000
877.210; -218.800; -547.000; -677.000
877.456; -220.600; -630.000; -557.000
877.702; -288.100; -821.000; -832.000
877.948; -185.700; -377.000; -497.000
878.193;   96.600;  361.000;  255.000
878.439; -148.100; -487.000; -472.000
878.685; -134.800; -272.000; -343.000
878.931; -157.700; -618.000; -676.000
879.176; -101.800; -201.000; -201.000
879.422; -302.300; -933.000; -820.000
879.668;  144.100;   10.000;   79.000
879.913;  189.000;   53.000;  137.000
880.159;  -77.000; -112.000;  -17.000
880.404;  -61.900; -152.000; -162.000
880.650;   -4.200;   91.000;  141.000
880.895; -259.500; -670.000; -710.000
881.141; -168.900; -454.000; -428.000
881.386; -227.600; -503.000; -658.000
881.631; -102.800; -311.000; -166.000
881.877;  -28.100;  112.000;  -13.000
882.122; -186.500; -684.000; -600.000
882.367; -122.400; -136.000; -186.000
882.612;  -73.700;  -80.000; -176.000
882.858; -268.900; -877.000; -823.000
883.103; -120.600; -297.000; -267.000
883.348; -235.200; -759.000; -852.000
883.593; -233.900; -677.000; -602.000
883.838;  -72.300; -311.000;  -24.000
884.083;   52.600;  353.000;  288.000
884.328; -128.000; -564.000; -545.000
884.573;  -66.000; -196.000; -143.000
884.818;  221.600; -694.000; -531.000
885.063;  128.500; -348.000; -315.000
885.308; -164.500; -475.000; -398.000
885.553;   39.400;  245.000;  325.000
885.797; -178.100; -545.000; -615.000
886.042;  -33.100;    8.000;   58.000
886.287; -111.400; -253.000; -211.000
886.532;  -28.300;   26.000;  204.000
886.776; -141.700; -407.000; -525.000
887.021; -232.400; -621.000; -574.000
887.265; -225.300; -685.000; -689.000
887.510; -188.600; -557.000; -496.000
887.755; -127.300; -194.000; -164.000
887.999; -205.100; -552.000; -575.000
888.244;  -13.300;  -58.000;  161.000
888.488;   23.100;  371.000;  393.000
888.732; -180.200; -368.000; -520.000
888.977; -220.300; -622.000; -567.000
889.221; -230.400; -683.000; -659.000
889.465; -185.700; -422.000; -566.000
889.710;  -86.800;  -56.000; -299.000
889.954;  106.200;  579.000;  467.000
890.198; -248.500; -584.000; -707.000
890.442; -251.800; -716.000; -712.000
890.687; -281.400; -800.000; -753.000
890.931; -131.700; -273.000; -210.000
891.175; -208.100; -502.000; -500.000
891.419;  -74.500; -105.000; -110.000
891.663;  -99.500; -239.000; -112.000
891.907; -246.900; -801.000; -545.000
892.151; -272.100; -920.000; -815.000
892.395; -142.500; -274.000; -387.000
892.638;   27.100;  408.000;  291.000
892.882; -303.400; -780.000; -867.000
893.126;  119.200;  758.000;  558.000
893.370; -115.100; -167.000; -168.000
893.614; -229.200; -714.000; -715.000
893.857; -145.100; -183.000; -197.000
894.101; -202.200; -527.000; -631.000
894.345;  -13.300;  300.000;  150.000
894.588;   93.600;  569.000;  380.000
894.832; -104.800; -178.000;  -84.000
895.075; -104.600;   15.000;  -92.000
895.319; -210.700; -552.000; -420.000
895.563; -137.300; -413.000; -353.000
895.806; -245.700; -628.000; -741.000
896.049; -119.500; -576.000; -368.000
896.293;  157.700;  527.000;  405.000
896.536;  -92.000; -465.000; -468.000
896.779;  -73.600; -149.000;   -1.000
897.023; -207.300; -751.000; -714.000
897.266;   17.500;  325.000;  269.000
897.509; -285.500; -900.000; -901.000
897.752;   -1.500;  149.000;  171.000
897.996; -339.900; -972.000; -864.000
898.239;  -37.400;  168.000;  102.000
898.482; -180.200; -431.000; -453.000
898.725;    5.300;  101.000;   53.000
898.968; -240.900; -609.000; -744.000
899.211; -158.200; -513.000; -361.000
899.454; -201.600; -633.000; -539.000
899.697;  -75.600;   90.000;  -43.000
899.940; -266.600; -761.000; -757.000
900.182; -150.700; -335.000; -405.000
900.425; -114.000; -150.000; -298.000
900.668;   33.800;  491.000;  350.000
900.911; -148.800; -292.000; -345.000
901.154;  -15.000;  141.000;   -3.000
901.396; -228.500; -407.000; -412.000
901.639; -205.300; -430.000; -496.000
901.882; -290.400; -790.000; -809.000
902.124;  -91.800;  -29.000; -143.000
902.367; -158.300; -315.000; -361.000
902.609; -210.200; -476.000; -453.000
902.852; -111.400; -108.000; -260.000
903.094; -193.700; -458.000; -337.000
903.337;   -3.300;  -26.000;   53.000
903.579; -156.600; -228.000; -441.000
903.821; -247.800; -597.000; -744.000
904.064;  -21.500;   85.000;  127.000
904.306;  -99.800; -126.000; -166.000
904.548; -149.500; -152.000; -366.000
904.790; -114.200; -195.000; -340.000
905.033; -235.600; -625.000; -577.000
905.275; -209.100; -513.000; -524.000
905.517;  107.800;  468.000;  256.000
905.759; -172.100; -667.000; -761.000
906.001; -147.500; -322.000; -369.000
906.243;  -86.600; -162.000; -224.000
906.485;  136.300; -265.000; -207.000
906.727;   62.000; -499.000; -542.000
906.969;  -19.600;  -30.000; -135.000
907.211;  124.100; -316.000; -382.000
907.453;  299.600; -188.000; -237.000
907.695;  -34.700; -158.000; -385.000
907.936;  152.300;  818.000;  706.000
908.178;  -73.100;   92.000; -135.000
908.420; -101.100; -111.000; -162.000
908.662; -219.000; -633.000; -682.000
908.903; -107.500; -208.000; -123.000
909.145;  -55.200; -240.000; -305.000
909.386;   90.100;  315.000;  280.000
909.628;  101.500;  363.000;  397.000
909.870;   42.200;   29.000;  264.000
910.111; -171.200; -809.000; -949.000
910.353;   38.300; -123.000; -161.000
910.594;  -47.300; -574.000; -606.000
910.835;  162.700; -265.000; -326.000
911.077;  217.400; -503.000; -604.000
911.318;  509.700; -505.000; -471.000
911.559;  670.900; -577.000; -880.000
911.801; 2271.500; -284.000; -280.000
912.042;19204.200;  -50.000; -159.000
912.283;42068.900;  404.000;  371.000
912.524; 5281.700; -396.000; -457.000
912.765;  807.300; -193.000;   79.000
913.006;  413.400; -307.000; -338.000
913.247;   97.500; -270.000; -290.000
913.488;   -2.600;  -43.000;   30.000
913.729;  -90.700; -373.000; -373.000
913.970;  -52.800;  -96.000; -292.000
914.211;  -87.100; -160.000; -198.000
914.452;  -51.800; -118.000;  -11.000
914.693;  102.600;  510.000;  592.000
914.934;   91.700;  510.000;  440.000
915.175;  -73.700;   53.000;  -95.000
915.415;  -78.200; -137.000;   27.000
915.656;  -68.500;  -28.000;  192.000
915.897; -150.800; -252.000;  -82.000
916.137;  -75.200;   74.000;   -9.000
916.378; -209.000; -573.000; -517.000
916.619; -113.100; -159.000;  -63.000
916.859;   35.500;  303.000;  330.000
917.100;  353.600; 1655.000; 1070.000
917.340;  164.400;  930.000;  728.000
917.581;  151.700;  965.000;  789.000
917.821;  -39.300; -171.000;  143.000
918.061;   16.000; -199.000;  -72.000
918.302;  -88.200; -152.000; -211.000
918.542;    4.300;  -22.000;    3.000
918.782;   96.600;  369.000;  377.000
919.023;  247.600;  360.000;  427.000
919.263; 3189.400; 8131.000;  202.000
919.503; 1298.800; -137.000;  -54.000
919.743;  800.600;  390.000;  266.000
919.983;  309.500; -134.000;  -26.000
920.223;   89.300;  135.000;   14.000
920.463;  313.000;  631.000;  554.000
920.703;  220.900;   84.000;   39.000
920.943;  205.100; -110.000;   90.000
921.183;  266.800; -414.000; -405.000
921.423;  728.700;  307.000;  546.000
921.663; 1005.600; -174.000; -257.000
921.903; 2317.400;  237.000;  173.000
922.143;13861.600;  372.000;  389.000
922.383;48470.300;  158.000;  115.000
922.622;13284.000; -120.000;  -15.000
922.862; 1682.300;  796.000;  785.000
923.102;  644.200;  -51.000;   33.000
923.341;  278.500;   59.000;   74.000
923.581;  187.600;  450.000;  360.000
923.821;   73.700;  301.000;  398.000
924.060;   75.100;  351.000;  193.000
924.300;  -81.500;  -16.000; -128.000
924.539;   43.400;  584.000;  473.000
924.779;   87.900;  812.000;  597.000
925.018;  -24.100;  247.000;  353.000
925.257;   76.400;  595.000;  666.000
925.497;   12.600;  447.000;  412.000
925.736;  -82.300;  -35.000;  102.000
925.975;   75.900;  687.000;  669.000
926.214;  147.300;  907.000;  850.000
926.454;   91.300;  706.000;  757.000
926.693;   17.300;  419.000;  543.000
926.932;  140.600; 1021.000;  825.000
927.171;  226.300; 1107.000; 1044.000
927.410;  212.200; 1144.000;  967.000
927.649;  110.200;  924.000;  742.000
927.888;   38.900;  590.000;  564.000
928.127;   49.000;  680.000;  678.000
928.366;  126.600;  842.000;  826.000
928.605;  150.400;  831.000;  737.000
928.844;  494.000; 1451.000; 1393.000
929.083;  921.800;  770.000;  613.000
929.321;  513.900; 1335.000; 1359.000
929.560;  228.000; 1158.000; 1122.000
929.799;   -3.600;  574.000;  475.000
930.038;  264.500; 1025.000; 1394.000
930.276;  -10.700;  334.000;  397.000
930.515;   76.300;  827.000;  681.000
930.753;   16.200;  614.000;  589.000
930.992;   28.300;  664.000;  717.000
931.230;   57.000;  847.000;  847.000
931.469;  431.400; 2162.000;  892.000
931.707;  238.700;  840.000;  751.000
931.946;  230.100; 1278.000; 1344.000
932.184;  193.200; 1437.000; 1175.000
932.423;  161.900; 1265.000;  963.000
932.661;  252.800; 1296.000; 1428.000
932.899;   80.100;  987.000;  821.000
933.137;  102.500;  754.000;  564.000
933.376;  308.900; 1664.000; 1335.000
933.614;  384.500; 1759.000; 1196.000
933.852;  159.400; 1357.000; 1171.000
934.090;  342.900; 1722.000; 1747.000
934.328;  236.700; 1252.000; 1457.000
934.566;  270.200; 1431.000; 1110.000
934.804;  307.100; 1263.000; 1309.000
935.042;  868.700; 1861.000; 1850.000
935.280; 3119.900; 2088.000; 2063.000
935.518; 2467.000; 2113.000; 2007.000
935.756;  688.600; 2481.000; 2316.000
935.994;  375.800; 1808.000; 1751.000
936.231;  737.100; 2890.000; 2950.000
936.469;  447.200; 2367.000; 2378.000
936.707;  460.300; 2220.000; 2167.000
936.945;  527.300; 2825.000; 2882.000
937.182;  486.800; 2679.000; 2741.000
937.420;  621.500; 3602.000; 3031.000
937.657;  845.500; 3365.000; 3478.000
937.895;  716.000; 3331.000; 3488.000
938.133;  650.600; 3540.000; 3528.000
938.370;  774.100; 3896.000; 4191.000
938.607;  899.200; 4488.000; 4205.000
938.845; 1182.300; 5587.000; 5549.000
939.082; 1082.400; 5387.000; 5177.000
939.320; 1188.300; 5799.000; 5728.000
939.557; 1370.500; 6549.000; 6491.000
939.794; 1500.300; 7285.000; 7097.000
940.031; 1839.500; 8421.000; 8368.000
940.269; 2231.300; 9552.000; 9107.000
940.506; 2318.000;10901.000;10507.000

