
Integration time [ms]: 100.000
Averaging Nr. [scans]: 40
Smoothing Nr. [pixels]: 0
Data measured with spectrometer [name]: 2101013U2
Wave   ;Sample   ;Dark     ;Reference
[nm]   ;[counts] ;[counts] ;[counts] 

394.013;   57.123; -450.257; -315.536
394.305;  245.246; -461.258; -419.536
394.596; 1157.463; -676.269; -527.514
394.887; 2845.656; -796.268; -654.518
395.178; 1055.138;  145.736;   11.476
395.470;   88.949; -210.263; -356.526
395.761;  205.196;  305.734;  394.479
396.052;  359.808; -545.284; -306.489
396.343;  344.831; -557.276; -454.503
396.634;  113.573; -200.279; -290.497
396.926;  118.003; -618.268; -565.517
397.217;  120.985;   11.725;  -17.504
397.508;   38.802; -366.273; -154.507
397.799;   55.898; -555.279; -571.497
398.090;    7.342; -973.280; -902.495
398.381;  132.055;   11.708;  -11.473
398.672;    0.131; -585.292; -742.473
398.963;   44.054; -348.279; -373.498
399.254;  113.815;   54.709; -209.475
399.545;  -16.057;-1017.266; -883.520
399.836;   59.744; -407.277; -343.501
400.127;   47.305; -205.295; -209.468
400.418;   58.221; -423.274; -392.506
400.709;   57.829; -359.281; -333.493
401.000;   55.269; -268.291; -309.476
401.290;  114.414;  225.698;  115.545
401.581;   71.265; -166.286; -228.485
401.872;   29.301; -542.298; -486.462
402.163;   58.247; -313.296; -252.467
402.454;   96.541; -123.291; -163.475
402.744;   79.563; -844.297; -813.465
403.035;  405.920; -226.293;  -86.471
403.326;  547.909; -366.292; -384.474
403.617;  391.270;  204.701;  165.539
403.907;  259.664; -593.283; -679.490
404.198; 2492.891; -545.307; -599.446
404.489; 6538.594; -618.283; -588.491
404.779; 2098.167; -618.302; -660.456
405.070;  230.095;  -67.304; -174.451
405.360;  351.322; -259.293; -238.472
405.651;  374.579;  125.699;   98.542
405.942;  161.160;  209.714;  127.516
406.232;  256.550; -432.285; -413.487
406.523;  478.290;  641.706;  758.530
406.813;   94.462; -579.286; -644.484
407.104;  338.653;  261.708;  144.527
407.394;  167.471; -604.299; -591.462
407.685;  172.049;  336.715;  222.513
407.975;   62.217; -400.283; -382.490
408.265;  124.156; -134.289; -190.478
408.556;   72.488; -472.291; -459.475
408.846;  156.741;  474.706;  429.530
409.137;   89.940;   -1.288; -216.480
409.427;   63.250; -193.285; -271.487
409.717;   31.605; -776.273; -692.508
410.007;  146.118;    4.715; -170.486
410.298;   90.983; -360.295; -342.469
410.588;   81.622; -495.285; -510.486
410.878;   40.226; -792.287; -873.482
411.168;  125.103; -481.298; -478.463
411.459;  122.812; -295.283; -242.489
411.749;   65.561; -609.292; -507.474
412.039;   67.238; -755.289; -386.480
412.329;  211.812;   40.722;  132.501
412.619;  207.513;  -62.286; -148.485
412.909;  372.459;  639.711;  594.521
413.199;  337.167; -130.280; -251.495
413.490;  419.874;  521.710;  352.523
413.780;  155.247;-1013.279; -913.496
414.070;  344.557;  -46.276;  235.497
414.360;  373.458; -729.278; -666.498
414.650;  442.122; -726.288; -688.482
414.940;  557.221; -538.280; -441.496
415.230;  982.544;   50.712;   74.519
415.520; 6374.788;  155.730;   66.486
415.809;25328.228; -305.281; -125.493
416.099;19076.022; -388.277; -229.501
416.389; 5433.744;  435.726;  236.494
416.679; 3143.353;   91.738;   85.473
416.969;  572.056; -527.287; -503.483
417.259;  500.798;  341.721;  171.503
417.549;  706.227;  522.718;  318.508
417.838; 1739.355; -205.268; -147.518
418.128; 5771.530;  650.710;  492.522
418.418; 4743.387; -491.272; -579.509
418.708; 3238.594;    9.726;  -48.506
418.997;12261.515; -474.275; -480.505
419.287;12576.576; -733.273; -790.507
419.577;11953.461; -160.283; -123.489
419.866;39982.719; -588.277; -498.501
420.156;40521.208; -242.270;  -55.513
420.446; 7057.395; -112.263;  -26.526
420.735;  841.027; -376.271; -446.512
421.025;  829.707; 1830.722;  315.502
421.314;  658.900; -203.271; -226.512
421.604; 1319.673;   89.732;  233.484
421.893;  766.846; -705.271; -602.511
422.183;  241.420; -487.263; -461.526
422.472;  393.673;  -36.271; -107.511
422.762;  457.174; -416.266; -379.521
423.051;  261.057; -916.276; -916.503
423.341;  321.228; -491.273; -439.507
423.630;  422.855; -121.265;   15.477
423.919;  379.139;   58.725;   49.495
424.209;  380.351;  -31.263;   56.473
424.498;  510.678;   68.732;  161.483
424.787; 1110.509; -535.267; -601.518
425.077; 3471.929;   34.735;   29.478
425.366; 4773.282; -734.262; -744.528
425.655;10173.254;  639.727;  259.493
425.945;22844.917; -313.247; -268.554
426.234;12319.756;  117.741;  300.467
426.523; 5321.061;  -86.259; -350.534
426.812; 7201.320;  107.734;  159.480
427.101;10669.419; -127.269; -323.515
427.390;13311.662;  -55.270;  -86.514
427.680; 2806.557; -624.257; -411.538
427.969;  487.993; -330.255; -301.540
428.258;  316.098; -385.257; -477.536
428.547;  556.016;  449.728;  397.490
428.836; 1222.935; -421.253; -398.543
429.125; 1722.763; -199.259;  -72.534
429.414;  795.333; -330.251; -294.548
429.703; 3278.833; -231.251; -213.548
429.992; 9841.012; -938.250; -828.549
430.281; 6273.713; -397.264; -331.524
430.570;  585.648;  -21.252;   32.454
430.859;  566.136;  279.741;  352.466
431.148;  428.862;  636.752;  631.446
431.437;  307.198;  391.748;  367.454
431.725;  161.074; -544.257; -481.536
432.014;  146.092; -845.253; -756.545
432.303;  381.666; -149.239; -105.569
432.592;  625.295; -460.263; -178.525
432.881; 1115.738; -601.248; -437.554
433.169; 6522.894; -343.255;  -61.540
433.458;13262.126;  445.765;  540.424
433.747; 5351.013; -397.261; -289.529
434.036;  858.666; -275.242; -280.564
434.324; 2181.775; -395.249; -379.551
434.613; 3830.634;   40.757;  159.437
434.902; 1224.306;  333.760;  439.433
435.190;  529.765;   75.761;  295.431
435.479;  322.790;  -52.245;   83.441
435.767;  109.124; -411.244; -427.561
436.056;  219.412; -340.242; -294.563
436.345;  391.908; -372.240; -223.568
436.633;  390.970;   60.750;  383.450
436.922;  254.661;  208.760;  414.432
437.210;  549.841; -194.236;    1.426
437.499; 1686.274; -583.235; -432.576
437.787; 1853.140; -339.236;  -10.574
438.075;  468.771;   56.761;  162.430
438.364;  700.148;  -44.238;  250.429
438.652;  419.057; -286.226; -138.592
438.941;  137.220;    3.770;  269.415
439.229;   21.820; -665.252; -466.545
439.517;   50.533; -160.234;  -85.577
439.806;   -2.651; -501.225; -290.595
440.094;  179.766;  377.766;  650.421
440.382;  186.745; -653.233; -302.580
440.670;  212.724; -361.235; -285.576
440.959;   39.792; -347.223; -170.599
441.247;   86.982; -151.229; -109.587
441.535;   96.181; -266.235;   31.423
441.823;   44.638; -497.234; -305.578
442.111;  185.886;  173.771;  327.412
442.400;  491.889; -628.245; -335.559
442.688; 1271.166; -111.234; -620.579
442.976;  886.558; -786.213; -450.617
443.264;   97.806; -324.224; -364.597
443.552;   90.234; -258.226;   51.408
443.840;  165.855;  602.765;  876.423
444.128;  121.369;  265.767;  269.420
444.416;    6.389; -694.228; -312.588
444.704;   43.848; -465.219;  -92.605
444.992;   72.287;   -0.226;  240.407
445.280;   69.971; -517.230;  -94.585
445.568;   44.937; -694.212; -396.618
445.856;  324.681; -174.221;  357.398
446.143;  705.194;  -54.220;   -7.604
446.431;  588.693;  -25.228;  625.411
446.719;  228.093;  489.783;  675.391
447.007;  184.315;  481.769;  705.416
447.295;  177.564;  597.777;  871.402
447.583;   85.154; -464.229;  -34.587
447.870;  143.653; -434.221; -202.601
448.158;  396.044; -104.230;  129.415
448.446;  294.570; -800.219; -338.604
448.733;  168.457;   13.776;  269.403
449.021;  243.962;   60.788;  341.382
449.309;  192.602; -296.210;  208.379
449.596;  205.914;  128.783;   59.392
449.884;  183.921; -571.222; -325.600
450.172;  170.748; -756.227; -406.590
450.459;  453.641;  645.786;  780.387
450.747; 2520.162; -411.218; -147.608
451.034; 8133.569;  493.772;  889.411
451.322; 6502.619; -413.214; -170.614
451.609;  538.109;  292.777;  508.403
451.897;  608.843; -550.203; -183.634
452.184; 1887.914; -622.223; -400.598
452.472; 1765.599;   97.792;  269.375
452.759;  342.046;  512.781;  864.395
453.047;  121.709; -407.212; -125.617
453.334;   97.879; -732.219; -216.606
453.621;   84.497; -438.214; -161.615
453.909;  127.510;   13.796;  384.368
454.196;   95.407; -299.199; -123.641
454.483;  221.556;  317.798;  540.364
454.771;  133.403; -215.208;  196.374
455.058;   40.781; -316.207;  102.374
455.345;   99.414;   71.807;  344.347
455.632;   98.360; -128.207;  235.373
455.919;   52.880;  -82.196;  182.354
456.207;  -45.813; -774.198; -450.642
456.494;   -9.056; -475.200;  -66.639
456.781;   15.652; -399.202; -198.635
457.068;   57.741; -253.206;  -29.628
457.355;    2.192; -698.206; -401.629
457.642;    0.023; -552.205; -290.630
457.929;   13.280; -778.194; -417.651
458.216;   72.184; -575.212; -354.617
458.503;  243.360; -173.193;  -19.652
458.790;  245.575; -864.208; -630.625
459.077;  279.557;  -77.202;  110.364
459.364;  824.148; -350.195; -210.649
459.651; 1805.439;  -46.206;  220.372
459.938;  786.665; -864.209; -665.623
460.225;  167.785;  132.799;  276.363
460.512;  -41.523; -836.197; -688.645
460.799;  101.211;  -32.218;  320.392
461.086;   69.974; -370.200; -251.640
461.372;   37.487; -509.198; -279.642
461.659;  104.407; -165.196;  108.354
461.946;   61.933; -445.193;  -54.651
462.233;  219.496;  842.800;  888.361
462.519;  370.793; -814.201; -464.639
462.806; 1053.353; -768.197; -497.645
463.093;  918.980; -445.191;  -66.656
463.380;  -24.952; -920.186; -824.664
463.666;   51.755; -259.197;  -18.646
463.953;   96.442; -406.195; -243.648
464.239;  208.792; -173.195;  -77.648
464.526;  394.503;  413.806;  743.350
464.813;  339.942; -565.190; -304.658
465.099;  355.134;  606.807;  607.348
465.386;  337.513;  903.807;  921.348
465.672;   29.978; -694.197; -522.645
465.959;   24.386; -598.188; -520.662
466.245;   15.739; -468.193; -359.652
466.532;  106.065; -109.195;   63.352
466.818;   72.173; -357.186; -216.664
467.104;   21.464; -488.182; -415.672
467.391;  -15.031; -628.189; -459.658
467.677;   36.876; -289.186;    9.335
467.964;    7.551; -682.189; -471.660
468.250;   76.054; -331.186; -160.665
468.536;   79.670;   90.811;  180.341
468.822;  -27.159; -821.184; -574.668
469.109;  139.548;  351.827;  471.311
469.395;  204.599;  729.808;  787.346
469.681;  202.673;   46.811;  156.341
469.967; 1314.828; -699.188; -382.660
470.254; 2852.561; -494.188; -306.662
470.540; 1791.730; -601.196; -476.646
470.826;  243.701; -488.181; -397.675
471.112;  335.520;  288.816;  113.331
471.398;   80.825; -253.183;  -58.670
471.684;   54.830; -626.177; -447.680
471.970;    3.080; -918.180; -981.675
472.256;   39.298; -521.192; -441.654
472.542;   17.885; -499.171; -434.691
472.828;   18.110; -743.182; -607.672
473.114;   33.930; -380.166; -283.700
473.400;   20.623; -504.175; -293.684
473.686;   37.812; -452.166; -400.701
473.972;   71.163; -230.174; -131.687
474.258;  -37.802; -925.173; -843.689
474.544;  234.172; -183.178;   -2.679
474.830;  321.849;  -65.175;   45.316
475.116;  523.069; -123.190; -196.658
475.401;  687.557; -558.180; -467.676
475.687;  217.006; -725.180; -718.676
475.973;    2.594; -673.181; -770.673
476.259;  239.027;  736.825;  764.315
476.544;  379.089; -539.176; -437.682
476.830;  884.856; -398.172; -322.690
477.116;  734.912; -430.177; -336.682
477.401;  127.182;  346.820;  358.324
477.687;  -11.802; -289.175; -405.684
477.973;   49.697;   21.819;   28.326
478.258;  -14.292; -448.163; -348.706
478.544;   67.760;   21.815;   61.334
478.829;  -44.684; -818.171; -738.692
479.115;  -44.470; -749.172; -651.690
479.401;  -17.017; -444.174; -449.686
479.686;   44.881; -253.180;  -74.676
479.972;  -36.798; -886.178; -776.680
480.257;   43.482; -258.166;  -65.700
480.542;  -11.380; -614.170; -469.693
480.828;  224.121; 1288.824; 1392.317
481.113;  -29.731; -464.176; -426.683
481.399;   -4.142; -236.161; -202.711
481.684;  -49.344; -620.166; -462.700
481.969;   20.897; -158.159;  -73.713
482.255;    2.281; -439.169; -285.695
482.540;   10.952; -569.178; -441.680
482.825;    5.368; -395.187; -404.663
483.110;  112.084;  -85.169; -105.696
483.396;  202.344; -840.157; -652.718
483.681;  518.388;  543.826;  730.313
483.966;  159.790; -696.160; -700.712
484.251;   -8.613; -404.174; -310.687
484.536;  -13.808; -356.165; -378.703
484.822;   33.415; -205.173; -218.687
485.107;  -34.441; -599.152; -502.726
485.392;  124.098;  662.836;  541.296
485.677;   66.269;  354.832;  163.302
485.962;  103.367;  160.843;  270.283
486.247;   80.466;  -14.162;   -8.707
486.532;   50.458; -178.166; -325.701
486.817;  150.702;  381.839;  431.291
487.102;  132.541; -453.154; -514.722
487.387;  679.921; -637.156; -652.718
487.672; 1241.604; -154.164;  -38.705
487.957;  754.109; -394.160; -286.711
488.241;  214.651; -290.150; -314.729
488.526;  752.485; -280.152; -148.726
488.811; 1265.029; -881.177; -818.680
489.096;  919.744; -666.154; -702.723
489.381;  521.757;    3.847;  162.275
489.666;  393.657; -428.161; -510.710
489.950;  188.197;  558.846;  627.277
490.235;  -20.329; -480.151; -458.728
490.520;  -42.419; -756.161; -723.710
490.804;  -44.927; -827.156; -736.719
491.089;    6.893; -469.149; -299.732
491.374;   28.402; -132.164;  -75.704
491.658;   -4.345; -817.147; -717.735
491.943;  168.790; -657.152; -609.727
492.227;  272.187; -178.155;  -38.721
492.512;   54.541; -294.157; -341.717
492.797;  -54.139; -713.149; -716.731
493.081;  -48.292; -588.147; -598.735
493.366;  -27.617; -751.161; -635.711
493.650;  203.813;  831.859;  917.254
493.935;   44.629; -648.147; -447.734
494.219;  -37.201; -778.142; -687.743
494.503;  -37.494; -585.150; -487.730
494.788;   46.557;   46.842;   74.285
495.072;  110.253;  184.850;  434.271
495.356;  158.696; -463.148; -343.733
495.641;  467.389; -812.146; -736.736
495.925;  460.128; -976.156; -903.719
496.209;   53.442; -599.149; -451.732
496.494;  -52.475; -763.142; -544.744
496.778;   27.466; -364.154; -360.722
497.062;  -56.597; -819.156; -627.719
497.346;  -13.964; -869.160; -640.711
497.631;  144.175;  580.852;  560.266
497.915;   78.925;  -64.145;  175.261
498.199;   60.019; -341.157; -277.718
498.483;   55.609; -562.152; -508.725
498.767;  194.729;  301.850;  300.271
499.051;  188.890; -126.149; -100.732
499.335;   43.013; -693.149; -739.731
499.619;  -26.607; -381.129; -423.767
499.903;   27.185; -272.155;  -65.721
500.187;   43.674; -588.153; -316.724
500.471;   32.789; -796.152; -595.727
500.755;   91.207;   62.839;  -96.710
501.039;   10.736; -270.155; -357.721
501.323;   85.090;  -21.141;  264.254
501.607;   45.308; -447.163; -503.706
501.891;   -3.204; -607.156; -512.718
502.174;  -21.163; -726.144; -585.741
502.458;   67.868;   89.849;  370.273
502.742;   46.264; -180.138; -191.751
503.026;  108.628; -412.147; -254.734
503.310;  180.746; -437.159; -375.713
503.593;  138.380; -464.147; -325.735
503.877;  119.256; -232.133; -156.760
504.161;  185.676;    2.847;  -50.724
504.444;  139.435; -841.158; -710.716
504.728;  483.376; -487.164; -522.704
505.012;  758.001; -257.150;  -76.729
505.295;  542.933; -417.161; -212.711
505.579;  541.578; -256.156; -496.719
505.862;  778.446; -555.145; -333.738
506.146;  776.223; -681.159; -758.714
506.429;  407.549;  568.841;  461.286
506.713;   79.198; -732.151; -667.728
506.996;  346.966;   90.846;  295.278
507.280;  358.396; -633.165; -474.703
507.563;  248.934; -469.155; -261.721
507.847;   98.850; -423.153; -112.724
508.130;  107.459; -665.161; -456.711
508.413;  135.227; -758.167; -577.700
508.697;  260.477; -151.167;   12.300
508.980;  161.276; -422.153; -312.724
509.263;    8.405; -466.155; -450.720
509.547;   47.900; -124.150;   82.271
509.830;   48.286; -172.160;  140.289
510.113;   93.102;  128.844;  298.281
510.396;   39.332; -530.152; -300.725
510.680;  141.448; -818.145; -812.738
510.963;  564.395;  184.846;  180.277
511.246;  480.058; -493.150; -357.730
511.529;  257.503; -482.145;  -83.739
511.812;  400.878; -250.134;   10.241
512.095;  278.720; -740.151; -396.728
512.378;   75.160; -317.147; -245.736
512.661;   35.547; -703.137; -623.753
512.944;   46.877; -750.142; -637.744
513.227;   74.145; -170.137; -171.752
513.510;   44.162; -479.144; -671.741
513.793;   48.994; -485.140; -435.747
514.076;  133.240;  -43.127;  -39.771
514.359;  121.118; -294.149; -135.732
514.642;   95.780; -442.142; -567.744
514.925;  770.717;  581.860;  561.253
515.208; 1053.299; -498.134; -443.758
515.491;  695.863; -276.133; -182.761
515.773;  379.691; -410.143; -337.742
516.056; 2192.729;  249.864;  409.246
516.339; 2957.583; -754.136; -652.755
516.622; 1871.131; -518.150; -488.730
516.904; 1141.748;  882.857;  975.257
517.187;  537.868; -730.138; -523.752
517.470;  392.972; -568.143; -510.743
517.752;  441.261; -624.136; -470.756
518.035;  356.755; -708.139; -725.749
518.318;  395.833; -799.136; -744.755
518.600; 2502.992; -300.132; -325.762
518.883; 3540.004;  310.858;   88.256
519.165; 1677.836; -585.138; -426.751
519.448;  401.892;  -61.132;  -19.762
519.730;  192.347; -573.126; -415.773
520.013;  307.434;  588.867;  664.240
520.295;  764.355;  -94.134;  -15.759
520.578; 1751.405; -335.131; -305.764
520.860; 1944.317; -254.132;   56.238
521.143; 1030.263; -763.135; -584.756
521.425;  481.336; -251.125; -279.775
521.707;  693.240; -622.127; -380.771
521.990; 1837.966; -199.127;  167.229
522.272; 2116.621; -116.140;   -4.748
522.554;  912.666; -237.143; -157.742
522.836;  344.927;  -24.134;   99.241
523.119;  230.152; -496.148; -189.734
523.401;  166.562; -448.130; -314.766
523.683;  107.698; -865.137; -693.753
523.965;  280.491;  408.862;  260.248
524.247;  293.908;   54.878;  170.220
524.529;  217.079; -451.134; -367.759
524.812;  363.589;   -3.130;  191.234
525.094;  890.865; -773.138; -631.751
525.376; 1424.920; -143.124;   78.223
525.658;  863.955; -441.136; -339.754
525.940;   30.627; -805.131; -671.764
526.222;   35.509; -188.136;  -88.755
526.504;  117.400; -190.131;   32.237
526.786;  181.232; -960.133; -647.760
527.068;  300.226; -124.123;  -67.778
527.349;  122.327; -865.137; -774.754
527.631;  128.592; -137.132;   22.238
527.913;  162.114; -664.127; -450.771
528.195;  173.354; -761.125; -639.774
528.477;  256.499;  -93.134;  -30.758
528.759;  137.414; -648.130; -522.766
529.040;   84.950; -569.123; -293.778
529.322;   49.831; -235.125;  -10.774
529.604;  153.192;  -47.130;   93.233
529.886;  121.622; -546.126; -302.773
530.167;  119.608;  232.870;  192.235
530.449;   53.909;    1.853;   63.265
530.731;   37.532; -572.122; -459.779
531.012;   63.854; -513.120; -216.784
531.294;   83.944; -118.116;  -43.792
531.575;  149.536;  290.875;  538.225
531.857;   60.344; -548.135; -266.757
532.138;  103.188; -113.141;   40.254
532.420;  195.315;  294.865;  403.244
532.701;  205.360; -722.133; -751.760
532.983;  344.913;  232.867;  182.239
533.264;  107.470; -243.126;  175.228
533.546;  -28.566; -491.136; -508.755
533.827;   36.206;  173.867;   -1.759
534.109;   43.144; -352.135;  -80.757
534.390;   92.396; -725.132; -582.762
534.671;  271.490; -270.135;  -82.756
534.953;  135.828; -751.123; -611.779
535.234;   28.604; -426.117; -255.789
535.515;  -58.313; -891.119; -735.785
535.796;  -18.290; -431.128; -193.770
536.078; -107.705;-1050.124; -904.777
536.359;    9.703;  -22.123;    3.221
536.640;  -10.195; -480.125; -197.774
536.921;  171.447;  225.871;  143.232
537.202;  401.162;  -87.138;  -16.751
537.483;  480.505;  251.869;  377.236
537.764;  178.558;   17.870;   98.235
538.045;  -34.352; -543.134; -371.758
538.326;  -32.926; -596.129; -447.768
538.607;   31.666; -686.127; -476.771
538.888;  174.069;   98.879;    5.218
539.169;  206.439; -704.122; -535.781
539.450;  342.971;  236.871;   16.233
539.731;  235.198; -361.121; -182.783
540.012;  129.479;  199.880;  412.216
540.293;   91.364;   82.876;  158.224
540.574;    2.066; -895.113; -717.796
540.855;  452.497;  435.879;  377.218
541.136;  536.936;   47.878;  139.220
541.416;  290.390; -161.130; -220.766
541.697;  210.125; -274.131; -170.763
541.978; 1090.792; -270.135; -315.757
542.259; 1355.966; -211.127; -236.771
542.539;  653.388; -191.116; -186.790
542.820;  176.910;  461.875;  480.225
543.101;  131.425;  -52.145;  -77.738
543.381;   33.415; -638.127; -591.771
543.662;  269.038;  159.873; -254.771
543.942;  616.936; -751.127; -830.770
544.223; 1116.038;  193.878;  161.219
544.504;  712.445; -275.124; -182.777
544.784;  597.322; -592.126; -408.773
545.065; 1745.467;  104.884; -254.791
545.345; 2061.912;  227.881;   14.215
545.626; 1316.615;  -14.113; -108.796
545.906;  926.882;   77.869;   98.235
546.186;  379.352;   92.874;  -95.773
546.467;  222.172;   99.877;  -95.778
546.747;  338.363;  264.884;  327.210
547.027;  403.693;   91.876;  111.223
547.308;  349.460; -376.127; -530.770
547.588;  415.300;  299.871;  371.232
547.868;  182.709;  458.870;  588.235
548.149;  197.275;  609.885;  593.207
548.429;  136.114; -347.127; -299.771
548.709;  209.928; -645.120; -461.784
548.989;  496.672;   84.882;   88.213
549.269; 2164.765;   10.868;  139.239
549.550; 5055.677;  215.877;  117.222
549.830; 4484.734; -758.111; -556.799
550.110;  881.067; -468.110; -320.801
550.390;  861.707; -128.122;  -56.779
550.670; 1195.611; -868.114; -783.795
550.950;  827.822; -509.121; -471.782
551.230;  181.443;  549.879;  460.218
551.510;   21.170; -381.121; -326.782
551.790;   28.350; -173.109; -127.803
552.070;  250.272;  940.877; 1181.223
552.350;  418.292; -492.119; -377.786
552.630;  619.940;   -2.121;   77.219
552.909;  371.967;  181.884;   73.209
553.189;  252.672;  -49.132;   33.237
553.469;  203.516; -703.119; -514.786
553.749;  192.092; -469.127; -357.772
554.029;  168.183;   33.883;  -24.790
554.308;  156.304; -154.115;  -37.794
554.588;   71.609; -196.128; -204.770
554.868;   96.372; -366.121;  -47.782
555.147;  159.251; -114.115;  -46.793
555.427;  615.995; -260.116; -250.792
555.707; 4086.099; -284.115; -200.793
555.986; 5023.587; -719.111; -538.800
556.266; 2563.211;   23.884;   72.210
556.546;  140.470; -888.121; -675.782
556.825;  233.883; -657.114; -556.794
557.105; 1870.532; -125.128;   17.230
557.384; 2195.791;  122.884;  187.209
557.664;  828.519; -717.116; -508.792
557.943;  123.347; -557.121; -411.782
558.222;  191.876; -345.118; -344.788
558.502;  277.177; -116.115;  -76.793
558.781;  520.148;  194.885;  499.208
559.061;  410.175; -232.118; -227.788
559.340;  310.881;  302.883;  353.211
559.619;  735.361;   93.884;  148.210
559.899; 1068.758; -239.117; -266.789
560.178;  968.402; -778.115; -593.793
560.457; 3288.784; -623.117; -562.790
560.736; 4669.338; -472.111; -482.800
561.015; 3065.205; -500.128; -502.769
561.295;  369.845;  180.893;  215.193
561.574;  364.974;  119.885;  116.207
561.853;  499.104;  274.891;  303.197
562.132;  511.705;  -45.114;  182.206
562.411;  453.841;  396.879;  553.219
562.690;  152.072; -592.115; -458.792
562.969;  145.522;  472.888;  630.203
563.248;  504.213; 2966.878; 2487.219
563.527;  287.638; -290.111; -408.800
563.806;  403.639; -650.127; -521.771
564.085;  434.611; -297.105; -206.810
564.364;  250.086; -594.117; -405.790
564.643;  517.016; -276.121; -223.781
564.922; 1982.048;  221.890;  397.198
565.201; 2004.377; -640.109; -700.803
565.479;  845.121; -297.115; -219.792
565.758;  352.132; -810.128; -712.770
566.037;  499.878; -155.109; -100.803
566.316;  245.767; -286.116;  -28.791
566.595;   51.574;  -17.115;  -12.793
566.873;   79.740; -166.111;  -79.801
567.152;  -45.203; -490.113; -590.797
567.431;   15.537; -113.116;    6.210
567.709;    6.946; -344.107; -212.807
567.988;  281.608; -810.114; -769.794
568.266;  568.424; -160.115;  -68.793
568.545;  391.535; -644.100; -514.819
568.824;  595.920;  160.885;  356.208
569.102;  584.883; -351.114; -235.794
569.381;  258.670; -492.116; -407.792
569.659;  -39.982; -553.113; -553.796
569.938;   52.586; -743.122; -465.780
570.216;  121.430; -225.109; -225.804
570.494;  -12.589; -632.114; -572.795
570.773;   42.545;  202.879;  114.218
571.051;   15.650; -373.123; -357.778
571.330;   59.566; -221.113; -174.796
571.608;   40.703; -181.098; -173.823
571.886;  -53.293; -671.111; -581.799
572.164;  -55.853; -739.121; -621.782
572.443;  -43.135; -562.105; -512.811
572.721;  -29.841; -399.117; -289.790
572.999;  -26.572; -280.117; -168.788
573.277;  109.883;  379.894;  620.191
573.555;  302.435;   94.894;   37.190
573.834; 1432.602;  -86.117; -114.788
574.112; 1637.373;  880.893;  811.193
574.390;  481.414; -143.111;  -96.801
574.668;    9.223;  -91.112;  -61.797
574.946;    7.211; -165.106; -187.810
575.224;   16.326;   71.891;  -16.803
575.502;    0.014; -200.116; -204.791
575.780;  -85.626; -767.112; -829.798
576.058;  232.113; 1589.889; 1004.200
576.336;  -19.881; -210.110; -129.801
576.614;  -52.025; -511.112; -340.798
576.891;   50.529; -711.115; -823.794
577.169;  507.064; -158.108; -285.805
577.447;  586.247;  169.893;  202.193
577.725;  274.879;  629.888;  854.201
578.003;    3.352;  -71.112; -371.798
578.280;   91.249; -208.104; -242.812
578.558;   64.752; -450.115; -422.793
578.836;  128.911; -210.114; -145.795
579.114;   59.698; -630.112; -670.797
579.391;   71.354;   -6.117;  -18.789
579.669;  -51.846; -595.114; -704.794
579.947;  171.844; -326.107; -127.806
580.224;  344.294; -692.107; -524.806
580.502;  333.248;  127.893;   76.193
580.779;   18.385;  -42.117;   75.210
581.057;  -52.969; -584.109; -470.804
581.334; -102.160; -726.102; -695.815
581.612;   38.061;   54.895;  511.190
581.889;  -38.422;  -83.101; -129.818
582.167;  -29.707; -298.099; -190.821
582.444;  -91.102; -845.102; -814.817
582.721;  106.173;  657.899;  715.183
582.999;   55.366; -326.100; -167.821
583.276;  549.455; -812.123; -713.779
583.553;  765.168; -364.102; -294.816
583.831;  258.871; -607.104; -631.812
584.108;   62.162;  349.892;  174.195
584.385;   18.789; -122.102;  -98.815
584.662;  -72.485; -651.111; -828.801
584.940;   43.864;  204.889;  204.199
585.217;  -30.282;  -73.113; -303.796
585.494;   40.124;   71.890;  118.198
585.771;  209.732; -250.109; -354.804
586.048;  531.918; -196.113;  -76.796
586.325;  332.918; -721.110; -773.801
586.602;   91.825;  230.896;  213.188
586.879;  -15.463; -499.100; -580.820
587.156;   63.487; -156.105; -331.810
587.433;  -30.104; -701.102; -667.817
587.710;   84.150;  152.888;  234.202
587.987;  292.443; -264.105; -236.811
588.264;  820.402;  315.888;  387.202
588.541; 1379.877;  -61.104;   26.187
588.818; 2807.459;   72.892;  171.196
589.095; 2385.147; -163.104; -174.812
589.371;  394.004; -459.109; -414.804
589.648;   30.498; -581.107; -437.807
589.925;   45.862; -517.114; -621.795
590.202;    7.025; -741.112; -607.798
590.478;   94.220; -166.105;  -73.811
590.755;  284.240; -241.108; -132.806
591.032; 2578.270; -741.110; -699.802
591.308; 3594.245; -732.094; -790.831
591.585; 1862.995; -573.110; -560.802
591.862;  153.847;-1056.102; -950.817
592.138;   76.313; -475.108; -474.805
592.415;  138.225; -486.104; -495.813
592.691; 1486.498;  460.896;  518.188
592.968; 1938.680; -208.098; -123.824
593.244;  921.563; -695.116; -595.790
593.521;   78.748; -105.102;  -42.817
593.797;   -4.691; -810.122; -720.780
594.074;  342.244; -611.096; -588.826
594.350;  670.430;  828.905;  729.172
594.626;  304.615; -303.111; -283.801
594.903;  123.673; -643.101; -645.817
595.179;  182.554;  243.896;  418.187
595.455;   24.149; -136.107; -150.807
595.731;    3.356;  -19.103;  -38.814
596.008;  -28.966; -464.111; -434.800
596.284;   31.264; -187.100; -242.820
596.560;   79.352; -501.093; -493.833
596.836;  183.789; -173.105;  -70.810
597.112;  373.238; -582.108; -437.805
597.388;  291.516;  -49.097;  -48.826
597.665;  121.095;  437.887;  530.203
597.941;  -58.393; -572.089; -658.839
598.217;   27.848; -323.110; -293.802
598.493;  258.508;   61.891; -204.804
598.769;  553.658; -175.100;  -50.819
599.045;  326.416; -490.108; -562.806
599.321;   47.388; -193.100; -261.820
599.597;  142.458; -355.109; -476.804
599.872;  494.302;  409.896;  429.187
600.148;  383.893;  -61.097; -172.826
600.424;  315.847;   91.893;  202.193
600.700;  243.949; -170.107; -280.807
600.976;  126.737; -442.097; -464.825
601.252;  259.829; -226.109; -272.803
601.527;  230.653; -833.104; -840.813
601.803;  152.220; -453.105; -404.812
602.079;  202.133; -124.100; -118.819
602.354;  602.237; -620.092; -531.835
602.630;  862.818; -140.113; -482.796
602.906; 2323.803; -910.101; -863.818
603.181; 7019.816; -627.119; -534.786
603.457; 5964.441;   98.903; -278.826
603.733;  875.274; -605.120; -626.783
604.008;  963.011; -245.106; -164.810
604.284; 3166.725; -636.101; -580.817
604.559; 2748.629;   -3.112;  -42.799
604.835;  482.689; -163.105; -225.810
605.110;  446.569; -732.099; -892.821
605.385;  711.555;  224.907;  267.167
605.661;  677.633; -625.095; -729.829
605.936; 1232.767; -664.108; -737.806
606.211; 1012.563;  -17.103; -170.815
606.487;  216.282; -329.114; -376.794
606.762;   21.767; -791.119; -745.786
607.037;  -21.611; -501.105; -433.810
607.313;  -55.449; -589.096; -574.828
607.588;    1.811; -375.106; -137.810
607.863;   38.503;  -28.101; -143.818
608.138;  182.122;  513.890;  516.198
608.413;   29.948; -576.099; -592.822
608.688;   57.288; -203.108; -267.805
608.964;  207.480; -509.106; -218.809
609.239;  261.511; -107.105; -212.810
609.514;  247.195;  281.895;  240.188
609.789;  687.549; -187.104; -716.812
610.064;  895.125; -435.096; -609.827
610.339;  903.679; -855.109; -799.804
610.614; 1238.739; -131.100; -315.820
610.889;  677.070;  215.895;  107.188
611.163;   36.146; -407.104; -591.812
611.438;   89.508;   81.886; -167.794
611.713;    8.600; -467.101; -499.817
611.988;   59.902; -144.101; -328.818
612.263;  -18.460; -771.102; -717.815
612.538;  204.792;  385.887;  251.204
612.812;  189.215; -832.100; -911.820
613.087;  147.903; -358.098; -338.823
613.362;  -54.451; -497.107; -557.807
613.637;   48.884;  261.897;  138.186
613.911;   -9.537; -256.092; -345.835
614.186;  110.922; -249.107; -292.807
614.460;  711.160; -842.081; -758.854
614.735;  810.957;  -55.087;  -17.843
615.010;  156.996;   43.912;  -82.841
615.284;  245.987;  360.892;  246.195
615.559;  372.611; -792.092; -955.835
615.833;  304.746;  -76.099;  -87.822
616.108;   12.174; -225.090; -390.837
616.382;  147.783;  274.913;  402.156
616.656;  149.199; -241.090; -232.837
616.931;  546.821; -785.099; -700.822
617.205; 1095.554; -973.104; -979.813
617.480; 1026.109;  -91.125;    6.225
617.754;  156.031; -396.125; -128.774
618.028;   22.250; -369.129; -382.768
618.302;   67.961;   73.892;  -25.805
618.577;  -40.240; -371.103; -518.815
618.851;  -64.824; -399.109; -600.803
619.125;  -42.446; -335.134; -378.759
619.399;  -22.471; -244.104; -374.813
619.673;  -37.454; -330.115; -515.792
619.947;  -46.514; -333.114; -448.795
620.222;  -11.184; -198.110; -204.801
620.496;   -7.203;  -47.121;  -96.782
620.770;   15.738; -187.122;  -93.781
621.044;  214.312;  323.895;  346.190
621.318;  757.325; -653.120; -614.783
621.592;  673.773; -430.121; -409.783
621.866;  386.780; -476.112; -572.799
622.140;   22.889; -207.116; -356.791
622.413;   54.509;  138.889;  112.200
622.687;  -35.525; -746.101; -492.817
622.961;    9.336; -130.108; -143.805
623.235;  -62.015; -633.111; -661.800
623.509;  -96.531; -816.105; -848.811
623.783;    6.645;  -12.107;   48.193
624.056;  -15.874; -254.120; -280.783
624.330;   49.198;   63.888;   -3.797
624.604;   56.411; -271.116; -355.790
624.877;   64.271;  180.890;   26.198
625.151;   39.230; -249.114; -238.794
625.425;  -47.594; -150.103; -283.814
625.698;  -54.764; -367.119; -374.785
625.972;  -89.327; -799.110; -765.802
626.245;   85.188;  685.884;  484.210
626.519;  -36.970; -426.120; -340.784
626.792;  -30.501; -192.107; -380.807
627.066;  -82.994; -485.122; -662.779
627.339;  -79.131; -736.110; -663.802
627.613;   43.404;  351.880;  148.216
627.886;   54.725;  187.891; -612.803
628.160;  -17.850;  312.880; -161.783
628.433;  -80.688; -695.125; -703.775
628.706;  -92.770; -517.120; -615.784
628.979;   19.043;  296.876;  117.223
629.253;  -76.734; -785.119; -833.786
629.526;  390.770; -334.126; -253.772
629.799;  361.201; -641.123; -479.778
630.072;  180.902; -497.128; -516.769
630.346;  -68.787;-1115.116;-1080.790
630.619;  485.725; -467.107; -545.808
630.892;  650.761;  709.889;  593.200
631.165;  343.654;  790.896;  679.187
631.438;  -79.773;-1092.112;-1055.798
631.711;   44.029;  453.877;  257.221
631.984;  -57.592; -523.117; -624.789
632.257;  -78.271; -636.117; -681.789
632.530;  -38.714; -412.119; -433.785
632.803;   32.053; -109.115;    7.207
633.076;  -64.328; -360.123; -422.777
633.349;    8.881;  173.872;  121.231
633.622;  -35.290; -187.119; -240.785
633.895; -118.049; -903.120; -823.783
634.167;  -52.502; -496.126; -525.773
634.440;  -15.256;  -19.116; -137.792
634.713;  -18.210;  -22.119; -120.786
634.986;   89.096;  593.871;  453.233
635.258;  -78.974; -507.115; -597.793
635.531;   91.825;  742.882; -343.788
635.804;  -21.394; -303.117; -318.789
636.077;  -85.935; -830.116; -852.791
636.349;  -16.575; -586.115; -474.793
636.622;  368.570; 1695.874; 1392.228
636.894;  244.331; -474.120; -909.784
637.167;  170.763; -836.127; -789.771
637.439;   26.160; -278.128; -213.770
637.712;  -49.829; -312.126; -293.772
637.984;  -94.759; -635.116; -707.791
638.257;  359.523;  515.877;  488.222
638.529;  595.063; -881.125; -924.776
638.802;  248.002; -508.128; -449.769
639.074; -110.988; -927.122; -952.781
639.346; -108.254; -942.135; -930.757
639.619;  -11.772;  -79.142; -319.744
639.891;    2.381;  -83.122; -168.779
640.163;  -80.292; -689.122; -756.780
640.435;   32.435;  273.878;  103.220
640.708;   -3.913;  -72.122; -132.780
640.980;  -24.886; -366.122; -362.781
641.252;  173.941;  -25.121;  -71.781
641.524; 1830.567;  580.879;  573.219
641.796; 1888.469;-1094.121; -907.782
642.068;  349.646; -191.121; -300.782
642.340;  -67.952; -486.121; -566.783
642.613;   39.750;  294.880;  323.217
642.885;  -96.723; -787.120; -878.783
643.157;  -35.646; -810.120; -658.784
643.428;   52.431;  170.880;  218.216
643.700;  -65.592; -498.120; -425.784
643.972;  -39.440;  -16.119; -133.785
644.244;  -85.564; -474.119; -559.785
644.516;  -63.837; -250.119; -114.786
644.788;   52.540;  662.881;  548.214
645.060;  -27.283;  -12.119; -124.786
645.332;  -80.806; -525.118; -535.787
645.603;   31.996;  479.882;  342.213
645.875;  -74.202; -334.118; -369.787
646.147;  156.200; 1487.882; 1242.212
646.418;  -55.748; -931.117; -918.788
646.690;  149.004; -714.117; -715.789
646.962;   39.380; -413.117; -451.789
647.233;   -8.443;   15.883;   11.211
647.505;  -99.941; -595.117; -475.790
647.776;   15.061;  328.884;  229.210
648.048;    1.238; -248.116; -418.790
648.320;  -84.010; -752.116; -679.791
648.591; -149.933;-1055.116; -958.791
648.862; -100.806; -505.116; -577.792
649.134;    9.696;  115.885;  198.208
649.405;  -50.002; -661.115; -618.792
649.677;  -49.826; -475.115; -598.793
649.948;   -6.474; -181.115; -296.793
650.219;   -5.947;  -37.115; -147.793
650.491;  -95.120; -431.114; -520.794
650.762; -112.968; -705.114; -731.794
651.033;  -89.641; -437.114; -424.795
651.304;  -85.064; -743.114; -728.795
651.576;  -63.912; -680.114; -645.795
651.847;  -39.360; -250.113; -140.796
652.118;  -26.058;  -32.113; -189.796
652.389;  -90.432; -639.113; -722.796
652.660;  -36.205; -147.113;  -89.797
652.931; -143.853; -897.112; -871.797
653.202; -109.601; -382.112; -541.798
653.473;  -56.874; -633.112; -533.798
653.744;  150.578; -595.112; -590.798
654.015;  161.905; -356.112; -303.799
654.286;  -61.068; -642.111; -663.799
654.557;  -60.166; -586.111; -521.799
654.828; -160.639;-1114.111;-1088.800
655.099;  -89.863; -404.111; -291.800
655.370;  -88.111; -427.111; -543.801
655.641; -107.334; -656.110; -714.801
655.911; -112.157; -618.110; -638.801
656.182;   45.245;  437.890;  387.198
656.453;   75.572;  830.890;  746.198
656.724;  -75.801; -466.110; -426.802
656.994;  -84.524; -553.109; -568.803
657.265; -101.597; -862.109; -873.803
657.536;  -84.420; -500.109; -377.804
657.806; -111.819; -561.109; -593.804
658.077; -140.067; -866.109; -950.804
658.347;  -84.565; -523.108; -598.805
658.618; -131.713; -646.108; -694.805
658.888;  -20.636;  -41.108;  112.195
659.159;  -83.784; -432.108; -548.806
659.429;   -3.457; -292.108; -349.806
659.700;   15.720; -435.107; -390.807
659.970;   -9.228; -370.107; -359.807
660.241;   -8.201; -754.107; -921.807
660.511;  544.475; -147.107; -174.808
660.781;   93.452; -793.106; -748.808
661.052;  -54.271; -222.106; -381.808
661.322;  -32.344;   21.894;   -9.809
661.592;    4.883;  257.894;  148.191
661.862;  -69.790; -369.106; -382.810
662.133;  -92.263; -551.105; -502.810
662.403; -122.286; -770.105; -676.810
662.673;  -55.359; -256.105; -213.811
662.943;  -96.307; -612.105; -551.811
663.213;    0.969;  -85.105;  -81.811
663.483;  -74.104; -593.104; -568.812
663.753;  -37.902; -194.104; -152.812
664.023;  -17.550;   68.896;  -32.813
664.293;  -53.298; -319.104; -126.813
664.563; -109.871; -694.104; -648.813
664.833; -104.519; -743.103; -608.814
665.103; -116.392; -730.103; -793.814
665.373; -112.640; -766.103; -806.814
665.643;  -86.513; -863.103; -918.815
665.913;   44.713; -534.103; -714.815
666.182;  147.190; -685.102; -719.816
666.452;  280.217;  -22.102;  -89.816
666.722;  -15.531; -724.102; -784.816
666.992; -126.754; -948.102; -921.817
667.261; -104.827; -824.102; -808.817
667.531;  193.500;  134.899;   45.183
667.801;  552.677; -440.101; -412.818
668.070;  227.254;  714.899;  697.182
668.340;  -87.419; -883.101; -840.819
668.609;   77.857;  588.900;  301.181
668.879;  -82.141; -490.100; -558.819
669.149;  -77.464; -539.100; -516.820
669.418; -116.087; -698.100; -726.820
669.688;  -17.660; -482.100; -666.820
669.957;   81.942; -423.099; -546.821
670.226;  -24.306; -268.099; -331.821
670.496;  -98.304; -431.099; -635.822
670.765;  -77.877; -418.099; -501.822
671.034; -130.125; -872.099; -828.822
671.304;  -17.324;   55.902; -111.823
671.573; -143.672;-1085.098; -957.823
671.842;   76.755; -380.098; -294.823
672.112;   38.157; -692.098; -586.824
672.381;   10.234; -239.098; -214.824
672.650; -133.314;-1005.097;-1021.825
672.919;  -95.037; -631.097; -507.825
673.188;  -99.710; -681.097; -878.825
673.457; -142.258;-1101.097;-1143.826
673.726;  -92.981; -579.096; -646.826
673.995;  -35.255; -533.096; -479.826
674.265;  -26.178; -263.096; -333.827
674.534;   17.699; -183.096; -235.827
674.802;   11.551; -618.096; -703.828
675.071;  961.578; -886.095; -801.828
675.340; 4104.905; -464.095; -339.828
675.609; 1355.957;  103.905;   82.171
675.878;   89.759; -949.095; -893.829
676.147;   37.361;  -26.095;   -8.829
676.416;   88.813; -210.094; -294.830
676.685;  757.764; 1000.906; -622.830
676.953;  112.391; -603.094; -452.831
677.222;  -22.082; -193.094; -273.831
677.491;  -17.230;  -24.094; -127.831
677.759;   -2.128;   11.907;  172.168
678.028;  -12.501; -279.093; -222.832
678.297;   -3.949;   71.907;  197.168
678.565; -131.497; -898.093; -944.833
678.834;  -44.195; -311.093; -268.833
679.102;  -85.368; -411.092; -391.834
679.371; -140.242; -898.092; -727.834
679.639; -123.165; -797.092; -786.834
679.908; -112.538; -794.092; -724.835
680.176; -156.136; -895.091; -941.835
680.445;  -70.759; -346.091; -352.835
680.713;  -33.207;  -58.091;  -23.836
680.982;  -90.130; -523.091; -525.836
681.250;  -97.953; -578.091; -507.837
681.518;  -92.126; -534.090; -751.837
681.787;  -15.274; -204.090; -167.837
682.055;  -64.773; -490.090; -422.838
682.323; -138.946; -993.090; -992.838
682.591;   42.981; -216.090; -538.838
682.859;   80.733;    9.911;  -35.839
683.128;   23.835;  232.911;  497.161
683.396; -166.838;-1102.089;-1122.840
683.664;  -43.886; -241.089;   21.160
683.932;   -3.409;  144.911;  -76.840
684.200;  -69.232; -576.088; -320.841
684.468;  -32.005;  -73.088; -124.841
684.736;  -20.054; -214.088; -175.841
685.004; -120.652;-1024.088; -982.842
685.272;  -25.000; -880.088; -774.842
685.540;  -66.298; -499.087; -557.843
685.808;  -77.871; -651.087; -682.843
686.076; -116.619; -894.087; -969.843
686.343;  -56.192; -601.087; -815.844
686.611;   30.960; -195.087; -224.844
686.879;  426.912; -530.086; -553.844
687.147; 3437.739; -483.086; -480.845
687.414;  999.040;  -12.086; -169.845
687.682;   11.342; -658.086; -757.846
687.950;  316.794;  259.915;  263.154
688.217;   21.171; -792.085; -760.846
688.485;  -17.627; -632.085; -636.847
688.753;  532.500;  -11.085; -102.847
689.020;  202.252; -820.085; -851.847
689.288;  -99.821; -853.084; -787.848
689.555;  -17.594; -195.084; -148.848
689.823;  -49.292; -241.084; -345.849
690.090;  -75.666; -546.084; -651.849
690.358; -156.664; -877.084; -897.849
690.625;   10.538;  120.917;   45.150
690.892;  -76.660; -403.083; -369.850
691.160;   -7.158;   72.917;  -35.850
691.427;   -0.281;  141.917;  130.149
691.694; -119.879; -855.083; -929.851
691.962; -139.802;-1177.082;-1060.852
692.229;   18.250;  127.918;   56.148
692.496;   77.001;  130.918;  -49.852
692.763;   17.028; -164.082; -201.853
693.031;  -64.695; -739.082; -716.853
693.298;  -45.918; -509.081; -368.853
693.565;  286.159; -155.081; -163.854
693.832; 1350.111;   -5.081;   -9.854
694.099;  163.013; -643.081; -642.855
694.366;  -64.060; -882.081; -896.855
694.633;  -54.308; -920.080; -633.855
694.900;  707.094; 4367.920; -114.856
695.167;  444.495; -214.080; -380.856
695.434;  114.272; -646.080; -623.856
695.701;  200.099;  121.921;  -61.857
695.968;  490.526; -365.079; -361.857
696.234;  952.828; -415.079; -646.858
696.501;10521.255; -776.079; -614.858
696.768; 5676.057; -554.079; -617.858
697.035;  346.534; -632.078; -667.859
697.302;   36.686; -448.078; -552.859
697.568;   22.763; -458.078; -497.859
697.835;  -38.786; -683.078; -624.860
698.102;  -30.784; -498.078; -407.860
698.368;   78.043;  384.923;  396.139
698.635;  -25.580;  -47.077; -424.861
698.901;  -22.428; -240.077; -348.861
699.168;   73.074; -534.077; -456.862
699.435;   72.501;  -72.077;  -13.862
699.701;  -96.997; -868.076; -764.862
699.968;   -7.845;  144.924; -441.863
700.234;  -93.218; -783.076; -822.863
700.500;  -55.442; -448.076; -539.864
700.767;    9.185;   -1.075;   26.136
701.033; -131.113;-1015.075; -963.864
701.299;  -46.111; -450.075; -483.865
701.566;  108.441;  950.925;  763.135
701.832;   35.993;  -31.075;  -76.865
702.098; -106.805;-1054.074;-1034.866
702.365;  -81.278;-1098.074;-1030.866
702.631;  -29.676;-1038.074;-1063.867
702.897; 1310.926; -765.074; -676.867
703.163; 2397.627;  348.926;  254.133
703.429;  153.229; -256.073; -273.868
703.695;  -20.169; -796.073; -792.868
703.961;   20.258; -214.073; -210.868
704.227;  -45.665; -630.073; -725.869
704.493;  125.287;  613.927;  510.131
704.759;  -21.436; -565.072; -540.870
705.025;   44.566; -203.072; -194.870
705.291;  -17.807; -666.072; -562.870
705.557;  199.820;  719.928;   34.129
705.823;   35.496; -742.072; -694.871
706.089;  159.073; -307.071; -326.871
706.355;  333.575; -315.071; -244.872
706.620; 5444.727; -776.071; -729.872
706.886; 8296.829; -309.071; -362.873
707.152;  807.781; -818.070; -973.873
707.418;   -3.917;-1153.070;-1186.873
707.683;   18.660; -550.070; -530.874
707.949;  -48.463; -547.070; -578.874
708.215;   16.239; -129.070; -207.874
708.480;  -27.385; -520.069; -420.875
708.746;   97.392;   68.931;   28.125
709.011;  -65.106; -578.069; -612.876
709.277;  -70.579; -538.069; -543.876
709.542;  -48.752; -428.069; -387.876
709.808;   -9.550;  -59.068;   89.123
710.073;  -94.498; -577.068; -695.877
710.339;  -28.871; -242.068; -228.877
710.604;   73.206; -780.068; -845.878
710.869;  365.158; -277.068; -366.878
711.135;  -66.391; -715.067; -628.879
711.400;  -67.614; -507.067; -608.879
711.665;  -75.012; -404.067; -479.879
711.931;  -93.685; -661.067; -677.880
712.196; -110.383; -876.067; -954.880
712.461;  107.919; -402.066; -490.880
712.726;  158.271; -727.066; -771.881
712.991;  -69.202; -647.066; -664.881
713.256;  -50.325; -350.066; -332.882
713.521;  -39.973; -417.065; -381.882
713.787;  -71.072; -454.065; -472.882
714.052;  -16.845; -214.065; -400.883
714.317;  -93.718;-1045.065; -981.883
714.581;  997.259; -374.065; -268.883
714.846; 1515.736; -822.064; -888.884
715.111;  140.813;  261.936;  257.116
715.376;  -31.010;  -86.064; -223.885
715.641;  -17.183; -365.064; -367.885
715.906;  295.119;   15.936; -551.885
716.171;  125.196;  221.937;  209.114
716.436;   27.997;  -78.063; -104.886
716.700;  -93.076; -818.063; -692.886
716.965; -122.624; -794.063; -807.887
717.230;  -68.897; -339.063; -392.887
717.494;  -23.170;  -40.062; -134.888
717.759;  -92.618; -784.062; -640.888
718.024;    3.934;  269.938;  250.112
718.288;   78.861;  685.938;  395.111
718.553; -154.787; -803.062; -977.889
718.817; -144.635; -883.061; -899.889
719.082;  -57.334; -115.061; -125.890
719.346; -135.507;-1000.061; -947.890
719.611;  -55.055; -300.061; -255.891
719.875; -100.328; -568.060; -537.891
720.140;  -67.326; -453.060; -603.891
720.404;   20.826; -136.060; -249.892
720.668;  843.503; -475.060; -411.892
720.933;  365.230;  146.940;  137.108
721.197; -106.543; -667.059; -600.893
721.461; -131.766; -851.059; -826.893
721.725;  -17.765;  -21.059; -250.894
721.990;  -67.388; -284.059; -204.894
722.254;  -33.236;  -26.059; -108.894
722.518;  -65.634; -286.058; -442.895
722.782;  -89.382; -743.058; -594.895
723.046;  118.070;  614.942;  570.105
723.310;    2.147;  374.942;  210.104
723.574;  -92.776; -654.058; -614.896
723.838;  -88.624; -576.057; -642.897
724.102;  -39.547; -226.057; -239.897
724.366; -142.321;-1032.057; -978.897
724.630;  -74.394; -749.057; -571.898
724.894;  -84.892; -722.057; -514.898
725.158;   -4.390;   38.944; -295.898
725.422;  -56.413; -394.056; -327.899
725.685;  -69.011; -441.056; -349.899
725.949;  -79.559; -566.056; -519.900
726.213;  -71.282; -732.056; -811.900
726.477;  178.145;-1020.055; -933.900
726.740;  149.947; -274.055; -104.901
727.004;  304.898; -384.055; -510.901
727.268; 3318.575; -442.055; -400.901
727.531; 1032.527; -961.055; -775.902
727.795;  -22.846; -713.054; -673.902
728.059;  -54.994; -552.054; -557.903
728.322;  -77.317; -841.054; -669.903
728.586;   21.835; -692.054; -701.903
728.849;  -72.888; -695.053; -756.904
729.112; -100.436; -812.053; -912.904
729.376; -122.084; -959.053; -905.904
729.639;  -87.108; -536.053; -536.905
729.903; -103.181; -733.053; -699.905
730.166;  -49.454; -437.052; -399.906
730.429;  -24.652; -317.052; -468.906
730.693;  -59.300; -355.052; -894.906
730.956;  183.952;  810.948;  651.093
731.219;  718.629; -310.052; -103.907
731.482;  122.156;-1003.051; -894.907
731.745;  115.783; -794.051; -935.908
732.009;   10.660;  -30.051;   50.092
732.272;  -97.839; -904.051; -771.909
732.535;  -47.612; -300.051; -310.909
732.798; -142.310;-1083.050;-1166.909
733.061;  -49.783; -430.050; -456.910
733.324;   -0.606;   31.950; -180.910
733.587;   76.046;  290.950;  365.090
733.850;  -68.952; -973.049;-1050.911
734.113;   20.300;   33.951;   32.089
734.376;   -0.048; -328.049; -447.912
734.639;  218.804; 1188.951; 1011.088
734.901;   70.555; -180.049; -402.912
735.164;  480.182; -883.048; -837.913
735.427; 1403.109; -166.048; -355.913
735.690;  131.611; -205.048; -234.913
735.952;  -21.687; -923.048; -925.914
736.215;   -8.335;-1113.048;-1009.914
736.478;   43.817; -771.047; -774.915
736.740;  216.469;   33.953;  129.085
737.003;  620.421; -658.047; -672.915
737.266; 4190.723;  -94.047;   46.084
737.528;  477.374; -682.047; -660.916
737.791;  333.151; -316.046; -327.916
738.053;  789.903;  465.954;  649.083
738.316;10573.630; -162.046; -136.917
738.578; 8477.082; -770.046; -736.918
738.841;  466.784; -382.046; -446.918
739.103;  169.611; -875.045; -777.918
739.365;  536.388;   79.955;  -69.919
739.628;    7.090; -884.045; -805.919
739.890;  -10.258; -758.045; -710.919
740.152;  -44.482; -692.044; -754.920
740.414;    2.795; -408.044; -359.920
740.677;  -53.828; -785.044; -634.921
740.939;  -37.826; -587.044; -487.921
741.201;  272.326; -432.044; -572.921
741.463;   70.003; -689.043; -745.922
741.725;    2.655;  -21.043; -199.922
741.987;   47.357;  220.957;  116.078
742.249;    3.384; -751.043; -859.923
742.511;  229.161; -703.043; -794.923
742.773;   13.887; -546.042; -546.924
743.035;  120.014;  796.958;  533.076
743.297;  -40.659; -963.042;-1013.924
743.559;  763.593; -278.042; -262.925
743.821;   74.870; -735.042; -744.925
744.083;   24.572;  -44.041; -149.925
744.345;  -96.326; -869.041; -892.926
744.607;   41.451;   75.959;  122.074
744.868;  -45.872; -490.041; -554.927
745.130;  -95.370; -994.041;-1008.927
745.392;   30.956;   -1.040;  -44.927
745.653;   -9.342; -411.040; -378.928
745.915;  149.435;  896.960;  631.072
746.177;   49.887;   35.960;  -43.928
746.438;    0.239; -428.040; -543.929
746.700;  -47.409; -947.039; -988.929
746.961;    1.243; -659.039; -740.930
747.223;  140.070; -190.039;  -74.930
747.484;   89.897; -391.039; -471.930
747.746;  157.174;  -23.038; -106.931
748.007;  134.250; -647.038; -689.931
748.269;  307.052; -468.038; -440.931
748.530;  488.404; -852.038; -638.932
748.791;  282.231; -354.038; -420.932
749.053;  447.258;  286.963;  163.067
749.314;  486.660; -236.037; -169.933
749.575;  529.137; -945.037; -905.933
749.836;  884.439; -217.037;   86.066
750.098; 2291.616;  -60.037;  -21.934
750.359;36465.093;  414.964;  555.066
750.620;10756.894; -121.036; -220.935
750.881; 1073.771; -585.036; -513.935
751.142; 1368.498; -950.036; -938.936
751.403;16300.900; -789.036; -705.936
751.664; 8362.152;-1034.035; -999.936
751.925;  554.204; -175.035; -262.937
752.186;  285.981; -298.035; -278.937
752.447;  136.883; -590.035; -445.937
752.708;   53.910; -532.035; -648.938
752.969;   24.862; -566.034; -576.938
753.230;   -3.687; -777.034; -672.939
753.491;   11.315; -650.034; -631.939
753.751;   62.542;  109.966;   19.061
754.012;   99.994;  258.967;  181.060
754.273;   56.896; -174.033;  -71.940
754.534;   18.473; -487.033; -580.940
754.794;  -83.375; -926.033; -911.941
755.055;  130.102; 1051.967;  881.059
755.316;  -45.571; -700.032; -566.942
755.576;  -23.019; -606.032; -576.942
755.837;  -54.818; -527.032; -695.942
756.097;  -26.941; -530.032; -564.943
756.358;  -60.064; -725.032; -770.943
756.618;  -38.887; -705.031; -641.943
756.879;    4.790; -254.031; -349.944
757.139;  -95.683;-1098.031;-1116.944
757.400;  -50.131; -538.031; -553.945
757.660;  -18.579; -365.031; -401.945
757.920;   -8.077; -266.030; -228.945
758.181;    1.650; -468.030; -351.946
758.441;  -81.899; -870.030; -809.946
758.701;  -32.947; -308.030; -215.946
758.961;  -17.420; -220.030; -278.947
759.222;  -36.518; -574.029; -502.947
759.482;  -81.066; -683.029; -723.948
759.742;  -78.139; -706.029; -547.948
760.002;    5.388;  -83.029; -143.948
760.262;   27.565;   50.972;  182.051
760.522;  -34.508; -498.028; -574.949
760.782;  -37.456; -738.028; -612.949
761.042;  -22.030; -618.028; -573.950
761.302;   74.197;   55.972;  -18.950
761.562;   55.649; -164.027; -154.951
761.822;   99.576; -710.027; -551.951
762.082;  -24.672;-1104.027;-1093.951
762.342;   82.280; -328.027; -403.952
762.601;   87.857; -567.027; -506.952
762.861;  369.534; -281.026; -207.952
763.121;  406.286; -406.026; -411.953
763.381; 7275.788; -499.026; -485.953
763.640; 9406.739; -139.026; -307.954
763.900;  410.541; -242.026; -203.954
764.160;   94.718; -458.025; -491.954
764.419;   -5.655; -726.025; -782.955
764.679;  -60.378; -795.025; -726.955
764.939;   -1.351; -124.025; -210.955
765.198;  -79.824; -608.025; -563.956
765.458;  -73.097; -710.024; -612.956
765.717;  -84.445; -454.024; -590.957
765.976;  -57.293; -428.024; -411.957
766.236;  -75.717; -475.024; -610.957
766.495;   24.735;  260.977;   73.042
766.755;  -93.488;-1090.023; -987.958
767.014;   26.539; -594.023; -665.958
767.273;  -40.384; -373.023; -397.959
767.533;  -34.007; -228.023; -307.959
767.792;  -33.105; -151.022; -188.960
768.051;  -51.628; -228.022; -276.960
768.310;  -70.401; -546.022; -650.960
768.569;   -2.599; -161.022;    4.039
768.828;  -51.473; -285.022; -363.961
769.088; -106.221;-1050.021; -942.961
769.347;  -75.219; -755.021; -599.962
769.606;  -76.192; -876.021; -857.962
769.865; -112.390;-1016.021;-1033.963
770.124;    7.762; -411.021; -336.963
770.383;  -45.236; -778.020; -910.963
770.641;   20.841; -398.020; -400.964
770.900;  -63.482; -953.020; -846.964
771.159;  -35.305; -851.020; -951.964
771.418;  -10.604; -917.020; -779.965
771.677;  135.198; -224.019; -293.965
771.936;  124.375; -794.019; -865.966
772.194; 1909.052; -465.019; -437.966
772.453;11725.254; -213.019; -391.966
772.712;  912.031;  416.982;  329.033
772.970;  136.533;   32.982;   63.033
773.229;   79.110;  -22.018;  102.033
773.488;  -87.238; -814.018; -770.968
773.746;   67.439;  296.982;  335.032
774.005;   -6.835;  190.983;  -22.969
774.263;   29.592;  243.983;  177.031
774.522;  -44.931; -422.017; -548.969
774.780;  -68.929; -484.017; -417.970
775.039;  -99.602; -551.017; -531.970
775.297;  -31.025; -135.016; -351.970
775.555; -104.698; -489.016; -612.971
775.814; -116.821; -618.016; -570.971
776.072; -125.619; -749.016; -740.971
776.330;  -92.917; -630.016; -520.972
776.589; -119.466; -703.015; -721.972
776.847; -114.464; -645.015; -624.973
777.105; -168.112;-1016.015;-1032.973
777.363;  -72.710; -459.015; -454.973
777.621; -136.533; -660.015; -717.974
777.879;  -18.731;  -42.014;   32.026
778.138; -114.304; -554.014; -717.974
778.396;  -93.677; -585.014; -526.975
778.654; -168.025;-1015.014; -970.975
778.912;  -71.673; -269.014; -371.976
779.170; -138.272; -880.013; -803.976
779.427; -144.270; -922.013; -897.976
779.685; -141.293; -880.013; -832.977
779.943;  -77.291; -654.013; -593.977
780.201; -150.264; -964.012; -883.978
780.459; -109.362; -651.012; -610.978
780.717;  -92.135; -440.012; -390.978
780.974;  -98.108; -449.012; -490.979
781.232;  -84.006; -358.012; -338.979
781.490;  -81.729; -551.011; -472.979
781.747; -107.328; -555.011; -476.980
782.005;   27.674;  462.989;  254.020
782.263; -160.524; -542.011;-1004.981
782.520;  -93.147; -326.011; -501.981
782.778; -161.170;-1013.010;-1051.981
783.035; -154.043; -962.010; -938.982
783.293;  -65.691; -248.010; -206.982
783.550;  -61.114; -134.010; -198.982
783.808; -141.912; -764.010; -776.983
784.065; -159.785; -745.009; -874.983
784.322;  -54.159;   25.991;  -86.984
784.580; -139.157; -915.009; -771.984
784.837; -102.205; -392.009; -466.984
785.094; -137.728; -783.009; -762.985
785.352;  -79.976; -304.008; -404.985
785.609;  -87.999; -934.008; -839.985
785.866;  -79.347; -345.008; -401.986
786.123;  -65.545; -639.008; -583.986
786.380;  -97.143; -665.008; -604.987
786.637;  -50.466; -225.007; -380.987
786.895;  -13.640; -456.007; -543.987
787.152;  -58.063; -135.007; -267.988
787.409;  -62.211; -123.007; -225.988
787.666;  -79.084; -299.006; -378.988
787.923; -112.282; -616.006; -695.989
788.179;  -95.330; -551.006; -584.989
788.436; -102.228; -585.006; -585.990
788.693;  -35.026;  -92.006;  -87.990
788.950;  109.826; -125.005; -112.990
789.207;  248.003; -381.005; -372.991
789.464;  -65.846; -161.005; -301.991
789.720;   -5.394;  150.995;  110.009
789.977; -170.817;-1003.005; -671.992
790.234;  -35.190;   44.996;  -66.992
790.490; -137.338; -884.004;-1031.993
790.747;  -27.461;  -85.004;   22.007
791.004;  -27.984; -426.004; -348.993
791.260;  -72.532; -430.004; -560.994
791.517; -109.230; -843.003; -788.994
791.773;  -39.803; -379.003; -342.994
792.030; -107.652; -596.003; -660.995
792.286;  -96.550; -686.003; -636.995
792.543;  -27.698;  -74.002; -159.995
792.799;  -41.446; -584.002; -382.996
793.055; -173.044;-1179.002;-1210.996
793.312;  -84.517; -827.002; -816.997
793.568;  -58.165; -746.002; -599.997
793.824;   12.212; -226.001; -284.997
794.081;   20.814; -447.001; -508.998
794.337;   72.491; -664.001; -561.998
794.593; 1159.517; -319.001; -271.999
794.849; 7145.919; -746.001; -772.999
795.105;  419.896; -270.000; -261.999
795.361;   19.323; -490.000; -457.000
795.617;  -44.150; -875.000; -945.000
795.873;  -46.700; -360.000; -407.000
796.129;  -31.425; -368.000; -306.000
796.385;  -19.300; -124.000; -156.000
796.641;   65.575;  412.000;  550.000
796.897;  -93.300; -666.000; -635.000
797.153;   60.800;  453.000;  357.000
797.409;  -95.425; -785.000; -868.000
797.665;  -76.050; -625.000; -732.000
797.921;  -69.425; -775.000; -762.000
798.176;  -59.275; -744.000; -747.000
798.432;  -43.950; -824.000; -596.000
798.688;  -62.975;-1174.000;-1078.000
798.943;   98.275; -165.000; -147.000
799.199;   13.850;-1005.000; -959.000
799.455;  242.750;  369.000;  316.000
799.710;  140.100; -813.000; -380.000
799.966;  331.050; -162.000; -160.000
800.221;  466.675; -638.000; -721.000
800.477; 9702.500; -743.000; -710.000
800.732;10588.525; -773.000; -800.000
800.988;  682.100;  205.000;  -19.000
801.243; 1569.850; -454.000; -344.000
801.498; 8347.450; -814.000; -739.000
801.754;  539.275; -289.000; -163.000
802.009;  109.250; -257.000; -335.000
802.264;  -43.000; -967.000;-1033.000
802.520;   24.125;  222.000;   -3.000
802.775;  -37.375; -524.000; -359.000
803.030;   45.900;  395.000;  356.000
803.285; -104.175; -840.000; -903.000
803.540;  -35.475; -686.000; -699.000
803.795;  -35.775; -648.000; -583.000
804.051;  -34.700; -279.000; -346.000
804.306;   24.325;  168.000;  128.000
804.561;  163.300;  451.000;  362.000
804.816;  123.725;  714.000;  861.000
805.071;    2.875; -185.000; -280.000
805.325;  210.250; -257.000; -427.000
805.580;  -80.150; -841.000; -877.000
805.835;  -25.500; -204.000; -297.000
806.090;  -63.250; -760.000; -676.000
806.345;  -32.450; -344.000; -264.000
806.600;  -10.225; -549.000; -632.000
806.854;  -29.025; -408.000; -538.000
807.109;    0.875; -493.000; -577.000
807.364;   11.800; -407.000; -328.000
807.618;   16.600; -415.000; -381.000
807.873;   60.075; -470.000; -494.000
808.128;   99.250; -257.000; -518.000
808.382;  125.550; -224.000; -332.000
808.637;   97.250; -440.000; -511.000
808.891;  198.875; -257.000; -180.000
809.146;  118.850; -902.000; -794.000
809.400;  285.350; -848.000; -923.000
809.654;  358.625; -779.000; -551.000
809.909;  505.925; -841.000; -927.000
810.163; 5911.675; -813.000; -651.000
810.418;18924.200; -940.000; -861.000
810.672; 1225.700; -685.000; -690.000
810.926;  783.925; -993.000; -973.000
811.180; 1403.175; -439.000; -372.000
811.434;31346.650;  240.000;  135.000
811.689;15881.350; -231.000; -365.000
811.943;  725.675; -936.000; -953.000
812.197;  384.325; -893.000; -671.000
812.451;  171.850; -379.000; -514.000
812.705;   -4.675; -809.000; -619.000
812.959;    9.850; -263.000; -388.000
813.213;    4.325; -283.000; -209.000
813.467;   66.975;  470.000;  253.000
813.721;  -96.850; -764.000; -792.000
813.975; -107.575; -826.000; -877.000
814.229;   56.075;  430.000;  353.000
814.482;  -64.750; -517.000; -566.000
814.736; -102.850; -766.000; -744.000
814.990; -116.625; -779.000; -872.000
815.244;  -45.750; -228.000; -285.000
815.497;  -93.150; -636.000; -601.000
815.751;  -12.225; -141.000;   82.000
816.005;  -84.200; -470.000; -586.000
816.258;  -66.425; -510.000; -363.000
816.512; -104.525; -693.000; -610.000
816.766;   -2.625;  121.000;  157.000
817.019;    0.525;  148.000;  149.000
817.273; -100.125;-1000.000; -802.000
817.526;  -31.925; -206.000; -173.000
817.779;  -26.275;-1049.000; -960.000
818.033;  -63.925; -693.000; -807.000
818.286; -107.700; -725.000; -792.000
818.540;  -86.850; -403.000; -403.000
818.793;  -68.975; -402.000; -489.000
819.046;  -97.175; -582.000; -520.000
819.299;  -24.600; -157.000; -166.000
819.553; -126.225; -552.000; -592.000
819.806; -146.500;-1016.000; -838.000
820.059;  -62.525; -334.000; -354.000
820.312;    9.675;  152.000;  185.000
820.565;  -19.175;  110.000;  -27.000
820.818;  -42.600;  -59.000; -173.000
821.071; -166.175;-1041.000; -957.000
821.324;  -97.000; -536.000; -540.000
821.577; -110.675; -457.000; -483.000
821.830;  -61.825; -270.000; -172.000
822.083; -132.225; -733.000; -288.000
822.336;  -40.025; -261.000; -167.000
822.589; -128.475; -805.000; -688.000
822.842; -148.400; -875.000; -770.000
823.094; -165.975;-1076.000;-1114.000
823.347; -118.900; -925.000; -729.000
823.600;    5.025;  402.000;  187.000
823.853;  -58.575; -311.000; -267.000
824.105;  -66.950; -331.000; -575.000
824.358; -103.350; -617.000; -716.000
824.611;   28.900;  234.000;   40.000
824.863;  -39.950; -612.000; -591.000
825.116;   34.425;  -33.000;   27.000
825.368;   85.175; -366.000; -372.000
825.621;  174.600; -186.000; -240.000
825.873;  100.600; -704.000; -737.000
826.126;  521.200; -669.000; -641.000
826.378;11418.825; -389.000; -505.000
826.630; 3627.975; -890.000; -898.000
826.883;   77.825; -754.000; -693.000
827.135;   58.050; -279.000; -270.000
827.387;  -96.000; -893.000; -839.000
827.639;  -24.000;  -86.000;   32.000
827.892; -120.300; -742.000; -582.000
828.144; -145.125; -848.000; -804.000
828.396;  -27.725;  104.000;  -80.000
828.648; -104.825; -440.000; -333.000
828.900; -132.525; -702.000; -795.000
829.152; -118.650; -684.000; -683.000
829.404;  -69.450; -215.000; -267.000
829.656;    2.375;  321.000;  214.000
829.908;  -14.175;  393.000;  229.000
830.160; -159.150;-1064.000;-1047.000
830.412;  -93.700; -481.000; -430.000
830.664; -126.950; -557.000; -665.000
830.916;  -63.825; -268.000; -206.000
831.167; -184.375;-1073.000; -951.000
831.419; -103.375; -623.000; -566.000
831.671; -152.750; -764.000; -809.000
831.923;  -88.575; -311.000; -447.000
832.174;  -71.850; -273.000; -331.000
832.426; -105.975; -493.000; -582.000
832.678; -187.550;-1043.000;-1091.000
832.929; -154.125; -947.000; -935.000
833.181;  -72.700; -575.000; -677.000
833.432;  -52.850;  -59.000; -186.000
833.684;  -17.600;  112.000;  -27.000
833.935; -116.625; -610.000; -566.000
834.187; -116.800; -829.000; -823.000
834.438;  -30.550;  -58.000;  -25.000
834.689;  -70.800; -255.000; -123.000
834.941;  -53.525; -343.000; -244.000
835.192; -109.125; -590.000; -533.000
835.443;  -91.575; -419.000; -506.000
835.695;  -23.675;  138.000;  -16.000
835.946;  -76.825; -608.000; -378.000
836.197; -112.500; -599.000; -622.000
836.448;  -80.175; -528.000; -395.000
836.699;  -54.550; -253.000; -341.000
836.950;   -9.925;   72.000;    7.000
837.201; -134.250;-1003.000; -987.000
837.452;  -65.450; -356.000; -170.000
837.703; -118.500; -791.000; -737.000
837.954;  -39.925; -205.000; -365.000
838.205;  -92.100;-1029.000;-1008.000
838.456;  186.875; -196.000; -282.000
838.707;   18.100; -423.000; -519.000
838.958;    7.000; -634.000; -647.000
839.209;  278.100;   18.000;   40.000
839.460;  139.575; -439.000; -201.000
839.710;  174.975; -135.000; -297.000
839.961;  440.400;  730.000;  612.000
840.212;  363.800; -382.000; -497.000
840.462; 1059.075; -328.000; -277.000
840.713;17227.200; -571.000; -536.000
840.964; 8779.625;  -62.000; -143.000
841.214;  549.975; -384.000; -624.000
841.465;  600.500; -214.000; -141.000
841.715;  540.050; -417.000; -380.000
841.966;  706.650; -746.000; -685.000
842.216; 7888.250; -330.000; -431.000
842.466;37483.575; -169.000; -313.000
842.717; 2716.200; -964.000; -952.000
842.967;  343.450; -635.000; -641.000
843.217;  311.800;   20.000;   28.000
843.468;   87.425; -104.000; -132.000
843.718;  -32.275; -718.000; -726.000
843.968;  -81.175; -837.000; -765.000
844.218;   11.950; -315.000; -262.000
844.469;  -32.100; -577.000; -561.000
844.719; -115.050; -537.000; -682.000
844.969;  -87.225; -550.000; -580.000
845.219; -135.100; -814.000; -862.000
845.469;  -78.550; -392.000; -342.000
845.719; -140.200; -792.000; -884.000
845.969;  -12.400;  119.000;  174.000
846.219; -134.725; -738.000; -720.000
846.469;   20.925;  464.000;  432.000
846.718;  -53.575; -115.000;   31.000
846.968; -137.100; -827.000; -827.000
847.218;  -61.050; -224.000; -371.000
847.468;    3.875; -586.000; -555.000
847.718; -148.275; -827.000; -798.000
847.967; -127.725; -826.000; -915.000
848.217;  -80.825; -449.000; -569.000
848.467;  -53.750; -405.000; -376.000
848.716; -118.800; -708.000; -725.000
848.966;  -12.225; -372.000; -358.000
849.215;  -69.650; -428.000; -419.000
849.465;  -93.025; -785.000; -615.000
849.714; -123.900;-1132.000;-1150.000
849.964;  -44.625; -551.000; -613.000
850.213;  -21.850; -393.000; -355.000
850.463;   86.925;  137.000;  340.000
850.712;    5.575; -542.000; -567.000
850.961;   18.950; -739.000; -678.000
851.211;  102.800; -513.000; -504.000
851.460;  184.200; -635.000; -650.000
851.709;  560.650;  -25.000;   18.000
851.958; 9451.975; -912.000; -750.000
852.208;14604.800; -859.000; -879.000
852.457;  592.525; -181.000;  -13.000
852.706;   77.950; -791.000; -823.000
852.955;   44.650; -507.000; -528.000
853.204;  -71.700; -521.000; -461.000
853.453;  -73.925; -418.000; -458.000
853.702; -121.075; -660.000; -750.000
853.951;  -94.625; -532.000; -520.000
854.200; -112.650; -613.000; -562.000
854.449; -134.900; -695.000; -661.000
854.698;  -91.375; -340.000; -279.000
854.946;  -60.975; -181.000; -284.000
855.195; -156.100; -843.000; -868.000
855.444; -100.825; -395.000; -420.000
855.693; -135.650; -345.000; -432.000
855.941; -100.775; -387.000; -516.000
856.190;  -62.675; -256.000; -382.000
856.439; -119.750; -652.000; -703.000
856.687;  -59.700;  -99.000;  -72.000
856.936; -110.275; -621.000; -323.000
857.184; -178.775;-1067.000;-1020.000
857.433; -102.675; -423.000; -512.000
857.681; -166.275; -989.000; -953.000
857.930;  -78.575; -282.000; -433.000
858.178; -182.900; -856.000; -929.000
858.427; -143.550; -802.000; -781.000
858.675; -129.600; -377.000; -544.000
858.923; -106.725; -527.000; -819.000
859.172; -183.000;-1094.000;-1070.000
859.420;  -80.075; -339.000; -239.000
859.668; -148.000; -624.000; -628.000
859.916;  -27.825;  109.000;  115.000
860.164; -122.525; -699.000; -603.000
860.413;  250.725; -878.000; -696.000
860.661;  292.125; -709.000; -577.000
860.909;  -75.400; -339.000; -325.000
861.157;  -96.800; -277.000; -444.000
861.405; -110.325; -534.000; -670.000
861.653;   14.725;  310.000;  310.000
861.901;  155.000; -543.000; -613.000
862.149;   45.000; -801.000; -824.000
862.396;  -82.950; -297.000; -187.000
862.644; -103.900; -368.000; -347.000
862.892;  -39.125;   98.000;  138.000
863.140; -129.875; -549.000; -530.000
863.388; -159.900; -815.000; -759.000
863.635; -128.900; -642.000; -601.000
863.883;   -5.725;  231.000;  190.000
864.131;  -95.300; -288.000; -357.000
864.378; -129.275; -675.000; -540.000
864.626; -106.475; -347.000; -415.000
864.873; -117.825; -556.000; -505.000
865.121; -140.400; -714.000; -799.000
865.368;  -42.875; -173.000;   75.000
865.616;  -53.825;  -33.000;  -40.000
865.863;  -69.875; -462.000; -506.000
866.111;  -96.775; -795.000; -824.000
866.358;   12.425; -426.000; -420.000
866.605; 1993.900;  -64.000; -804.000
866.853; 2629.850; -621.000; -537.000
867.100;  -24.450; -728.000; -775.000
867.347;  -97.900; -672.000; -611.000
867.594;  -97.450; -740.000; -714.000
867.841;  112.925;   97.000;   17.000
868.089; -147.375; -746.000; -698.000
868.336;  -94.475; -477.000; -420.000
868.583; -158.150; -637.000; -741.000
868.830;  -68.900; -131.000; -170.000
869.077; -165.750; -859.000; -787.000
869.324; -127.200; -502.000; -458.000
869.571; -126.125; -398.000; -430.000
869.818; -117.175; -485.000; -439.000
870.065; -100.425; -439.000; -513.000
870.311; -108.075; -456.000; -542.000
870.558; -117.400; -332.000; -311.000
870.805;  -80.750; -320.000; -384.000
871.052; -112.625; -494.000; -369.000
871.298;  -60.225; -204.000; -131.000
871.545;  -71.775; -151.000; -185.000
871.792;  -83.750; -173.000; -222.000
872.038;  -70.150;   43.000; -126.000
872.285; -123.775; -496.000; -387.000
872.532;  -96.450; -357.000; -387.000
872.778;    3.050;  556.000;  403.000
873.025; -103.275; -384.000; -359.000
873.271;   17.175;  501.000;  578.000
873.517;  -41.200; -133.000; -209.000
873.764;  -30.825; -193.000;  -80.000
874.010;  -68.600; -143.000; -230.000
874.257;  -35.425;  123.000;   90.000
874.503; -125.850; -579.000; -479.000
874.749;  -59.650;   31.000;  275.000
874.995;  -68.900;  -80.000;  -20.000
875.242; -130.375; -540.000; -478.000
875.488; -117.100; -414.000; -439.000
875.734;  -44.800; -106.000; -234.000
875.980;  160.500; -872.000;-1032.000
876.226;  428.275; -157.000; -255.000
876.472;   -9.425;  343.000;  237.000
876.718;  -36.925;  184.000;  158.000
876.964;  -36.300;   56.000;   55.000
877.210; -139.275; -547.000; -677.000
877.456; -146.650; -630.000; -557.000
877.702; -173.500; -821.000; -832.000
877.948; -119.175; -377.000; -497.000
878.193;   -6.050;  361.000;  255.000
878.439;  -86.525; -487.000; -472.000
878.685;  -86.525; -272.000; -343.000
878.931; -127.125; -618.000; -676.000
879.176;  -75.850; -201.000; -201.000
879.422; -173.700; -933.000; -820.000
879.668;   54.575;   10.000;   79.000
879.913;  146.700;   53.000;  137.000
880.159;  -61.550; -112.000;  -17.000
880.404;  -58.750; -152.000; -162.000
880.650;  -42.575;   91.000;  141.000
880.895; -160.925; -670.000; -710.000
881.141; -118.600; -454.000; -428.000
881.386; -140.800; -503.000; -658.000
881.631;  -80.175; -311.000; -166.000
881.877;  -48.550;  112.000;  -13.000
882.122; -123.725; -684.000; -600.000
882.367; -103.000; -136.000; -186.000
882.612;  -82.300;  -80.000; -176.000
882.858; -168.050; -877.000; -823.000
883.103;  -90.350; -297.000; -267.000
883.348; -151.675; -759.000; -852.000
883.593; -140.900; -677.000; -602.000
883.838;  -59.300; -311.000;  -24.000
884.083;   38.100;  353.000;  288.000
884.328;  -94.250; -564.000; -545.000
884.573;  -49.675; -196.000; -143.000
884.818;  173.250; -694.000; -531.000
885.063;  217.800; -348.000; -315.000
885.308; -117.575; -475.000; -398.000
885.553;  -13.050;  245.000;  325.000
885.797; -122.400; -545.000; -615.000
886.042;  -55.975;    8.000;   58.000
886.287;  -92.750; -253.000; -211.000
886.532;  -55.700;   26.000;  204.000
886.776;  -97.950; -407.000; -525.000
887.021; -136.250; -621.000; -574.000
887.265; -152.575; -685.000; -689.000
887.510; -136.325; -557.000; -496.000
887.755;  -96.300; -194.000; -164.000
887.999; -142.850; -552.000; -575.000
888.244;  -71.050;  -58.000;  161.000
888.488;    0.450;  371.000;  393.000
888.732; -121.750; -368.000; -520.000
888.977; -133.000; -622.000; -567.000
889.221; -159.525; -683.000; -659.000
889.465; -107.075; -422.000; -566.000
889.710;  -83.675;  -56.000; -299.000
889.954;   -0.075;  579.000;  467.000
890.198; -148.675; -584.000; -707.000
890.442; -151.000; -716.000; -712.000
890.687; -163.225; -800.000; -753.000
890.931;  -92.500; -273.000; -210.000
891.175; -138.225; -502.000; -500.000
891.419;  -79.550; -105.000; -110.000
891.663;  -84.975; -239.000; -112.000
891.907; -159.350; -801.000; -545.000
892.151; -182.750; -920.000; -815.000
892.395; -114.900; -274.000; -387.000
892.638;  -25.400;  408.000;  291.000
892.882; -172.625; -780.000; -867.000
893.126;    6.325;  758.000;  558.000
893.370;  -83.175; -167.000; -168.000
893.614; -148.550; -714.000; -715.000
893.857; -104.950; -183.000; -197.000
894.101; -143.875; -527.000; -631.000
894.345;  -50.500;  300.000;  150.000
894.588;   10.900;  569.000;  380.000
894.832;  -77.425; -178.000;  -84.000
895.075;  -88.100;   15.000;  -92.000
895.319; -128.900; -552.000; -420.000
895.563; -128.325; -413.000; -353.000
895.806; -133.575; -628.000; -741.000
896.049;  -68.575; -576.000; -368.000
896.293;  100.425;  527.000;  405.000
896.536;  -66.200; -465.000; -468.000
896.779;  -69.675; -149.000;   -1.000
897.023; -144.750; -751.000; -714.000
897.266;  -26.075;  325.000;  269.000
897.509; -179.825; -900.000; -901.000
897.752;  -43.125;  149.000;  171.000
897.996; -185.325; -972.000; -864.000
898.239;  -36.575;  168.000;  102.000
898.482; -127.100; -431.000; -453.000
898.725;  -31.075;  101.000;   53.000
898.968; -157.150; -609.000; -744.000
899.211; -101.175; -513.000; -361.000
899.454; -123.675; -633.000; -539.000
899.697;  -68.300;   90.000;  -43.000
899.940; -166.925; -761.000; -757.000
900.182; -101.000; -335.000; -405.000
900.425;  -95.075; -150.000; -298.000
900.668;  -23.400;  491.000;  350.000
900.911; -109.275; -292.000; -345.000
901.154;  -54.325;  141.000;   -3.000
901.396; -128.350; -407.000; -412.000
901.639; -145.750; -430.000; -496.000
901.882; -185.650; -790.000; -809.000
902.124;  -79.450;  -29.000; -143.000
902.367; -126.150; -315.000; -361.000
902.609; -132.825; -476.000; -453.000
902.852;  -98.425; -108.000; -260.000
903.094; -115.375; -458.000; -337.000
903.337;  -83.075;  -26.000;   53.000
903.579; -109.750; -228.000; -441.000
903.821; -153.200; -597.000; -744.000
904.064;  -58.700;   85.000;  127.000
904.306;  -86.200; -126.000; -166.000
904.548;  -94.325; -152.000; -366.000
904.790; -101.475; -195.000; -340.000
905.033; -120.150; -625.000; -577.000
905.275; -130.675; -513.000; -524.000
905.517;   42.525;  468.000;  256.000
905.759;  -51.800; -667.000; -761.000
906.001;  -83.525; -322.000; -369.000
906.243;  -71.300; -162.000; -224.000
906.485;  104.550; -265.000; -207.000
906.727;  140.175; -499.000; -542.000
906.969;  -12.075;  -30.000; -135.000
907.211;   93.400; -316.000; -382.000
907.453;  311.800; -188.000; -237.000
907.695;   20.675; -158.000; -385.000
907.936;   37.175;  818.000;  706.000
908.178;  -47.000;   92.000; -135.000
908.420;  -60.175; -111.000; -162.000
908.662; -137.725; -633.000; -682.000
908.903;  -75.925; -208.000; -123.000
909.145;  -59.350; -240.000; -305.000
909.386;    1.575;  315.000;  280.000
909.628;   33.525;  363.000;  397.000
909.870;   10.425;   29.000;  264.000
910.111;  -88.950; -809.000; -949.000
910.353;   23.250; -123.000; -161.000
910.594;   -1.825; -574.000; -606.000
910.835;   93.250; -265.000; -326.000
911.077;  171.475; -503.000; -604.000
911.318;  314.600; -505.000; -471.000
911.559;  481.000; -577.000; -880.000
911.801; 1341.100; -284.000; -280.000
912.042; 9700.775;  -50.000; -159.000
912.283;29379.175;  404.000;  371.000
912.524; 5586.725; -396.000; -457.000
912.765;  601.225; -193.000;   79.000
913.006;  269.275; -307.000; -338.000
913.247;   71.425; -270.000; -290.000
913.488;   -2.275;  -43.000;   30.000
913.729;  -70.050; -373.000; -373.000
913.970;  -64.475;  -96.000; -292.000
914.211;  -60.625; -160.000; -198.000
914.452;  -54.100; -118.000;  -11.000
914.693;   11.050;  510.000;  592.000
914.934;   20.525;  510.000;  440.000
915.175;  -66.475;   53.000;  -95.000
915.415;  -71.500; -137.000;   27.000
915.656;  -62.425;  -28.000;  192.000
915.897; -102.875; -252.000;  -82.000
916.137;  -80.750;   74.000;   -9.000
916.378; -126.950; -573.000; -517.000
916.619;  -91.825; -159.000;  -63.000
916.859;  -23.825;  303.000;  330.000
917.100;  132.625; 1655.000; 1070.000
917.340;   33.450;  930.000;  728.000
917.581;   43.925;  965.000;  789.000
917.821;  -47.500; -171.000;  143.000
918.061;   27.600; -199.000;  -72.000
918.302;  -49.125; -152.000; -211.000
918.542;  -21.800;  -22.000;    3.000
918.782;   22.025;  369.000;  377.000
919.023;  118.875;  360.000;  427.000
919.263; 1264.175; 8131.000;  202.000
919.503; 1229.800; -137.000;  -54.000
919.743;  649.675;  390.000;  266.000
919.983;  328.025; -134.000;  -26.000
920.223;   90.425;  135.000;   14.000
920.463;  139.825;  631.000;  554.000
920.703;  137.725;   84.000;   39.000
920.943;  185.100; -110.000;   90.000
921.183;  242.925; -414.000; -405.000
921.423;  531.800;  307.000;  546.000
921.663;  738.100; -174.000; -257.000
921.903; 1537.550;  237.000;  173.000
922.143; 8134.700;  372.000;  389.000
922.383;33697.975;  158.000;  115.000
922.622;14080.250; -120.000;  -15.000
922.862; 1462.750;  796.000;  785.000
923.102;  508.000;  -51.000;   33.000
923.341;  221.400;   59.000;   74.000
923.581;  107.225;  450.000;  360.000
923.821;   36.450;  301.000;  398.000
924.060;   10.400;  351.000;  193.000
924.300;  -57.750;  -16.000; -128.000
924.539;   -9.950;  584.000;  473.000
924.779;   12.225;  812.000;  597.000
925.018;  -40.675;  247.000;  353.000
925.257;  -10.600;  595.000;  666.000
925.497;  -25.150;  447.000;  412.000
925.736;  -75.100;  -35.000;  102.000
925.975;   -5.325;  687.000;  669.000
926.214;   37.575;  907.000;  850.000
926.454;    9.625;  706.000;  757.000
926.693;  -31.975;  419.000;  543.000
926.932;   31.175; 1021.000;  825.000
927.171;   66.525; 1107.000; 1044.000
927.410;   56.825; 1144.000;  967.000
927.649;   24.575;  924.000;  742.000
927.888;    8.925;  590.000;  564.000
928.127;    1.600;  680.000;  678.000
928.366;   32.750;  842.000;  826.000
928.605;   35.350;  831.000;  737.000
928.844;  206.200; 1451.000; 1393.000
929.083;  607.950;  770.000;  613.000
929.321;  373.475; 1335.000; 1359.000
929.560;   87.925; 1158.000; 1122.000
929.799;  -33.475;  574.000;  475.000
930.038;   88.025; 1025.000; 1394.000
930.276;  -63.350;  334.000;  397.000
930.515;    5.650;  827.000;  681.000
930.753;  -24.600;  614.000;  589.000
930.992;  -12.325;  664.000;  717.000
931.230;   10.350;  847.000;  847.000
931.469;  162.525; 2162.000;  892.000
931.707;   76.700;  840.000;  751.000
931.946;   70.900; 1278.000; 1344.000
932.184;   59.725; 1437.000; 1175.000
932.423;   50.900; 1265.000;  963.000
932.661;   78.825; 1296.000; 1428.000
932.899;   43.150;  987.000;  821.000
933.137;   20.575;  754.000;  564.000
933.376;  153.825; 1664.000; 1335.000
933.614;  151.300; 1759.000; 1196.000
933.852;   56.175; 1357.000; 1171.000
934.090;  124.375; 1722.000; 1747.000
934.328;  105.650; 1252.000; 1457.000
934.566;   89.900; 1431.000; 1110.000
934.804;  141.075; 1263.000; 1309.000
935.042;  435.450; 1861.000; 1850.000
935.280; 1682.750; 2088.000; 2063.000
935.518; 1873.450; 2113.000; 2007.000
935.756;  429.025; 2481.000; 2316.000
935.994;  161.550; 1808.000; 1751.000
936.231;  339.325; 2890.000; 2950.000
936.469;  202.275; 2367.000; 2378.000
936.707;  167.475; 2220.000; 2167.000
936.945;  219.700; 2825.000; 2882.000
937.182;  207.100; 2679.000; 2741.000
937.420;  294.225; 3602.000; 3031.000
937.657;  406.300; 3365.000; 3478.000
937.895;  368.250; 3331.000; 3488.000
938.133;  314.125; 3540.000; 3528.000
938.370;  337.550; 3896.000; 4191.000
938.607;  398.750; 4488.000; 4205.000
938.845;  541.225; 5587.000; 5549.000
939.082;  472.950; 5387.000; 5177.000
939.320;  527.725; 5799.000; 5728.000
939.557;  639.300; 6549.000; 6491.000
939.794;  701.100; 7285.000; 7097.000
940.031;  892.150; 8421.000; 8368.000
940.269; 1097.325; 9552.000; 9107.000
940.506; 1105.750;10901.000;10507.000

