
Integration time [ms]: 200.000
Averaging Nr. [scans]: 10
Smoothing Nr. [pixels]: 0
Data measured with spectrometer [name]: 2101013U2
Wave   ;Sample   ;Dark     ;Reference
[nm]   ;[counts] ;[counts] ;[counts] 

394.013;  119.146; -450.257; -315.536
394.305;  448.142; -461.258; -419.536
394.596; 1511.394; -676.269; -527.514
394.887; 3383.018; -796.268; -654.518
395.178; 1343.662;  145.736;   11.476
395.470;  184.178; -210.263; -356.526
395.761;  437.039;  305.734;  394.479
396.052;  752.813; -545.284; -306.489
396.343;  763.214; -557.276; -454.503
396.634;  266.269; -200.279; -290.497
396.926;  284.214; -618.268; -565.517
397.217;  285.020;   11.725;  -17.504
397.508;  138.143; -366.273; -154.507
397.799;   98.369; -555.279; -571.497
398.090;    2.361; -973.280; -902.495
398.381;  276.105;   11.708;  -11.473
398.672;   13.206; -585.292; -742.473
398.963;  110.877; -348.279; -373.498
399.254;  247.719;   54.709; -209.475
399.545;  -42.366;-1017.266; -883.520
399.836;  165.898; -407.277; -343.501
400.127;  128.970; -205.295; -209.468
400.418;  125.835; -423.274; -392.506
400.709;  177.942; -359.281; -333.493
401.000;  157.825; -268.291; -309.476
401.290;  234.979;  225.698;  115.545
401.581;  173.088; -166.286; -228.485
401.872;   50.930; -542.298; -486.462
402.163;  114.760; -313.296; -252.467
402.454;  177.520; -123.291; -163.475
402.744;  151.947; -844.297; -813.465
403.035;  838.892; -226.293;  -86.471
403.326; 1064.211; -366.292; -384.474
403.617;  686.422;  204.701;  165.539
403.907;  408.921; -593.283; -679.490
404.198; 3106.013; -545.307; -599.446
404.489; 8157.928; -618.283; -588.491
404.779; 3113.384; -618.302; -660.456
405.070;  442.053;  -67.304; -174.451
405.360;  524.995; -259.293; -238.472
405.651;  585.500;  125.699;   98.542
405.942;  393.081;  209.714;  127.516
406.232;  590.102; -432.285; -413.487
406.523; 1095.385;  641.706;  758.530
406.813;  234.784; -579.286; -644.484
407.104;  802.603;  261.708;  144.527
407.394;  462.924; -604.299; -591.462
407.685;  349.101;  336.715;  222.513
407.975;  187.526; -400.283; -382.490
408.265;  268.341; -134.289; -190.478
408.556;  142.716; -472.291; -459.475
408.846;  337.586;  474.706;  429.530
409.137;  218.053;   -1.288; -216.480
409.427;  104.502; -193.285; -271.487
409.717;   83.948; -776.273; -692.508
410.007;  271.292;    4.715; -170.486
410.298;  224.674; -360.295; -342.469
410.588;  177.398; -495.285; -510.486
410.878;   61.369; -792.287; -873.482
411.168;  197.734; -481.298; -478.463
411.459;  222.119; -295.283; -242.489
411.749;   70.314; -609.292; -507.474
412.039;  118.951; -755.289; -386.480
412.329;  379.288;   40.722;  132.501
412.619;  395.885;  -62.286; -148.485
412.909;  683.745;  639.711;  594.521
413.199;  650.061; -130.280; -251.495
413.490;  772.932;  521.710;  352.523
413.780;  219.967;-1013.279; -913.496
414.070;  534.015;  -46.276;  235.497
414.360;  604.982; -729.278; -666.498
414.650;  625.064; -726.288; -688.482
414.940;  758.866; -538.280; -441.496
415.230; 1415.959;   50.712;   74.519
415.520; 8784.793;  155.730;   66.486
415.809;32748.741; -305.281; -125.493
416.099;25617.701; -388.277; -229.501
416.389; 6628.332;  435.726;  236.494
416.679; 3932.683;   91.738;   85.473
416.969;  721.976; -527.287; -503.483
417.259;  977.269;  341.721;  171.503
417.549; 1115.140;  522.718;  318.508
417.838; 2242.617; -205.268; -147.518
418.128; 6885.139;  650.710;  492.522
418.418; 5794.757; -491.272; -579.509
418.708; 4069.432;    9.726;  -48.506
418.997;14311.126; -474.275; -480.505
419.287;14864.342; -733.273; -790.507
419.577;13577.117; -160.283; -123.489
419.866;45041.998; -588.277; -498.501
420.156;48476.987; -242.270;  -55.513
420.446; 9736.972; -112.263;  -26.526
420.735; 1533.178; -376.271; -446.512
421.025; 1542.681; 1830.722;  315.502
421.314; 1442.975; -203.271; -226.512
421.604; 3297.907;   89.732;  233.484
421.893; 1882.770; -705.271; -602.511
422.183;  371.573; -487.263; -461.526
422.472;  653.472;  -36.271; -107.511
422.762;  719.243; -416.266; -379.521
423.051;  372.516; -916.276; -916.503
423.341;  551.745; -491.273; -439.507
423.630;  697.951; -121.265;   15.477
423.919;  640.025;   58.725;   49.495
424.209;  624.981;  -31.263;   56.473
424.498;  763.213;   68.732;  161.483
424.787; 1509.822; -535.267; -601.518
425.077; 4663.149;   34.735;   29.478
425.366; 7182.389; -734.262; -744.528
425.655;12487.346;  639.727;  259.493
425.945;22044.175; -313.247; -268.554
426.234;13231.421;  117.741;  300.467
426.523; 6926.429;  -86.259; -350.534
426.812; 9547.637;  107.734;  159.480
427.101;13272.801; -127.269; -323.515
427.390;16988.192;  -55.270;  -86.514
427.680; 4933.557; -624.257; -411.538
427.969;  906.273; -330.255; -301.540
428.258;  579.645; -385.257; -477.536
428.547; 1038.463;  449.728;  397.490
428.836; 2415.696; -421.253; -398.543
429.125; 3457.731; -199.259;  -72.534
429.414; 1521.229; -330.251; -294.548
429.703; 4376.929; -231.251; -213.548
429.992;12021.234; -938.250; -828.549
430.281; 8027.562; -397.264; -331.524
430.570; 1117.415;  -21.252;   32.454
430.859; 1226.028;  279.741;  352.466
431.148; 1163.669;  636.752;  631.446
431.437;  747.814;  391.748;  367.454
431.725;  318.547; -544.257; -481.536
432.014;  188.007; -845.253; -756.545
432.303;  670.278; -149.239; -105.569
432.592; 1118.472; -460.263; -178.525
432.881; 1463.870; -601.248; -437.554
433.169; 7576.074; -343.255;  -61.540
433.458;15052.427;  445.765;  540.424
433.747; 6927.397; -397.261; -289.529
434.036; 1739.643; -275.242; -280.564
434.324; 2959.952; -395.249; -379.551
434.613; 4801.734;   40.757;  159.437
434.902; 2045.064;  333.760;  439.433
435.190; 1503.276;   75.761;  295.431
435.479;  867.607;  -52.245;   83.441
435.767;  312.319; -411.244; -427.561
436.056;  468.537; -340.242; -294.563
436.345;  608.667; -372.240; -223.568
436.633;  695.945;   60.750;  383.450
436.922;  691.170;  208.760;  414.432
437.210; 1630.912; -194.236;    1.426
437.499; 5019.824; -583.235; -432.576
437.787; 5513.012; -339.236;  -10.574
438.075; 1376.584;   56.761;  162.430
438.364; 1735.988;  -44.238;  250.429
438.652; 1108.539; -286.226; -138.592
438.941;  324.887;    3.770;  269.415
439.229;   86.511; -665.252; -466.545
439.517;  114.436; -160.234;  -85.577
439.806;   55.062; -501.225; -290.595
440.094;  421.947;  377.766;  650.421
440.382;  469.353; -653.233; -302.580
440.670;  488.123; -361.235; -285.576
440.959;  115.187; -347.223; -170.599
441.247;  179.904; -151.229; -109.587
441.535;  267.534; -266.235;   31.423
441.823;  138.143; -497.234; -305.578
442.111;  396.910;  173.771;  327.412
442.400; 1206.607; -628.245; -335.559
442.688; 3352.546; -111.234; -620.579
442.976; 2526.413; -786.213; -450.617
443.264;  302.271; -324.224; -364.597
443.552;  226.540; -258.226;   51.408
443.840;  377.632;  602.765;  876.423
444.128;  237.251;  265.767;  269.420
444.416;   50.913; -694.228; -312.588
444.704;   86.629; -465.219;  -92.605
444.992;  158.845;   -0.226;  240.407
445.280;  137.888; -517.230;  -94.585
445.568;  102.318; -694.212; -396.618
445.856;  781.406; -174.221;  357.398
446.143; 1638.824;  -54.220;   -7.604
446.431; 1409.719;  -25.228;  625.411
446.719;  523.457;  489.783;  675.391
447.007;  368.880;  481.769;  705.416
447.295;  374.782;  597.777;  871.402
447.583;  157.400; -464.229;  -34.587
447.870;  293.502; -434.221; -202.601
448.158;  802.186; -104.230;  129.415
448.446;  664.326; -800.219; -338.604
448.733;  311.973;   13.776;  269.403
449.021;  494.018;   60.788;  341.382
449.309;  328.039; -296.210;  208.379
449.596;  412.752;  128.783;   59.392
449.884;  237.692; -571.222; -325.600
450.172;  160.726; -756.227; -406.590
450.459;  617.789;  645.786;  780.387
450.747; 2691.950; -411.218; -147.608
451.034; 8505.520;  493.772;  889.411
451.322; 6985.293; -413.214; -170.614
451.609;  737.975;  292.777;  508.403
451.897;  755.530; -550.203; -183.634
452.184; 2191.483; -622.223; -400.598
452.472; 2222.470;   97.792;  269.375
452.759;  631.026;  512.781;  864.395
453.047;  258.414; -407.212; -125.617
453.334;  166.238; -732.219; -216.606
453.621;  228.597; -438.214; -161.615
453.909;  302.719;   13.796;  384.368
454.196;  264.084; -299.199; -123.641
454.483;  490.749;  317.798;  540.364
454.771;  293.675; -215.208;  196.374
455.058;   90.879; -316.207;  102.374
455.345;  225.264;   71.807;  344.347
455.632;  159.184; -128.207;  235.373
455.919;  149.516;  -82.196;  182.354
456.207;  -93.909; -774.198; -450.642
456.494;   24.266; -475.200;  -66.639
456.781;   28.443; -399.202; -198.635
457.068;  158.293; -253.206;  -29.628
457.355;   25.395; -698.206; -401.629
457.642;   32.603; -552.205; -290.630
457.929;   44.651; -778.194; -417.651
458.216;   89.515; -575.212; -354.617
458.503;  296.657; -173.193;  -19.652
458.790;  252.771; -864.208; -630.625
459.077;  493.950;  -77.202;  110.364
459.364; 1037.040; -350.195; -210.649
459.651; 2122.890;  -46.206;  220.372
459.938;  997.758; -864.209; -665.623
460.225;  325.854;  132.799;  276.363
460.512;  -64.588; -836.197; -688.645
460.799;  267.448;  -32.218;  320.392
461.086;  216.373; -370.200; -251.640
461.372;  150.391; -509.198; -279.642
461.659;  289.418; -165.196;  108.354
461.946;  172.655; -445.193;  -54.651
462.233;  517.069;  842.800;  888.361
462.519;  475.565; -814.201; -464.639
462.806; 1285.813; -768.197; -497.645
463.093; 1138.385; -445.191;  -66.656
463.380;  -74.555; -920.186; -824.664
463.666;  143.716; -259.197;  -18.646
463.953;  165.233; -406.195; -243.648
464.239;  296.533; -173.195;  -77.648
464.526;  736.248;  413.806;  743.350
464.813;  595.302; -565.190; -304.658
465.099;  706.957;  606.807;  607.348
465.386;  731.862;  903.807;  921.348
465.672;  126.413; -694.197; -522.645
465.959;  175.928; -598.188; -520.662
466.245;  100.363; -468.193; -359.652
466.532;  252.030; -109.195;   63.352
466.818;  225.344; -357.186; -216.664
467.104;   53.302; -488.182; -415.672
467.391;   48.805; -628.189; -459.658
467.677;  117.849; -289.186;    9.335
467.964;   90.014; -682.189; -471.660
468.250;  232.653; -331.186; -160.665
468.536;  221.606;   90.811;  180.341
468.822;  -47.730; -821.184; -574.668
469.109;  343.318;  351.827;  471.311
469.395;  422.977;  729.808;  787.346
469.681;  379.611;   46.811;  156.341
469.967; 1632.717; -699.188; -382.660
470.254; 3300.829; -494.188; -306.662
470.540; 2202.916; -601.196; -476.646
470.826;  310.318; -488.181; -397.675
471.112;  477.875;  288.816;  113.331
471.398;  254.582; -253.183;  -58.670
471.684;  108.359; -626.177; -447.680
471.970;  -23.577; -918.180; -981.675
472.256;   50.875; -521.192; -441.654
472.542;  109.634; -499.171; -434.691
472.828;   70.696; -743.182; -607.672
473.114;  123.397; -380.166; -283.700
473.400;  122.583; -504.175; -293.684
473.686;  168.506; -452.166; -400.701
473.972;  136.304; -230.174; -131.687
474.258;  -97.282; -925.173; -843.689
474.544;  256.547; -183.178;   -2.679
474.830;  383.085;  -65.175;   45.316
475.116;  523.804; -123.190; -196.658
475.401;  648.727; -558.180; -467.676
475.687;  212.125; -725.180; -718.676
475.973;   72.008; -673.181; -770.673
476.259;  558.988;  736.825;  764.315
476.544;  549.470; -539.176; -437.682
476.830;  880.228; -398.172; -322.690
477.116;  708.568; -430.177; -336.682
477.401;  267.326;  346.820;  358.324
477.687;   25.783; -289.175; -405.684
477.973;  100.313;   21.819;   28.326
478.258;   12.935; -448.163; -348.706
478.544;  120.461;   21.815;   61.334
478.829;  -65.458; -818.171; -738.692
479.115;  -47.472; -749.172; -651.690
479.401;    0.497; -444.174; -449.686
479.686;   71.124; -253.180;  -74.676
479.972;  -63.546; -886.178; -776.680
480.257;   68.899; -258.166;  -65.700
480.542;   61.648; -614.170; -469.693
480.828;  548.380; 1288.824; 1392.317
481.113;    5.677; -464.176; -426.683
481.399;   27.670; -236.161; -202.711
481.684;  -51.002; -620.166; -462.700
481.969;   73.889; -158.159;  -73.713
482.255;   23.463; -439.169; -285.695
482.540;  -11.245; -569.178; -441.680
482.825;   36.637; -395.187; -404.663
483.110;  145.368;  -85.169; -105.696
483.396;  123.320; -840.157; -652.718
483.681;  618.104;  543.826;  730.313
483.966;  128.880; -696.160; -700.712
484.251;   55.002; -404.174; -310.687
484.536;  102.214; -356.165; -378.703
484.822;   93.607; -205.173; -218.687
485.107;  -13.525; -599.152; -502.726
485.392;  268.422;  662.836;  541.296
485.677;  212.082;  354.832;  163.302
485.962;  251.517;  160.843;  270.283
486.247;  241.647;  -14.162;   -8.707
486.532;  128.001; -178.166; -325.701
486.817;  340.061;  381.839;  431.291
487.102;  181.751; -453.154; -514.722
487.387;  744.423; -637.156; -652.718
487.672; 1190.629; -154.164;  -38.705
487.957;  826.772; -394.160; -286.711
488.241;  311.299; -290.150; -314.729
488.526;  869.677; -280.152; -148.726
488.811; 1195.657; -881.177; -818.680
489.096;  938.454; -666.154; -702.723
489.381;  638.372;    3.847;  162.275
489.666;  366.369; -428.161; -510.710
489.950;  319.959;  558.846;  627.277
490.235;  -26.808; -480.151; -458.728
490.520;  -71.932; -756.161; -723.710
490.804; -116.674; -827.156; -736.719
491.089;    8.822; -469.149; -299.732
491.374;  108.427; -132.164;  -75.704
491.658;    3.738; -817.147; -717.735
491.943;  291.383; -657.152; -609.727
492.227;  456.345; -178.155;  -38.721
492.512;  143.116; -294.157; -341.717
492.797; -116.987; -713.149; -716.731
493.081;  -69.158; -588.147; -598.735
493.366;  -68.230; -751.161; -635.711
493.650;  450.419;  831.859;  917.254
493.935;   29.737; -648.147; -447.734
494.219;  -65.200; -778.142; -687.743
494.503;  -83.894; -585.150; -487.730
494.788;   83.604;   46.842;   74.285
495.072;  218.001;  184.850;  434.271
495.356;  196.626; -463.148; -343.733
495.641;  596.052; -812.146; -736.736
495.925;  607.433; -976.156; -903.719
496.209;   89.421; -599.149; -451.732
496.494;  -61.099; -763.142; -544.744
496.778;   35.551; -364.154; -360.722
497.062;  -85.068; -819.156; -627.719
497.346;  -73.226; -869.160; -640.711
497.631;  315.032;  580.852;  560.266
497.915;  178.867;  -64.145;  175.261
498.199;  150.520; -341.157; -277.718
498.483;   93.475; -562.152; -508.725
498.767;  363.103;  301.850;  300.271
499.051;  224.918; -126.149; -100.732
499.335;  -11.185; -693.149; -739.731
499.619;  -58.136; -381.129; -423.767
499.903;   91.843; -272.155;  -65.721
500.187;   56.561; -588.153; -316.724
500.471;   17.782; -796.152; -595.727
500.755;  217.568;   62.839;  -96.710
501.039;   61.343; -270.155; -357.721
501.323;  263.521;  -21.141;  264.254
501.607;  116.136; -447.163; -503.706
501.891;    4.722; -607.156; -512.718
502.174;  -58.217; -726.144; -585.741
502.458;  206.688;   89.849;  370.273
502.742;   69.356; -180.138; -191.751
503.026;   99.637; -412.147; -254.734
503.310;  167.287; -437.159; -375.713
503.593;  136.039; -464.147; -325.735
503.877;  217.214; -232.133; -156.760
504.161;  303.665;    2.847;  -50.724
504.444;  120.007; -841.158; -710.716
504.728;  505.426; -487.164; -522.704
505.012;  819.098; -257.150;  -76.729
505.295;  698.070; -417.161; -212.711
505.579;  657.832; -256.156; -496.719
505.862;  795.062; -555.145; -333.738
506.146;  717.891; -681.159; -758.714
506.429;  573.392;  568.841;  461.286
506.713;   89.794; -732.151; -667.728
506.996;  462.650;   90.846;  295.278
507.280;  373.419; -633.165; -474.703
507.563;  308.441; -469.155; -261.721
507.847;  110.762; -423.153; -112.724
508.130;   94.971; -665.161; -456.711
508.413;  121.093; -758.167; -577.700
508.697;  285.493; -151.167;   12.300
508.980;  159.764; -422.153; -312.724
509.263;    5.335; -466.155; -450.720
509.547;   80.098; -124.150;   82.271
509.830;  130.174; -172.160;  140.289
510.113;  176.132;  128.844;  298.281
510.396;   38.372; -530.152; -300.725
510.680;  412.364; -818.145; -812.738
510.963; 1649.056;  184.846;  180.277
511.246; 1405.809; -493.150; -357.730
511.529;  484.271; -482.145;  -83.739
511.812;  412.309; -250.134;   10.241
512.095;  213.790; -740.151; -396.728
512.378;  119.845; -317.147; -245.736
512.661;    9.867; -703.137; -623.753
512.944;   23.903; -750.142; -637.744
513.227;  129.363; -170.137; -171.752
513.510;   50.783; -479.144; -671.741
513.793;   74.927; -485.140; -435.747
514.076;  229.794;  -43.127;  -39.771
514.359;  181.822; -294.149; -135.732
514.642;  115.508; -442.142; -567.744
514.925;  973.125;  581.860;  561.253
515.208; 1020.704; -498.134; -443.758
515.491;  673.223; -276.133; -182.761
515.773;  412.688; -410.143; -337.742
516.056; 2310.776;  249.864;  409.246
516.339; 3147.582; -754.136; -652.755
516.622; 3072.405; -518.150; -488.730
516.904; 2843.698;  882.857;  975.257
517.187; 1212.761; -730.138; -523.752
517.470;  567.297; -568.143; -510.743
517.752;  429.186; -624.136; -470.756
518.035;  334.743; -708.139; -725.749
518.318;  331.082; -799.136; -744.755
518.600; 2414.828; -300.132; -325.762
518.883; 3265.007;  310.858;   88.256
519.165; 1764.350; -585.138; -426.751
519.448;  604.528;  -61.132;  -19.762
519.730;  333.105; -573.126; -415.773
520.013;  605.718;  588.867;  664.240
520.295; 1897.911;  -94.134;  -15.759
520.578; 4129.447; -335.131; -305.764
520.860; 4496.028; -254.132;   56.238
521.143; 2248.789; -763.135; -584.756
521.425;  695.224; -251.125; -279.775
521.707;  785.195; -622.127; -380.771
521.990; 2005.696; -199.127;  167.229
522.272; 2122.730; -116.140;   -4.748
522.554; 1307.089; -237.143; -157.742
522.836;  718.108;  -24.134;   99.241
523.119;  409.235; -496.148; -189.734
523.401;  178.157; -448.130; -314.766
523.683;   71.367; -865.137; -693.753
523.965;  382.858;  408.862;  260.248
524.247;  351.954;   54.878;  170.220
524.529;  202.611; -451.134; -367.759
524.812;  510.459;   -3.130;  191.234
525.094;  852.357; -773.138; -631.751
525.376; 1407.837; -143.124;   78.223
525.658;  822.177; -441.136; -339.754
525.940;  -11.258; -805.131; -671.764
526.222;   84.983; -188.136;  -88.755
526.504;  272.839; -190.131;   32.237
526.786;  404.515; -960.133; -647.760
527.068;  669.645; -124.123;  -67.778
527.349;  301.973; -865.137; -774.754
527.631;  243.328; -137.132;   22.238
527.913;   94.894; -664.127; -450.771
528.195;   71.714; -761.125; -639.774
528.477;  296.804;  -93.134;  -30.758
528.759;   89.759; -648.130; -522.766
529.040;   24.743; -569.123; -293.778
529.322;   69.518; -235.125;  -10.774
529.604;  311.662;  -47.130;   93.233
529.886;  241.205; -546.126; -302.773
530.167;  254.850;  232.870;  192.235
530.449;  123.544;    1.853;   63.265
530.731;   -8.947; -572.122; -459.779
531.012;   15.283; -513.120; -216.784
531.294;   89.139; -118.116;  -43.792
531.575;  238.824;  290.875;  538.225
531.857;   -3.704; -548.135; -266.757
532.138;  215.419; -113.141;   40.254
532.420;  317.791;  294.865;  403.244
532.701;  384.218; -722.133; -751.760
532.983;  668.122;  232.867;  182.239
533.264;  266.402; -243.126;  175.228
533.546;  -37.718; -491.136; -508.755
533.827;  159.613;  173.867;   -1.759
534.109;   82.396; -352.135;  -80.757
534.390;  171.634; -725.132; -582.762
534.671;  344.791; -270.135;  -82.756
534.953;  184.647; -751.123; -611.779
535.234;   35.318; -426.117; -255.789
535.515; -148.005; -891.119; -735.785
535.796;  -32.512; -431.128; -193.770
536.078; -210.164;-1050.124; -904.777
536.359;   28.848;  -22.123;    3.221
536.640;   15.216; -480.125; -197.774
536.921;  303.970;  225.871;  143.232
537.202;  444.052;  -87.138;  -16.751
537.483;  584.546;  251.869;  377.236
537.764;  237.851;   17.870;   98.235
538.045;  -87.498; -543.134; -371.758
538.326;   -8.328; -596.129; -447.768
538.607;   -6.904; -686.127; -476.771
538.888;  227.670;   98.879;    5.218
539.169;  156.462; -704.122; -535.781
539.450;  480.768;  236.871;   16.233
539.731;  285.176; -361.121; -182.783
540.012;  235.283;  199.880;  412.216
540.293;  155.129;   82.876;  158.224
540.574;   11.569; -895.113; -717.796
540.855;  740.274;  435.879;  377.218
541.136;  750.858;   47.878;  139.220
541.416;  365.860; -161.130; -220.766
541.697;  227.440; -274.131; -170.763
541.978; 1108.794; -270.135; -315.757
542.259; 1384.096; -211.127; -236.771
542.539;  639.630; -191.116; -186.790
542.820;  331.023;  461.875;  480.225
543.101;  184.966;  -52.145;  -77.738
543.381;   21.095; -638.127; -591.771
543.662;  388.792;  159.873; -254.771
543.942;  547.789; -751.127; -830.770
544.223; 1128.661;  193.878;  161.219
544.504;  718.236; -275.124; -182.777
544.784;  700.805; -592.126; -408.773
545.065; 1877.436;  104.884; -254.791
545.345; 2249.995;  227.881;   14.215
545.626; 1431.768;  -14.113; -108.796
545.906;  939.250;   77.869;   98.235
546.186;  365.511;   92.874;  -95.773
546.467;  281.140;   99.877;  -95.778
546.747;  404.930;  264.884;  327.210
547.027;  431.034;   91.876;  111.223
547.308;  323.588; -376.127; -530.770
547.588;  508.874;  299.871;  371.232
547.868;  340.351;  458.870;  588.235
548.149;  343.246;  609.885;  593.207
548.429;  143.293; -347.127; -299.771
548.709;  114.482; -645.120; -461.784
548.989;  528.509;   84.882;   88.213
549.269; 2274.026;   10.868;  139.239
549.550; 5012.346;  215.877;  117.222
549.830; 4448.594; -758.111; -556.799
550.110;  931.704; -468.110; -320.801
550.390;  903.353; -128.122;  -56.779
550.670; 1067.262; -868.114; -783.795
550.950;  838.273; -509.121; -471.782
551.230;  332.068;  549.879;  460.218
551.510;  -28.829; -381.121; -326.782
551.790;   72.716; -173.109; -127.803
552.070;  431.640;  940.877; 1181.223
552.350;  370.601; -492.119; -377.786
552.630;  580.564;   -2.121;   77.219
552.909;  453.536;  181.884;   73.209
553.189;  296.635;  -49.132;   33.237
553.469;  126.100; -703.119; -514.786
553.749;  164.898; -469.127; -357.772
554.029;  225.824;   33.883;  -24.790
554.308;  151.452; -154.115;  -37.794
554.588;   46.087; -196.128; -204.770
554.868;   98.274; -366.121;  -47.782
555.147;  162.148; -114.115;  -46.793
555.427;  666.540; -260.116; -250.792
555.707; 4026.345; -284.115; -200.793
555.986; 4523.398; -719.111; -538.800
556.266; 2610.828;   23.884;   72.210
556.546;   64.071; -888.121; -675.782
556.825;  222.759; -657.114; -556.794
557.105; 1871.083; -125.128;   17.230
557.384; 2106.135;  122.884;  187.209
557.664;  730.939; -717.116; -508.792
557.943;   88.273; -557.121; -411.782
558.222;  168.913; -345.118; -344.788
558.502;  349.650; -116.115;  -76.793
558.781;  567.744;  194.885;  499.208
559.061;  399.013; -232.118; -227.788
559.340;  367.120;  302.883;  353.211
559.619;  727.528;   93.884;  148.210
559.899;  985.823; -239.117; -266.789
560.178;  876.850; -778.115; -593.793
560.457; 3161.225; -623.117; -562.790
560.736; 4153.700; -472.111; -482.800
561.015; 2887.880; -500.128; -502.769
561.295;  496.044;  180.893;  215.193
561.574;  462.646;  119.885;  116.207
561.853;  632.322;  274.891;  303.197
562.132;  572.553;  -45.114;  182.206
562.411;  527.865;  396.879;  553.219
562.690;   92.343; -592.115; -458.792
562.969;  273.878;  472.888;  630.203
563.248;  920.262; 2966.878; 2487.219
563.527;  319.899; -290.111; -408.800
563.806;  351.593; -650.127; -521.771
564.085;  417.066; -297.105; -206.810
564.364;  188.327; -594.117; -405.790
564.643;  530.265; -276.121; -223.781
564.922; 1890.413;  221.890;  397.198
565.201; 1716.018; -640.109; -700.803
565.479;  831.642; -297.115; -219.792
565.758;  280.484; -810.128; -712.770
566.037;  472.020; -155.109; -100.803
566.316;  276.535; -286.116;  -28.791
566.595;   58.046;  -17.115;  -12.793
566.873;  203.102; -166.111;  -79.801
567.152; -104.223; -490.113; -590.797
567.431;   38.929; -113.116;    6.210
567.709;   -0.155; -344.107; -212.807
567.988;  198.258; -810.114; -769.794
568.266;  531.345; -160.115;  -68.793
568.545;  343.734; -644.100; -514.819
568.824;  618.641;  160.885;  356.208
569.102;  458.958; -351.114; -235.794
569.381;  155.940; -492.116; -407.792
569.659;  -63.428; -553.113; -553.796
569.938;   -6.841; -743.122; -465.780
570.216;  122.724; -225.109; -225.804
570.494;  -84.737; -632.114; -572.795
570.773;  144.971;  202.879;  114.218
571.051;  -29.756; -373.123; -357.778
571.330;   71.269; -221.113; -174.796
571.608;   36.459; -181.098; -173.823
571.886; -124.209; -671.111; -581.799
572.164; -136.326; -739.121; -621.782
572.443;  -89.929; -562.105; -512.811
572.721;  -85.075; -399.117; -289.790
572.999;  -37.884; -280.117; -168.788
573.277;  215.662;  379.894;  620.191
573.555;  313.665;   94.894;   37.190
573.834; 1252.416;  -86.117; -114.788
574.112; 1614.448;  880.893;  811.193
574.390;  482.201; -143.111;  -96.801
574.668;    0.279;  -91.112;  -61.797
574.946;   -1.735; -165.106; -187.810
575.224;   15.518;   71.891;  -16.803
575.502;  -13.268; -200.116; -204.791
575.780; -144.619; -767.112; -829.798
576.058;  527.300; 1589.889; 1004.200
576.336;   -8.392; -210.110; -129.801
576.614; -116.119; -511.112; -340.798
576.891;   -7.348; -711.115; -823.794
577.169;  460.735; -158.108; -285.805
577.447;  637.747;  169.893;  202.193
577.725;  404.787;  629.888;  854.201
578.003;   18.884;  -71.112; -371.798
578.280;  123.384; -208.104; -242.812
578.558;   76.950; -450.115; -422.793
578.836;  180.762; -210.114; -145.795
579.114;   20.078; -630.112; -670.797
579.391;  143.718;   -6.117;  -18.789
579.669; -131.947; -595.114; -704.794
579.947;  187.143; -326.107; -127.806
580.224;  248.142; -692.107; -524.806
580.502;  340.848;  127.893;   76.193
580.779;   45.027;  -42.117;   75.210
581.057; -144.176; -584.109; -470.804
581.334; -148.494; -726.102; -695.815
581.612;   90.367;   54.895;  511.190
581.889;    9.425;  -83.101; -129.818
582.167;  -32.255; -298.099; -190.821
582.444; -167.583; -845.102; -814.817
582.721;  237.218;  657.899;  715.183
582.999;   39.841; -326.100; -167.821
583.276;  411.950; -812.123; -713.779
583.553;  661.610; -364.102; -294.816
583.831;  157.180; -607.104; -631.812
584.108;  109.532;  349.892;  174.195
584.385;   19.905; -122.102;  -98.815
584.662; -135.297; -651.111; -828.801
584.940;   78.702;  204.889;  204.199
585.217;   10.872;  -73.113; -303.796
585.494;   84.614;   71.890;  118.198
585.771;  217.825; -250.109; -354.804
586.048;  529.171; -196.113;  -76.796
586.325;  268.006; -721.110; -773.801
586.602;  156.385;  230.896;  213.188
586.879;  -80.764; -499.100; -580.820
587.156;   56.168; -156.105; -331.810
587.433; -101.186; -701.102; -667.817
587.710;  138.182;  152.888;  234.202
587.987;  332.475; -264.105; -236.811
588.264;  975.584;  315.888;  387.202
588.541; 1646.388;  -61.104;   26.187
588.818; 2965.629;   72.892;  171.196
589.095; 2557.282; -163.104; -174.812
589.371;  408.622; -459.109; -414.804
589.648;  -21.252; -581.107; -437.807
589.925;    2.964; -517.114; -621.795
590.202;  -41.519; -741.112; -607.798
590.478;   85.578; -166.105;  -73.811
590.755;  263.737; -241.108; -132.806
591.032; 2406.209; -741.110; -699.802
591.308; 3135.217; -732.094; -790.831
591.585; 1651.909; -573.110; -560.802
591.862;   41.316;-1056.102; -950.817
592.138;   -5.266; -475.108; -474.805
592.415;  153.386; -486.104; -495.813
592.691; 1704.583;  460.896;  518.188
592.968; 1924.762; -208.098; -123.824
593.244;  900.430; -695.116; -595.790
593.521;  121.217; -105.102;  -42.817
593.797;  -97.445; -810.122; -720.780
594.074;  290.380; -611.096; -588.826
594.350;  843.696;  828.905;  729.172
594.626;  313.603; -303.111; -283.801
594.903;   15.917; -643.101; -645.817
595.179;  254.991;  243.896;  418.187
595.455;   17.550; -136.107; -150.807
595.731;   77.694;  -19.103;  -38.814
596.008;  -51.405; -464.111; -434.800
596.284;   51.740; -187.100; -242.820
596.560;  -14.374; -501.093; -493.833
596.836;  169.471; -173.105;  -70.810
597.112;  330.735; -582.108; -437.805
597.388;  329.177;  -49.097;  -48.826
597.665;  230.175;  437.887;  530.203
597.941; -134.832; -572.089; -658.839
598.217;   -7.686; -323.110; -293.802
598.493;  293.928;   61.891; -204.804
598.769;  497.432; -175.100;  -50.819
599.045;  232.439; -490.108; -562.806
599.321;   12.938; -193.100; -261.820
599.597;  142.127; -355.109; -476.804
599.872;  589.788;  409.896;  429.187
600.148;  398.379;  -61.097; -172.826
600.424;  374.246;   91.893;  202.193
600.700;  235.649; -170.107; -280.807
600.976;   82.971; -442.097; -464.825
601.252;  268.722; -226.109; -272.803
601.527;   88.390; -833.104; -840.813
601.803;  148.179; -453.105; -404.812
602.079;  208.232; -124.100; -118.819
602.354;  565.840; -620.092; -531.835
602.630;  824.172; -140.113; -482.796
602.906; 2539.625; -910.101; -863.818
603.181; 6725.001; -627.119; -534.786
603.457; 5933.276;   98.903; -278.826
603.733;  791.477; -605.120; -626.783
604.008; 1147.166; -245.106; -164.810
604.284; 3032.419; -636.101; -580.817
604.559; 2785.387;   -3.112;  -42.799
604.835;  524.270; -163.105; -225.810
605.110;  410.946; -732.099; -892.821
605.385;  816.930;  224.907;  267.167
605.661;  614.100; -625.095; -729.829
605.936; 1034.939; -664.108; -737.806
606.211; 1012.203;  -17.103; -170.815
606.487;  168.056; -329.114; -376.794
606.762;  -54.099; -791.119; -745.786
607.037;  -67.729; -501.105; -433.810
607.313;  -85.409; -589.096; -574.828
607.588;   18.766; -375.106; -137.810
607.863;   43.524;  -28.101; -143.818
608.138;  263.812;  513.890;  516.198
608.413;  -50.448; -576.099; -592.822
608.688;   12.134; -203.108; -267.805
608.964;  146.957; -509.106; -218.809
609.239;  225.167; -107.105; -212.810
609.514;  305.078;  281.895;  240.188
609.789;  630.384; -187.104; -716.812
610.064;  864.889; -435.096; -609.827
610.339;  792.422; -855.109; -799.804
610.614; 1154.839; -131.100; -315.820
610.889;  689.378;  215.895;  107.188
611.163;   13.480; -407.104; -591.812
611.438;   78.058;   81.886; -167.794
611.713;  -15.480; -467.101; -499.817
611.988;   46.823; -144.101; -328.818
612.263;  -78.794; -771.102; -717.815
612.538;  279.771;  385.887;  251.204
612.812;   51.941; -832.100; -911.820
613.087;   87.059; -358.098; -338.823
613.362; -108.551; -497.107; -557.807
613.637;   69.798;  261.897;  138.186
613.911;  -30.459; -256.092; -345.835
614.186;  100.247; -249.107; -292.807
614.460;  543.976; -842.081; -758.854
614.735;  727.202;  -55.087;  -17.843
615.010;  187.687;   43.912;  -82.841
615.284;  332.733;  360.892;  246.195
615.559;  256.440; -792.092; -955.835
615.833;  322.949;  -76.099;  -87.822
616.108;    5.757; -225.090; -390.837
616.382;  211.704;  274.913;  402.156
616.656;  104.957; -241.090; -232.837
616.931;  461.550; -785.099; -700.822
617.205; 1014.590; -973.104; -979.813
617.480;  999.421;  -91.125;    6.225
617.754;  136.417; -396.125; -128.774
618.028;  -44.725; -369.129; -382.768
618.302;  110.731;   73.892;  -25.805
618.577; -122.701; -371.103; -518.815
618.851;  -73.183; -399.109; -600.803
619.125;  -50.889; -335.134; -378.759
619.399;  -42.609; -244.104; -374.813
619.673;  -85.359; -330.115; -515.792
619.947;  -68.938; -333.114; -448.795
620.222;  -11.996; -198.110; -204.801
620.496;   -3.926;  -47.121;  -96.782
620.770;   32.462; -187.122;  -93.781
621.044;  314.568;  323.895;  346.190
621.318;  772.578; -653.120; -614.783
621.592;  677.875; -430.121; -409.783
621.866;  288.989; -476.112; -572.799
622.140;   24.232; -207.116; -356.791
622.413;  104.994;  138.889;  112.200
622.687;  -92.280; -746.101; -492.817
622.961;   15.131; -130.108; -143.805
623.235; -110.604; -633.111; -661.800
623.509; -174.022; -816.105; -848.811
623.783;   26.144;  -12.107;   48.193
624.056;   -1.721; -254.120; -280.783
624.330;  105.979;   63.888;   -3.797
624.604;   26.127; -271.116; -355.790
624.877;  117.811;  180.890;   26.198
625.151;   38.254; -249.114; -238.794
625.425;  -27.507; -150.103; -283.814
625.698; -107.607; -367.119; -374.785
625.972; -145.586; -799.110; -765.802
626.245;  163.230;  685.884;  484.210
626.519;  -60.715; -426.120; -340.784
626.792;  -43.851; -192.107; -380.807
627.066; -164.748; -485.122; -662.779
627.339; -168.092; -736.110; -663.802
627.613;  117.983;  351.880;  148.216
627.886;  128.717;  187.891; -612.803
628.160;    6.777;  312.880; -161.783
628.433; -176.775; -695.125; -703.775
628.706; -131.015; -517.120; -615.784
628.979;   89.434;  296.876;  117.223
629.253; -183.400; -785.119; -833.786
629.526;  336.902; -334.126; -253.772
629.799;  269.544; -641.123; -479.778
630.072;  107.177; -497.128; -516.769
630.346; -173.470;-1115.116;-1080.790
630.619;  445.350; -467.107; -545.808
630.892;  686.897;  709.889;  593.200
631.165;  467.591;  790.896;  679.187
631.438; -222.716;-1092.112;-1055.798
631.711;  129.749;  453.877;  257.221
631.984;  -97.077; -523.117; -624.789
632.257; -167.782; -636.117; -681.789
632.530;  -77.307; -412.119; -433.785
632.803;   84.851; -109.115;    7.207
633.076;  -69.561; -360.123; -422.777
633.349;   41.883;  173.872;  121.231
633.622;  -50.809; -187.119; -240.785
633.895; -236.621; -903.120; -823.783
634.167; -126.895; -496.126; -525.773
634.440;  -23.161;  -19.116; -137.792
634.713;   27.798;  -22.119; -120.786
634.986;  186.868;  593.871;  453.233
635.258; -124.851; -507.115; -597.793
635.531;  228.312;  742.882; -343.788
635.804;   -9.279; -303.117; -318.789
636.077; -156.366; -830.116; -852.791
636.349;  -73.453; -586.115; -474.793
636.622;  713.001; 1695.874; 1392.228
636.894;  196.086; -474.120; -909.784
637.167;   34.293; -836.127; -789.771
637.439;   52.087; -278.128; -213.770
637.712;  -93.596; -312.126; -293.772
637.984; -152.866; -635.116; -707.791
638.257;  598.640;  515.877;  488.222
638.529;  516.426; -881.125; -924.776
638.802;  237.877; -508.128; -449.769
639.074; -225.539; -927.122; -952.781
639.346; -231.001; -942.135; -930.757
639.619;   39.105;  -79.142; -319.744
639.891;    2.952;  -83.122; -168.779
640.163; -155.046; -689.122; -756.780
640.435;  100.257;  273.878;  103.220
640.708;   40.959;  -72.122; -132.780
640.980;  -35.538; -366.122; -362.781
641.252;  304.465;  -25.121;  -71.781
641.524; 2356.967;  580.879;  573.219
641.796; 2101.870;-1094.121; -907.782
642.068;  381.373; -191.121; -300.782
642.340;  -72.825; -486.121; -566.783
642.613;  104.678;  294.880;  323.217
642.885; -195.119; -787.120; -878.783
643.157; -132.017; -810.120; -658.784
643.428;  142.286;  170.880;  218.216
643.700;  -90.112; -498.120; -425.784
643.972;  -10.909;  -16.119; -133.785
644.244; -118.406; -474.119; -559.785
644.516;  -35.204; -250.119; -114.786
644.788;  182.999;  662.881;  548.214
645.060;    0.202;  -12.119; -124.786
645.332; -154.796; -525.118; -535.787
645.603;  121.207;  479.882;  342.213
645.875; -115.191; -334.118; -369.787
646.147;  392.612; 1487.882; 1242.212
646.418; -181.185; -931.117; -918.788
646.690;   36.817; -714.117; -715.789
646.962;    9.820; -413.117; -451.789
647.233;   59.223;   15.883;   11.211
647.505; -151.275; -595.117; -475.790
647.776;  127.228;  328.884;  229.210
648.048;  -16.370; -248.116; -418.790
648.320; -164.567; -752.116; -679.791
648.591; -276.864;-1055.116; -958.791
648.862; -130.462; -505.116; -577.792
649.134;   83.341;  115.885;  198.208
649.405; -106.756; -661.115; -618.792
649.677; -116.254; -475.115; -598.793
649.948;    3.749; -181.115; -296.793
650.219;   21.052;  -37.115; -147.793
650.491;  -98.846; -431.114; -520.794
650.762; -203.743; -705.114; -731.794
651.033;  -88.941; -437.114; -424.795
651.304; -188.638; -743.114; -728.795
651.576; -138.135; -680.114; -645.795
651.847;  -36.633; -250.113; -140.796
652.118;  -21.730;  -32.113; -189.796
652.389; -194.227; -639.113; -722.796
652.660;  -19.325; -147.113;  -89.797
652.931; -269.622; -897.112; -871.797
653.202; -120.720; -382.112; -541.798
653.473; -128.917; -633.112; -533.798
653.744;  120.486; -595.112; -590.798
654.015;  110.388; -356.112; -303.799
654.286; -118.009; -642.111; -663.799
654.557; -126.106; -586.111; -521.799
654.828; -309.404;-1114.111;-1088.800
655.099; -140.101; -404.111; -291.800
655.370; -135.399; -427.111; -543.801
655.641; -205.996; -656.110; -714.801
655.911; -134.893; -618.110; -638.801
656.182;  194.009;  437.890;  387.198
656.453;  301.712;  830.890;  746.198
656.724;  -96.285; -466.110; -426.802
656.994; -135.683; -553.109; -568.803
657.265; -190.580; -862.109; -873.803
657.536; -105.678; -500.109; -377.804
657.806; -164.275; -561.109; -593.804
658.077; -240.172; -866.109; -950.804
658.347; -151.670; -523.108; -598.805
658.618; -176.967; -646.108; -694.805
658.888;   -8.864;  -41.108;  112.195
659.159; -118.962; -432.108; -548.806
659.429;  -29.159; -292.108; -349.806
659.700;   -4.756; -435.107; -390.807
659.970;   -7.654; -370.107; -359.807
660.241;  -80.351; -754.107; -921.807
660.511;  490.851; -147.107; -174.808
660.781;    9.954; -793.106; -748.808
661.052;  -65.843; -222.106; -381.808
661.322;   34.859;   21.894;   -9.809
661.592;   96.662;  257.894;  148.191
661.862;  -97.235; -369.106; -382.810
662.133; -156.333; -551.105; -502.810
662.403; -198.530; -770.105; -676.810
662.673;  -92.928; -256.105; -213.811
662.943; -167.325; -612.105; -551.811
663.213;   10.578;  -85.105;  -81.811
663.483; -153.220; -593.104; -568.812
663.753;  -53.717; -194.104; -152.812
664.023;   32.386;   68.896;  -32.813
664.293;  -61.912; -319.104; -126.813
664.563; -189.709; -694.104; -648.813
664.833; -201.407; -743.103; -608.814
665.103; -186.304; -730.103; -793.814
665.373; -211.701; -766.103; -806.814
665.643; -200.299; -863.103; -918.815
665.913;  -13.996; -534.103; -714.815
666.182;   99.407; -685.102; -719.816
666.452;  287.309;  -22.102;  -89.816
666.722;  -78.788; -724.102; -784.816
666.992; -255.586; -948.102; -921.817
667.261; -161.183; -824.102; -808.817
667.531;  325.820;  134.899;   45.183
667.801;  660.422; -440.101; -412.818
668.070;  449.325;  714.899;  697.182
668.340; -174.772; -883.101; -840.819
668.609;  194.230;  588.900;  301.181
668.879; -147.767; -490.100; -558.819
669.149; -140.164; -539.100; -516.820
669.418; -190.662; -698.100; -726.820
669.688;  -69.859; -482.100; -666.820
669.957;   34.443; -423.099; -546.821
670.226;  -47.154; -268.099; -331.821
670.496; -154.351; -431.099; -635.822
670.765; -113.849; -418.099; -501.822
671.034; -221.346; -872.099; -828.822
671.304;   27.157;   55.902; -111.823
671.573; -242.241;-1085.098; -957.823
671.842;   63.262; -380.098; -294.823
672.112;  -30.436; -692.098; -586.824
672.381;  -21.633; -239.098; -214.824
672.650; -248.530;-1005.097;-1021.825
672.919; -174.628; -631.097; -507.825
673.188; -165.625; -681.097; -878.825
673.457; -273.822;-1101.097;-1143.826
673.726; -120.920; -579.096; -646.826
673.995;  -70.317; -533.096; -479.826
674.265;  -29.315; -263.096; -333.827
674.534;  -14.012; -183.096; -235.827
674.802;  -48.409; -618.096; -703.828
675.071; 1071.593; -886.095; -801.828
675.340; 3909.996; -464.095; -339.828
675.609; 1363.699;  103.905;   82.171
675.878;  -46.899; -949.095; -893.829
676.147;   78.104;  -26.095;   -8.829
676.416;   81.407; -210.094; -294.830
676.685;  891.709; 1000.906; -622.830
676.953;   36.112; -603.094; -452.831
677.222;  -55.286; -193.094; -273.831
677.491;  -12.683;  -24.094; -127.831
677.759;   30.820;   11.907;  172.168
678.028;  -15.478; -279.093; -222.832
678.297;   34.225;   71.907;  197.168
678.565; -256.472; -898.093; -944.833
678.834; -102.170; -311.093; -268.833
679.102;  -93.667; -411.092; -391.834
679.371; -254.665; -898.092; -727.834
679.639; -221.562; -797.092; -786.834
679.908; -238.259; -794.092; -724.835
680.176; -288.957; -895.091; -941.835
680.445;  -94.054; -346.091; -352.835
680.713;    1.849;  -58.091;  -23.836
680.982; -149.249; -523.091; -525.836
681.250; -188.046; -578.091; -507.837
681.518; -178.044; -534.090; -751.837
681.787;    0.259; -204.090; -167.837
682.055;  -94.438; -490.090; -422.838
682.323; -254.536; -993.090; -992.838
682.591;   -5.133; -216.090; -538.838
682.859;  120.970;    9.911;  -35.839
683.128;   80.572;  232.911;  497.161
683.396; -300.025;-1102.089;-1122.840
683.664;  -33.623; -241.089;   21.160
683.932;   72.180;  144.911;  -76.840
684.200; -138.017; -576.088; -320.841
684.468;  -21.915;  -73.088; -124.841
684.736;  -50.012; -214.088; -175.841
685.004; -229.909;-1024.088; -982.842
685.272; -128.907; -880.088; -774.842
685.540; -128.004; -499.087; -557.843
685.808; -146.101; -651.087; -682.843
686.076; -186.499; -894.087; -969.843
686.343; -114.396; -601.087; -815.844
686.611;   42.506; -195.087; -224.844
686.879;  507.409; -530.086; -553.844
687.147; 3273.812; -483.086; -480.845
687.414;  963.814;  -12.086; -169.845
687.682;  -34.083; -658.086; -757.846
687.950;  407.120;  259.915;  263.154
688.217;  -61.478; -792.085; -760.846
688.485;  -31.075; -632.085; -636.847
688.753;  557.427;  -11.085; -102.847
689.020;   21.630; -820.085; -851.847
689.288; -222.067; -853.084; -787.848
689.555;   -2.065; -195.084; -148.848
689.823;  -41.362; -241.084; -345.849
690.090; -164.059; -546.084; -651.849
690.358; -269.657; -877.084; -897.849
690.625;   48.546;  120.917;   45.150
690.892; -103.652; -403.083; -369.850
691.160;    2.151;   72.917;  -35.850
691.427;   78.454;  141.917;  130.149
691.694; -243.044; -855.083; -929.851
691.962; -273.341;-1177.082;-1060.852
692.229;   59.162;  127.918;   56.148
692.496;   92.464;  130.918;  -49.852
692.763;   38.067; -164.082; -201.853
693.031; -108.531; -739.082; -716.853
693.298;  -70.128; -509.081; -368.853
693.565;  389.175; -155.081; -163.854
693.832; 1316.277;   -5.081;   -9.854
694.099;  118.780; -643.081; -642.855
694.366; -139.017; -882.081; -896.855
694.633;  -95.815; -920.080; -633.855
694.900; 1506.288; 4367.920; -114.856
695.167;  460.891; -214.080; -380.856
695.434;   87.293; -646.080; -623.856
695.701;  339.496;  121.921;  -61.857
695.968;  548.198; -365.079; -361.857
696.234; 1683.101; -415.079; -646.858
696.501;16128.104; -776.079; -614.858
696.768; 7695.706; -554.079; -617.858
697.035;  488.209; -632.078; -667.859
697.302;   57.212; -448.078; -552.859
697.568;   40.214; -458.078; -497.859
697.835;  -42.583; -683.078; -624.860
698.102;  -62.081; -498.078; -407.860
698.368;  232.022;  384.923;  396.139
698.635;  -22.975;  -47.077; -424.861
698.901;   -8.173; -240.077; -348.861
699.168;   50.430; -534.077; -456.862
699.435;  106.433;  -72.077;  -13.862
699.701; -214.765; -868.076; -764.862
699.968;  -59.162;  144.924; -441.863
700.234; -175.960; -783.076; -822.863
700.500;  -55.357; -448.076; -539.864
700.767;   50.346;   -1.075;   26.136
701.033; -228.352;-1015.075; -963.864
701.299;  -90.849; -450.075; -483.865
701.566;  287.154;  950.925;  763.135
701.832;   94.156;  -31.075;  -76.865
702.098; -141.641;-1054.074;-1034.866
702.365; -200.338;-1098.074;-1030.866
702.631; -102.336;-1038.074;-1063.867
702.897; 1714.567; -765.074; -676.867
703.163; 2640.069;  348.926;  254.133
703.429;  194.372; -256.073; -273.868
703.695;  -78.225; -796.073; -792.868
703.961;   75.377; -214.073; -210.868
704.227;  -86.420; -630.073; -725.869
704.493;  275.483;  613.927;  510.131
704.759;    2.685; -565.072; -540.870
705.025;   75.688; -203.072; -194.870
705.291;   31.190; -666.072; -562.870
705.557;  397.693;  719.928;   34.129
705.823;   49.996; -742.072; -694.871
706.089;  266.498; -307.071; -326.871
706.355;  708.001; -315.071; -244.872
706.620;10092.204; -776.071; -729.872
706.886;11876.406; -309.071; -362.873
707.152;  938.609; -818.070; -973.873
707.418;  -35.789;-1153.070;-1186.873
707.683;   29.014; -550.070; -530.874
707.949;  -50.583; -547.070; -578.874
708.215;   51.619; -129.070; -207.874
708.480;  -20.278; -520.069; -420.875
708.746;  167.525;   68.931;   28.125
709.011;  -69.773; -578.069; -612.876
709.277; -129.770; -538.069; -543.876
709.542;  -56.368; -428.069; -387.876
709.808;   29.435;  -59.068;   89.123
710.073;  -98.162; -577.068; -695.877
710.339;   19.440; -242.068; -228.877
710.604;   77.143; -780.068; -845.878
710.869;  355.646; -277.068; -366.878
711.135; -115.852; -715.067; -628.879
711.400; -130.449; -507.067; -608.879
711.665;  -73.646; -404.067; -479.879
711.931; -145.344; -661.067; -677.880
712.196; -174.041; -876.067; -954.880
712.461;   80.961; -402.066; -490.880
712.726;   75.364; -727.066; -771.881
712.991; -150.833; -647.066; -664.881
713.256;  -37.331; -350.066; -332.882
713.521;  -65.428; -417.065; -381.882
713.787;  -87.125; -454.065; -472.882
714.052;    8.777; -214.065; -400.883
714.317; -171.020;-1045.065; -981.883
714.581; 1786.682; -374.065; -268.883
714.846; 2116.685; -822.064; -888.884
715.111;  292.488;  261.936;  257.116
715.376;   30.790;  -86.064; -223.885
715.641;  -13.807; -365.064; -367.885
715.906;  311.896;   15.936; -551.885
716.171;  211.798;  221.937;  209.114
716.436;   67.401;  -78.063; -104.886
716.700; -183.597; -818.063; -692.886
716.965; -183.994; -794.063; -807.887
717.230; -104.791; -339.063; -392.887
717.494;    8.811;  -40.062; -134.888
717.759; -154.286; -784.062; -640.888
718.024;   64.317;  269.938;  250.112
718.288;  168.819;  685.938;  395.111
718.553; -227.178; -803.062; -977.889
718.817; -211.176; -883.061; -899.889
719.082;    1.427; -115.061; -125.890
719.346; -245.370;-1000.061; -947.890
719.611;  -43.168; -300.061; -255.891
719.875; -151.665; -568.060; -537.891
720.140;  -98.662; -453.060; -603.891
720.404;   55.440; -136.060; -249.892
720.668;  853.843; -475.060; -411.892
720.933;  388.746;  146.940;  137.108
721.197; -162.552; -667.059; -600.893
721.461; -243.049; -851.059; -826.893
721.725;   52.153;  -21.059; -250.894
721.990;  -77.344; -284.059; -204.894
722.254;   -2.641;  -26.059; -108.894
722.518;  -94.839; -286.058; -442.895
722.782; -130.236; -743.058; -594.895
723.046;  247.067;  614.942;  570.105
723.310;  103.169;  374.942;  210.104
723.574; -157.028; -654.058; -614.896
723.838; -137.726; -576.057; -642.897
724.102;  -35.723; -226.057; -239.897
724.366; -237.320;-1032.057; -978.897
724.630; -125.018; -749.057; -571.898
724.894; -127.615; -722.057; -514.898
725.158;   19.688;   38.944; -295.898
725.422;  -62.810; -394.056; -327.899
725.685;  -86.207; -441.056; -349.899
725.949; -139.505; -566.056; -519.900
726.213; -142.102; -732.056; -811.900
726.477;   96.701;-1020.055; -933.900
726.740;  156.103; -274.055; -104.901
727.004;  549.806; -384.055; -510.901
727.268; 5175.809; -442.055; -400.901
727.531; 1266.611; -961.055; -775.902
727.795;  -49.486; -713.054; -673.902
728.059;  -79.784; -552.054; -557.903
728.322; -139.281; -841.054; -669.903
728.586;  -42.078; -692.054; -701.903
728.849; -171.976; -695.053; -756.904
729.112; -177.573; -812.053; -912.904
729.376; -217.670; -959.053; -905.904
729.639; -102.768; -536.053; -536.905
729.903; -186.565; -733.053; -699.905
730.166;  -50.062; -437.052; -399.906
730.429;   -8.160; -317.052; -468.906
730.693;  -80.657; -355.052; -894.906
730.956;  388.545;  810.948;  651.093
731.219;  772.248; -310.052; -103.907
731.482;   42.951;-1003.051; -894.907
731.745;   -2.147; -794.051; -935.908
732.009;   55.456;  -30.051;   50.092
732.272; -137.841; -904.051; -771.909
732.535;  -37.639; -300.051; -310.909
732.798; -257.836;-1083.050;-1166.909
733.061;  -79.134; -430.050; -456.910
733.324;   65.369;   31.950; -180.910
733.587;  148.872;  290.950;  365.090
733.850; -124.526; -973.049;-1050.911
734.113;   90.877;   33.951;   32.089
734.376;   25.280; -328.049; -447.912
734.639;  418.582; 1188.951; 1011.088
734.901;  124.385; -180.049; -402.912
735.164;  581.987; -883.048; -837.913
735.427; 1405.290; -166.048; -355.913
735.690;  183.593; -205.048; -234.913
735.952;  -94.105; -923.048; -925.914
736.215;  -78.602;-1113.048;-1009.914
736.478;   17.201; -771.047; -774.915
736.740;  318.403;   33.953;  129.085
737.003;  865.306; -658.047; -672.915
737.266; 4532.009;  -94.047;   46.084
737.528;  543.811; -682.047; -660.916
737.791;  439.614; -316.046; -327.916
738.053; 1362.116;  465.954;  649.083
738.316;16177.519; -162.046; -136.917
738.578; 9915.022; -770.046; -736.918
738.841;  668.124; -382.046; -446.918
739.103;  224.527; -875.045; -777.918
739.365;  669.930;   79.955;  -69.919
739.628;  -16.668; -884.045; -805.919
739.890;  -70.665; -758.045; -710.919
740.152;  -63.663; -692.044; -754.920
740.414;  -14.060; -408.044; -359.920
740.677;  -68.157; -785.044; -634.921
740.939;  -68.255; -587.044; -487.921
741.201;  282.448; -432.044; -572.921
741.463;    4.451; -689.043; -745.922
741.725;   61.253;  -21.043; -199.922
741.987;  150.156;  220.957;  116.078
742.249;  -52.442; -751.043; -859.923
742.511;  185.761; -703.043; -794.923
742.773;   -6.536; -546.042; -546.924
743.035;  254.066;  796.958;  533.076
743.297;  -91.831; -963.042;-1013.924
743.559;  880.772; -278.042; -262.925
743.821;   32.474; -735.042; -744.925
744.083;   70.177;  -44.041; -149.925
744.345; -159.821; -869.041; -892.926
744.607;  102.682;   75.959;  122.074
744.868;  -85.815; -490.041; -554.927
745.130; -174.413; -994.041;-1008.927
745.392;  141.390;   -1.040;  -44.927
745.653;  -29.307; -411.040; -378.928
745.915;  349.595;  896.960;  631.072
746.177;   96.098;   35.960;  -43.928
746.438;    2.501; -428.040; -543.929
746.700; -110.097; -947.039; -988.929
746.961;   21.906; -659.039; -740.930
747.223;  246.908; -190.039;  -74.930
747.484;  153.911; -391.039; -471.930
747.746;  239.014;  -23.038; -106.931
748.007;  116.516; -647.038; -689.931
748.269;  398.419; -468.038; -440.931
748.530;  551.122; -852.038; -638.932
748.791;  326.224; -354.038; -420.932
749.053;  669.427;  286.963;  163.067
749.314;  625.029; -236.037; -169.933
749.575;  614.832; -945.037; -905.933
749.836; 1124.935; -217.037;   86.066
750.098; 3776.637;  -60.037;  -21.934
750.359;45823.340;  414.964;  555.066
750.620;10665.443; -121.036; -220.935
750.881; 1362.545; -585.036; -513.935
751.142; 1915.948; -950.036; -938.936
751.403;25083.650; -789.036; -705.936
751.664; 9592.053;-1034.035; -999.936
751.925;  768.656; -175.035; -262.937
752.186;  401.858; -298.035; -278.937
752.447;  197.661; -590.035; -445.937
752.708;  102.464; -532.035; -648.938
752.969;   21.966; -566.034; -576.938
753.230;    5.669; -777.034; -672.939
753.491;  -20.129; -650.034; -631.939
753.751;  151.474;  109.966;   19.061
754.012;  200.477;  258.967;  181.060
754.273;   99.779; -174.033;  -71.940
754.534;  -28.518; -487.033; -580.940
754.794; -170.915; -926.033; -911.941
755.055;  352.087; 1051.967;  881.059
755.316;  -84.510; -700.032; -566.942
755.576;  -37.107; -606.032; -576.942
755.837;  -29.705; -527.032; -695.942
756.097;  -42.302; -530.032; -564.943
756.358;  -89.600; -725.032; -770.943
756.618; -100.097; -705.031; -641.943
756.879;   47.106; -254.031; -349.944
757.139; -237.392;-1098.031;-1116.944
757.400;  -54.589; -538.031; -553.945
757.660;  -22.286; -365.031; -401.945
757.920;   40.916; -266.030; -228.945
758.181;  -12.981; -468.030; -351.946
758.441; -151.079; -870.030; -809.946
758.701;  -13.276; -308.030; -215.946
758.961;   17.327; -220.030; -278.947
759.222;  -66.371; -574.029; -502.947
759.482; -108.168; -683.029; -723.948
759.742; -128.165; -706.029; -547.948
760.002;   83.237;  -83.029; -143.948
760.262;   80.840;   50.972;  182.051
760.522;  -54.858; -498.028; -574.949
760.782;  -54.255; -738.028; -612.949
761.042;  -61.652; -618.028; -573.950
761.302;  171.650;   55.972;  -18.950
761.562;  139.953; -164.027; -154.951
761.822;   94.856; -710.027; -551.951
762.082;  -84.942;-1104.027;-1093.951
762.342;  154.461; -328.027; -403.952
762.601;  153.964; -567.027; -506.952
762.861;  476.466; -281.026; -207.952
763.121;  719.669; -406.026; -411.953
763.381;13028.471; -499.026; -485.953
763.640;12053.674; -139.026; -307.954
763.900;  646.477; -242.026; -203.954
764.160;  198.379; -458.025; -491.954
764.419;    2.682; -726.025; -782.955
764.679; -115.715; -795.025; -726.955
764.939;   41.787; -124.025; -210.955
765.198; -113.510; -608.025; -563.956
765.458;  -87.008; -710.024; -612.956
765.717; -105.605; -454.024; -590.957
765.976;  -67.102; -428.024; -411.957
766.236; -115.100; -475.024; -610.957
766.495;  109.403;  260.977;   73.042
766.755; -161.494;-1090.023; -987.958
767.014;  -54.192; -594.023; -665.958
767.273;  -12.989; -373.023; -397.959
767.533;  -16.987; -228.023; -307.959
767.792;  -11.184; -151.022; -188.960
768.051;  -55.981; -228.022; -276.960
768.310; -105.079; -546.022; -650.960
768.569;   64.124; -161.022;    4.039
768.828;   -6.773; -285.022; -363.961
769.088; -180.371;-1050.021; -942.961
769.347; -150.968; -755.021; -599.962
769.606; -141.866; -876.021; -857.962
769.865; -182.063;-1016.021;-1033.963
770.124;   57.340; -411.021; -336.963
770.383;  -70.558; -778.020; -910.963
770.641;    4.145; -398.020; -400.964
770.900;  -84.752; -953.020; -846.964
771.159;  -54.550; -851.020; -951.964
771.418;   -2.547; -917.020; -779.965
771.677;  265.956; -224.019; -293.965
771.936;  292.758; -794.019; -865.966
772.194; 4868.761; -465.019; -437.966
772.453;18120.263; -213.019; -391.966
772.712; 1329.666;  416.982;  329.033
772.970;  316.469;   32.982;   63.033
773.229;  239.071;  -22.018;  102.033
773.488; -117.726; -814.018; -770.968
773.746;  170.177;  296.982;  335.032
774.005;   67.379;  190.983;  -22.969
774.263;   95.882;  243.983;  177.031
774.522;  -97.316; -422.017; -548.969
774.780;  -71.713; -484.017; -417.970
775.039; -132.010; -551.017; -531.970
775.297;   12.492; -135.016; -351.970
775.555; -155.205; -489.016; -612.971
775.814; -170.102; -618.016; -570.971
776.072; -180.600; -749.016; -740.971
776.330; -145.997; -630.016; -520.972
776.589; -146.395; -703.015; -721.972
776.847; -207.192; -645.015; -624.973
777.105; -242.389;-1016.015;-1032.973
777.363; -130.487; -459.015; -454.973
777.621; -179.184; -660.015; -717.974
777.879;   44.319;  -42.014;   32.026
778.138; -150.179; -554.014; -717.974
778.396; -142.276; -585.014; -526.975
778.654; -267.774;-1015.014; -970.975
778.912;  -55.771; -269.014; -371.976
779.170; -196.668; -880.013; -803.976
779.427; -223.266; -922.013; -897.976
779.685; -214.963; -880.013; -832.977
779.943; -144.360; -654.013; -593.977
780.201; -267.758; -964.012; -883.978
780.459; -178.455; -651.012; -610.978
780.717;  -84.752; -440.012; -390.978
780.974; -132.550; -449.012; -490.979
781.232;  -62.747; -358.012; -338.979
781.490; -124.045; -551.011; -472.979
781.747; -123.142; -555.011; -476.980
782.005;  124.461;  462.989;  254.020
782.263; -276.137; -542.011;-1004.981
782.520;  -93.334; -326.011; -501.981
782.778; -273.231;-1013.010;-1051.981
783.035; -278.429; -962.010; -938.982
783.293;  -60.426; -248.010; -206.982
783.550;  -53.424; -134.010; -198.982
783.808; -193.721; -764.010; -776.983
784.065; -265.418; -745.009; -874.983
784.322;  -26.716;   25.991;  -86.984
784.580; -214.913; -915.009; -771.984
784.837; -133.610; -392.009; -466.984
785.094; -222.408; -783.009; -762.985
785.352; -109.605; -304.008; -404.985
785.609; -223.003; -934.008; -839.985
785.866;  -98.500; -345.008; -401.986
786.123; -156.797; -639.008; -583.986
786.380; -155.995; -665.008; -604.987
786.637;   -9.092; -225.007; -380.987
786.895;  -54.489; -456.007; -543.987
787.152;  -25.587; -135.007; -267.988
787.409;  -32.784; -123.007; -225.988
787.666;  -99.681; -299.006; -378.988
787.923; -130.479; -616.006; -695.989
788.179; -140.876; -551.006; -584.989
788.436; -168.074; -585.006; -585.990
788.693;  -30.771;  -92.006;  -87.990
788.950;  188.532; -125.005; -112.990
789.207;  174.934; -381.005; -372.991
789.464;  -36.263; -161.005; -301.991
789.720;   76.340;  150.995;  110.009
789.977; -285.658;-1003.005; -671.992
790.234;   18.345;   44.996;  -66.992
790.490; -243.153; -884.004;-1031.993
790.747;   33.650;  -85.004;   22.007
791.004;  -30.247; -426.004; -348.993
791.260; -105.845; -430.004; -560.994
791.517; -151.842; -843.003; -788.994
791.773;  -65.839; -379.003; -342.994
792.030; -141.137; -596.003; -660.995
792.286; -148.234; -686.003; -636.995
792.543;   48.168;  -74.002; -159.995
792.799;  -75.829; -584.002; -382.996
793.055; -281.026;-1179.002;-1210.996
793.312; -141.424; -827.002; -816.997
793.568;  -94.821; -746.002; -599.997
793.824;   43.682; -226.001; -284.997
794.081;   50.884; -447.001; -508.998
794.337;  124.487; -664.001; -561.998
794.593; 2495.289; -319.001; -271.999
794.849; 9460.592; -746.001; -772.999
795.105;  472.795; -270.000; -261.999
795.361;   57.797; -490.000; -457.000
795.617; -121.300; -875.000; -945.000
795.873;  -45.200; -360.000; -407.000
796.129;  -36.600; -368.000; -306.000
796.385;    9.500; -124.000; -156.000
796.641;  201.500;  412.000;  550.000
796.897;  -95.500; -666.000; -635.000
797.153;  175.600;  453.000;  357.000
797.409; -152.200; -785.000; -868.000
797.665;  -73.800; -625.000; -732.000
797.921; -110.600; -775.000; -762.000
798.176;  -67.300; -744.000; -747.000
798.432;  -89.300; -824.000; -596.000
798.688; -103.900;-1174.000;-1078.000
798.943;  160.000; -165.000; -147.000
799.199;  -13.700;-1005.000; -959.000
799.455;  438.900;  369.000;  316.000
799.710;  232.800; -813.000; -380.000
799.966;  498.500; -162.000; -160.000
800.221;  748.500; -638.000; -721.000
800.477;17277.300; -743.000; -710.000
800.732;12004.200; -773.000; -800.000
800.988; 1142.100;  205.000;  -19.000
801.243; 4597.800; -454.000; -344.000
801.498;15686.400; -814.000; -739.000
801.754;  880.900; -289.000; -163.000
802.009;  237.000; -257.000; -335.000
802.264;   -0.800; -967.000;-1033.000
802.520;   93.900;  222.000;   -3.000
802.775;  -12.000; -524.000; -359.000
803.030;  172.700;  395.000;  356.000
803.285; -175.600; -840.000; -903.000
803.540; -103.600; -686.000; -699.000
803.795;  -60.000; -648.000; -583.000
804.051;  -28.300; -279.000; -346.000
804.306;  131.200;  168.000;  128.000
804.561;  280.300;  451.000;  362.000
804.816;  333.100;  714.000;  861.000
805.071;   27.800; -185.000; -280.000
805.325;  221.500; -257.000; -427.000
805.580; -181.600; -841.000; -877.000
805.835;   43.100; -204.000; -297.000
806.090;  -97.500; -760.000; -676.000
806.345;   40.000; -344.000; -264.000
806.600;  -42.200; -549.000; -632.000
806.854;  -43.800; -408.000; -538.000
807.109;    4.800; -493.000; -577.000
807.364;   34.300; -407.000; -328.000
807.618;   24.600; -415.000; -381.000
807.873;   63.500; -470.000; -494.000
808.128;  191.800; -257.000; -518.000
808.382;  202.300; -224.000; -332.000
808.637;  142.700; -440.000; -511.000
808.891;  338.400; -257.000; -180.000
809.146;  146.000; -902.000; -794.000
809.400;  349.600; -848.000; -923.000
809.654;  499.500; -779.000; -551.000
809.909;  712.700; -841.000; -927.000
810.163;10534.700; -813.000; -651.000
810.418;21492.700; -940.000; -861.000
810.672; 1438.600; -685.000; -690.000
810.926; 1110.300; -993.000; -973.000
811.180; 2515.100; -439.000; -372.000
811.434;54388.400;  240.000;  135.000
811.689;16996.400; -231.000; -365.000
811.943;  882.300; -936.000; -953.000
812.197;  558.900; -893.000; -671.000
812.451;  259.400; -379.000; -514.000
812.705;  -24.000; -809.000; -619.000
812.959;  -31.000; -263.000; -388.000
813.213;   42.600; -283.000; -209.000
813.467;  226.600;  470.000;  253.000
813.721; -154.100; -764.000; -792.000
813.975; -162.200; -826.000; -877.000
814.229;  160.400;  430.000;  353.000
814.482;  -89.900; -517.000; -566.000
814.736; -180.100; -766.000; -744.000
814.990; -193.000; -779.000; -872.000
815.244;  -49.100; -228.000; -285.000
815.497; -136.600; -636.000; -601.000
815.751;   35.500; -141.000;   82.000
816.005; -107.100; -470.000; -586.000
816.258;  -65.500; -510.000; -363.000
816.512; -163.500; -693.000; -610.000
816.766;   85.600;  121.000;  157.000
817.019;   78.900;  148.000;  149.000
817.273; -178.900;-1000.000; -802.000
817.526;    0.500; -206.000; -173.000
817.779; -133.300;-1049.000; -960.000
818.033; -131.700; -693.000; -807.000
818.286; -170.300; -725.000; -792.000
818.540; -135.000; -403.000; -403.000
818.793;  -91.000; -402.000; -489.000
819.046; -106.900; -582.000; -520.000
819.299;    2.700; -157.000; -166.000
819.553; -126.100; -552.000; -592.000
819.806; -257.400;-1016.000; -838.000
820.059;  -54.700; -334.000; -354.000
820.312;   83.700;  152.000;  185.000
820.565;   73.700;  110.000;  -27.000
820.818;  -29.800;  -59.000; -173.000
821.071; -260.600;-1041.000; -957.000
821.324; -132.900; -536.000; -540.000
821.577; -130.500; -457.000; -483.000
821.830;  -71.500; -270.000; -172.000
822.083; -182.100; -733.000; -288.000
822.336;  -41.500; -261.000; -167.000
822.589; -216.900; -805.000; -688.000
822.842; -214.400; -875.000; -770.000
823.094; -291.400;-1076.000;-1114.000
823.347; -208.600; -925.000; -729.000
823.600;   96.300;  402.000;  187.000
823.853;  -55.200; -311.000; -267.000
824.105;  -96.600; -331.000; -575.000
824.358; -192.100; -617.000; -716.000
824.611;  122.900;  234.000;   40.000
824.863;  -75.300; -612.000; -591.000
825.116;  111.800;  -33.000;   27.000
825.368;   90.900; -366.000; -372.000
825.621;  212.500; -186.000; -240.000
825.873;  128.800; -704.000; -737.000
826.126; 1077.200; -669.000; -641.000
826.378;18199.100; -389.000; -505.000
826.630; 3306.200; -890.000; -898.000
826.883;   51.000; -754.000; -693.000
827.135;   88.400; -279.000; -270.000
827.387; -228.700; -893.000; -839.000
827.639;  -34.700;  -86.000;   32.000
827.892; -208.200; -742.000; -582.000
828.144; -189.900; -848.000; -804.000
828.396;    3.700;  104.000;  -80.000
828.648; -109.000; -440.000; -333.000
828.900; -259.500; -702.000; -795.000
829.152; -177.600; -684.000; -683.000
829.404;  -76.200; -215.000; -267.000
829.656;   84.300;  321.000;  214.000
829.908;   33.000;  393.000;  229.000
830.160; -268.800;-1064.000;-1047.000
830.412; -120.300; -481.000; -430.000
830.664; -172.800; -557.000; -665.000
830.916; -102.800; -268.000; -206.000
831.167; -292.900;-1073.000; -951.000
831.419; -172.200; -623.000; -566.000
831.671; -235.000; -764.000; -809.000
831.923; -103.600; -311.000; -447.000
832.174;  -71.700; -273.000; -331.000
832.426; -150.800; -493.000; -582.000
832.678; -290.400;-1043.000;-1091.000
832.929; -278.100; -947.000; -935.000
833.181; -138.800; -575.000; -677.000
833.432;  -32.200;  -59.000; -186.000
833.684;   35.300;  112.000;  -27.000
833.935; -146.800; -610.000; -566.000
834.187; -206.300; -829.000; -823.000
834.438;  -27.400;  -58.000;  -25.000
834.689;  -65.200; -255.000; -123.000
834.941;  -69.800; -343.000; -244.000
835.192; -100.500; -590.000; -533.000
835.443; -111.000; -419.000; -506.000
835.695;   45.900;  138.000;  -16.000
835.946; -107.600; -608.000; -378.000
836.197; -152.500; -599.000; -622.000
836.448; -136.200; -528.000; -395.000
836.699;  -44.900; -253.000; -341.000
836.950;   31.200;   72.000;    7.000
837.201; -258.300;-1003.000; -987.000
837.452;  -57.500; -356.000; -170.000
837.703; -151.600; -791.000; -737.000
837.954;  -35.800; -205.000; -365.000
838.205; -181.300;-1029.000;-1008.000
838.456;  197.600; -196.000; -282.000
838.707;   32.100; -423.000; -519.000
838.958;  -26.200; -634.000; -647.000
839.209;  358.700;   18.000;   40.000
839.460;  186.600; -439.000; -201.000
839.710;  286.000; -135.000; -297.000
839.961;  711.500;  730.000;  612.000
840.212;  540.700; -382.000; -497.000
840.462; 1979.300; -328.000; -277.000
840.713;29722.800; -571.000; -536.000
840.964; 9266.800;  -62.000; -143.000
841.214;  725.800; -384.000; -624.000
841.465;  803.900; -214.000; -141.000
841.715;  703.600; -417.000; -380.000
841.966;  853.900; -746.000; -685.000
842.216;14550.000; -330.000; -431.000
842.466;43345.700; -169.000; -313.000
842.717; 1697.400; -964.000; -952.000
842.967;  421.400; -635.000; -641.000
843.217;  393.700;   20.000;   28.000
843.468;  122.100; -104.000; -132.000
843.718;  -92.500; -718.000; -726.000
843.968; -135.600; -837.000; -765.000
844.218;   42.800; -315.000; -262.000
844.469;  -37.300; -577.000; -561.000
844.719; -154.200; -537.000; -682.000
844.969; -144.500; -550.000; -580.000
845.219; -235.700; -814.000; -862.000
845.469;  -98.800; -392.000; -342.000
845.719; -210.400; -792.000; -884.000
845.969;   59.300;  119.000;  174.000
846.219; -185.200; -738.000; -720.000
846.469;  117.700;  464.000;  432.000
846.718;  -21.200; -115.000;   31.000
846.968; -225.300; -827.000; -827.000
847.218;  -30.300; -224.000; -371.000
847.468; -194.900; -586.000; -555.000
847.718; -232.400; -827.000; -798.000
847.967; -197.100; -826.000; -915.000
848.217;  -75.600; -449.000; -569.000
848.467;  -82.400; -405.000; -376.000
848.716; -166.900; -708.000; -725.000
848.966;   10.500; -372.000; -358.000
849.215; -106.600; -428.000; -419.000
849.465; -168.100; -785.000; -615.000
849.714; -257.800;-1132.000;-1150.000
849.964;  -75.800; -551.000; -613.000
850.213;   26.700; -393.000; -355.000
850.463;  158.100;  137.000;  340.000
850.712;  -11.900; -542.000; -567.000
850.961;   37.800; -739.000; -678.000
851.211;  164.800; -513.000; -504.000
851.460;  255.000; -635.000; -650.000
851.709;  960.500;  -25.000;   18.000
851.958;17885.300; -912.000; -750.000
852.208;16734.600; -859.000; -879.000
852.457;  701.900; -181.000;  -13.000
852.706;  120.700; -791.000; -823.000
852.955;    5.500; -507.000; -528.000
853.204; -108.600; -521.000; -461.000
853.453; -102.600; -418.000; -458.000
853.702; -210.800; -660.000; -750.000
853.951; -169.400; -532.000; -520.000
854.200; -141.500; -613.000; -562.000
854.449; -191.500; -695.000; -661.000
854.698; -122.300; -340.000; -279.000
854.946;  -29.000; -181.000; -284.000
855.195; -239.000; -843.000; -868.000
855.444; -136.600; -395.000; -420.000
855.693; -169.100; -345.000; -432.000
855.941; -172.100; -387.000; -516.000
856.190;  -50.000; -256.000; -382.000
856.439; -209.100; -652.000; -703.000
856.687;  -61.600;  -99.000;  -72.000
856.936; -166.100; -621.000; -323.000
857.184; -270.600;-1067.000;-1020.000
857.433; -141.100; -423.000; -512.000
857.681; -274.300; -989.000; -953.000
857.930; -109.800; -282.000; -433.000
858.178; -284.900; -856.000; -929.000
858.427; -255.700; -802.000; -781.000
858.675; -172.800; -377.000; -544.000
858.923; -166.500; -527.000; -819.000
859.172; -312.200;-1094.000;-1070.000
859.420;  -74.000; -339.000; -239.000
859.668; -199.600; -624.000; -628.000
859.916;   13.700;  109.000;  115.000
860.164; -161.800; -699.000; -603.000
860.413;  264.100; -878.000; -696.000
860.661;  105.800; -709.000; -577.000
860.909; -117.300; -339.000; -325.000
861.157; -105.800; -277.000; -444.000
861.405; -189.100; -534.000; -670.000
861.653;   85.300;  310.000;  310.000
861.901;  176.800; -543.000; -613.000
862.149; -125.600; -801.000; -824.000
862.396; -102.500; -297.000; -187.000
862.644; -105.400; -368.000; -347.000
862.892;   -5.300;   98.000;  138.000
863.140; -163.900; -549.000; -530.000
863.388; -280.400; -815.000; -759.000
863.635; -178.100; -642.000; -601.000
863.883;   65.200;  231.000;  190.000
864.131; -117.700; -288.000; -357.000
864.378; -214.600; -675.000; -540.000
864.626; -109.400; -347.000; -415.000
864.873; -192.800; -556.000; -505.000
865.121; -241.200; -714.000; -799.000
865.368;   -8.300; -173.000;   75.000
865.616;    0.700;  -33.000;  -40.000
865.863;  -77.900; -462.000; -506.000
866.111; -149.800; -795.000; -824.000
866.358;  162.700; -426.000; -420.000
866.605; 5518.400;  -64.000; -804.000
866.853; 4283.300; -621.000; -537.000
867.100;  -16.700; -728.000; -775.000
867.347; -131.400; -672.000; -611.000
867.594; -123.400; -740.000; -714.000
867.841;  139.200;   97.000;   17.000
868.089; -221.900; -746.000; -698.000
868.336; -149.900; -477.000; -420.000
868.583; -217.900; -637.000; -741.000
868.830;   -3.200; -131.000; -170.000
869.077; -258.500; -859.000; -787.000
869.324; -181.700; -502.000; -458.000
869.571; -166.800; -398.000; -430.000
869.818; -176.100; -485.000; -439.000
870.065; -121.700; -439.000; -513.000
870.311; -162.900; -456.000; -542.000
870.558; -103.100; -332.000; -311.000
870.805; -103.500; -320.000; -384.000
871.052; -160.200; -494.000; -369.000
871.298;  -46.500; -204.000; -131.000
871.545;  -65.600; -151.000; -185.000
871.792; -115.600; -173.000; -222.000
872.038;  -35.400;   43.000; -126.000
872.285; -179.300; -496.000; -387.000
872.532;  -83.500; -357.000; -387.000
872.778;   82.200;  556.000;  403.000
873.025; -116.400; -384.000; -359.000
873.271;  133.500;  501.000;  578.000
873.517;   -9.000; -133.000; -209.000
873.764;  -59.700; -193.000;  -80.000
874.010;  -44.000; -143.000; -230.000
874.257;  -27.900;  123.000;   90.000
874.503; -147.500; -579.000; -479.000
874.749;  -36.000;   31.000;  275.000
874.995;  -51.100;  -80.000;  -20.000
875.242; -131.400; -540.000; -478.000
875.488; -145.500; -414.000; -439.000
875.734;  -76.900; -106.000; -234.000
875.980;  159.700; -872.000;-1032.000
876.226;  320.000; -157.000; -255.000
876.472;   55.000;  343.000;  237.000
876.718;  -25.000;  184.000;  158.000
876.964;  -38.200;   56.000;   55.000
877.210; -219.600; -547.000; -677.000
877.456; -200.800; -630.000; -557.000
877.702; -262.500; -821.000; -832.000
877.948; -150.800; -377.000; -497.000
878.193;   97.400;  361.000;  255.000
878.439; -137.400; -487.000; -472.000
878.685; -116.400; -272.000; -343.000
878.931; -195.500; -618.000; -676.000
879.176;  -92.300; -201.000; -201.000
879.422; -265.200; -933.000; -820.000
879.668;  161.300;   10.000;   79.000
879.913;  204.500;   53.000;  137.000
880.159;  -92.200; -112.000;  -17.000
880.404;   -3.700; -152.000; -162.000
880.650;    0.700;   91.000;  141.000
880.895; -208.800; -670.000; -710.000
881.141; -176.000; -454.000; -428.000
881.386; -230.200; -503.000; -658.000
881.631; -139.700; -311.000; -166.000
881.877;    0.200;  112.000;  -13.000
882.122; -194.500; -684.000; -600.000
882.367; -101.900; -136.000; -186.000
882.612;  -63.400;  -80.000; -176.000
882.858; -263.100; -877.000; -823.000
883.103; -128.900; -297.000; -267.000
883.348; -237.100; -759.000; -852.000
883.593; -213.800; -677.000; -602.000
883.838;  -51.200; -311.000;  -24.000
884.083;   76.200;  353.000;  288.000
884.328; -113.200; -564.000; -545.000
884.573;  -57.300; -196.000; -143.000
884.818;  209.900; -694.000; -531.000
885.063;  148.000; -348.000; -315.000
885.308; -135.100; -475.000; -398.000
885.553;   83.400;  245.000;  325.000
885.797; -160.100; -545.000; -615.000
886.042;  -35.600;    8.000;   58.000
886.287;  -89.700; -253.000; -211.000
886.532;  -31.300;   26.000;  204.000
886.776; -125.000; -407.000; -525.000
887.021; -195.500; -621.000; -574.000
887.265; -230.500; -685.000; -689.000
887.510; -204.300; -557.000; -496.000
887.755;  -88.100; -194.000; -164.000
887.999; -208.800; -552.000; -575.000
888.244;  -29.300;  -58.000;  161.000
888.488;   78.200;  371.000;  393.000
888.732; -193.000; -368.000; -520.000
888.977; -228.900; -622.000; -567.000
889.221; -251.400; -683.000; -659.000
889.465; -184.700; -422.000; -566.000
889.710;  -81.300;  -56.000; -299.000
889.954;   69.100;  579.000;  467.000
890.198; -209.600; -584.000; -707.000
890.442; -227.600; -716.000; -712.000
890.687; -245.100; -800.000; -753.000
890.931; -107.900; -273.000; -210.000
891.175; -179.000; -502.000; -500.000
891.419;  -64.100; -105.000; -110.000
891.663;  -91.000; -239.000; -112.000
891.907; -249.000; -801.000; -545.000
892.151; -271.500; -920.000; -815.000
892.395; -146.400; -274.000; -387.000
892.638;   42.700;  408.000;  291.000
892.882; -286.500; -780.000; -867.000
893.126;   99.300;  758.000;  558.000
893.370;  -93.300; -167.000; -168.000
893.614; -224.900; -714.000; -715.000
893.857; -120.500; -183.000; -197.000
894.101; -223.500; -527.000; -631.000
894.345;  -43.400;  300.000;  150.000
894.588;  137.300;  569.000;  380.000
894.832;  -87.100; -178.000;  -84.000
895.075;  -85.300;   15.000;  -92.000
895.319; -175.100; -552.000; -420.000
895.563; -161.000; -413.000; -353.000
895.806; -223.700; -628.000; -741.000
896.049; -102.100; -576.000; -368.000
896.293;  201.300;  527.000;  405.000
896.536; -108.700; -465.000; -468.000
896.779;  -91.000; -149.000;   -1.000
897.023; -234.200; -751.000; -714.000
897.266;  -26.600;  325.000;  269.000
897.509; -289.900; -900.000; -901.000
897.752;  -14.600;  149.000;  171.000
897.996; -300.400; -972.000; -864.000
898.239;  -22.600;  168.000;  102.000
898.482; -170.600; -431.000; -453.000
898.725;  -30.600;  101.000;   53.000
898.968; -223.500; -609.000; -744.000
899.211; -178.600; -513.000; -361.000
899.454; -210.100; -633.000; -539.000
899.697;  -68.100;   90.000;  -43.000
899.940; -261.100; -761.000; -757.000
900.182; -151.400; -335.000; -405.000
900.425; -113.600; -150.000; -298.000
900.668;   41.200;  491.000;  350.000
900.911; -117.600; -292.000; -345.000
901.154;  -35.000;  141.000;   -3.000
901.396; -193.500; -407.000; -412.000
901.639; -211.300; -430.000; -496.000
901.882; -275.300; -790.000; -809.000
902.124;  -86.700;  -29.000; -143.000
902.367; -132.200; -315.000; -361.000
902.609; -204.100; -476.000; -453.000
902.852;  -99.000; -108.000; -260.000
903.094; -174.400; -458.000; -337.000
903.337;   -3.500;  -26.000;   53.000
903.579; -122.100; -228.000; -441.000
903.821; -246.500; -597.000; -744.000
904.064;  -56.000;   85.000;  127.000
904.306; -109.600; -126.000; -166.000
904.548; -137.800; -152.000; -366.000
904.790; -104.400; -195.000; -340.000
905.033; -198.200; -625.000; -577.000
905.275; -180.800; -513.000; -524.000
905.517;  146.700;  468.000;  256.000
905.759; -159.200; -667.000; -761.000
906.001; -139.300; -322.000; -369.000
906.243;  -67.100; -162.000; -224.000
906.485;  152.400; -265.000; -207.000
906.727;   68.600; -499.000; -542.000
906.969;  -66.100;  -30.000; -135.000
907.211;  155.000; -316.000; -382.000
907.453;  292.000; -188.000; -237.000
907.695;    1.200; -158.000; -385.000
907.936;  166.000;  818.000;  706.000
908.178;  -23.800;   92.000; -135.000
908.420;  -69.000; -111.000; -162.000
908.662; -177.700; -633.000; -682.000
908.903; -109.300; -208.000; -123.000
909.145;  -20.200; -240.000; -305.000
909.386;   88.500;  315.000;  280.000
909.628;  151.800;  363.000;  397.000
909.870;   68.900;   29.000;  264.000
910.111; -144.100; -809.000; -949.000
910.353;   94.600; -123.000; -161.000
910.594;   50.900; -574.000; -606.000
910.835;  200.500; -265.000; -326.000
911.077;  330.900; -503.000; -604.000
911.318;  580.300; -505.000; -471.000
911.559;  882.500; -577.000; -880.000
911.801; 2619.000; -284.000; -280.000
912.042;22404.400;  -50.000; -159.000
912.283;47326.200;  404.000;  371.000
912.524; 5632.300; -396.000; -457.000
912.765;  890.200; -193.000;   79.000
913.006;  509.800; -307.000; -338.000
913.247;  117.600; -270.000; -290.000
913.488;   63.300;  -43.000;   30.000
913.729; -108.600; -373.000; -373.000
913.970;  -38.000;  -96.000; -292.000
914.211;  -80.500; -160.000; -198.000
914.452;  -53.900; -118.000;  -11.000
914.693;   88.400;  510.000;  592.000
914.934;  144.600;  510.000;  440.000
915.175;  -97.100;   53.000;  -95.000
915.415;  -64.700; -137.000;   27.000
915.656;  -49.800;  -28.000;  192.000
915.897; -117.100; -252.000;  -82.000
916.137;  -57.400;   74.000;   -9.000
916.378; -174.400; -573.000; -517.000
916.619; -102.400; -159.000;  -63.000
916.859;   45.500;  303.000;  330.000
917.100;  371.500; 1655.000; 1070.000
917.340;  188.200;  930.000;  728.000
917.581;  175.100;  965.000;  789.000
917.821;  -52.400; -171.000;  143.000
918.061;  -12.600; -199.000;  -72.000
918.302;  -41.300; -152.000; -211.000
918.542;  -41.300;  -22.000;    3.000
918.782;  118.800;  369.000;  377.000
919.023;  251.800;  360.000;  427.000
919.263; 2435.300; 8131.000;  202.000
919.503; 1444.400; -137.000;  -54.000
919.743;  797.200;  390.000;  266.000
919.983;  322.800; -134.000;  -26.000
920.223;  174.400;  135.000;   14.000
920.463;  332.200;  631.000;  554.000
920.703;  311.400;   84.000;   39.000
920.943;  292.200; -110.000;   90.000
921.183;  455.500; -414.000; -405.000
921.423;  974.700;  307.000;  546.000
921.663; 1319.500; -174.000; -257.000
921.903; 2925.500;  237.000;  173.000
922.143;18209.200;  372.000;  389.000
922.383;60865.100;  158.000;  115.000
922.622;16001.700; -120.000;  -15.000
922.862; 2017.000;  796.000;  785.000
923.102;  853.000;  -51.000;   33.000
923.341;  358.400;   59.000;   74.000
923.581;  214.900;  450.000;  360.000
923.821;  104.700;  301.000;  398.000
924.060;  107.700;  351.000;  193.000
924.300;  -69.700;  -16.000; -128.000
924.539;   40.300;  584.000;  473.000
924.779;  118.600;  812.000;  597.000
925.018;   -8.700;  247.000;  353.000
925.257;   85.100;  595.000;  666.000
925.497;   15.100;  447.000;  412.000
925.736;  -92.600;  -35.000;  102.000
925.975;  102.700;  687.000;  669.000
926.214;  144.000;  907.000;  850.000
926.454;  114.200;  706.000;  757.000
926.693;    6.100;  419.000;  543.000
926.932;  166.000; 1021.000;  825.000
927.171;  202.800; 1107.000; 1044.000
927.410;  211.800; 1144.000;  967.000
927.649;  122.800;  924.000;  742.000
927.888;   76.900;  590.000;  564.000
928.127;   16.800;  680.000;  678.000
928.366;  140.000;  842.000;  826.000
928.605;  130.100;  831.000;  737.000
928.844;  491.600; 1451.000; 1393.000
929.083; 1013.300;  770.000;  613.000
929.321;  578.600; 1335.000; 1359.000
929.560;  262.400; 1158.000; 1122.000
929.799;   15.100;  574.000;  475.000
930.038;  309.500; 1025.000; 1394.000
930.276;   -3.700;  334.000;  397.000
930.515;   81.400;  827.000;  681.000
930.753;   41.000;  614.000;  589.000
930.992;   64.300;  664.000;  717.000
931.230;  117.300;  847.000;  847.000
931.469;  417.900; 2162.000;  892.000
931.707;  246.300;  840.000;  751.000
931.946;  207.000; 1278.000; 1344.000
932.184;  232.300; 1437.000; 1175.000
932.423;  183.200; 1265.000;  963.000
932.661;  274.000; 1296.000; 1428.000
932.899;  108.400;  987.000;  821.000
933.137;  106.400;  754.000;  564.000
933.376;  369.800; 1664.000; 1335.000
933.614;  401.500; 1759.000; 1196.000
933.852;  203.800; 1357.000; 1171.000
934.090;  352.900; 1722.000; 1747.000
934.328;  295.100; 1252.000; 1457.000
934.566;  323.400; 1431.000; 1110.000
934.804;  367.200; 1263.000; 1309.000
935.042; 1218.100; 1861.000; 1850.000
935.280; 4666.500; 2088.000; 2063.000
935.518; 3658.400; 2113.000; 2007.000
935.756;  732.300; 2481.000; 2316.000
935.994;  417.200; 1808.000; 1751.000
936.231;  725.400; 2890.000; 2950.000
936.469;  480.000; 2367.000; 2378.000
936.707;  408.300; 2220.000; 2167.000
936.945;  556.100; 2825.000; 2882.000
937.182;  513.300; 2679.000; 2741.000
937.420;  723.900; 3602.000; 3031.000
937.657;  822.500; 3365.000; 3478.000
937.895;  783.300; 3331.000; 3488.000
938.133;  711.700; 3540.000; 3528.000
938.370;  828.100; 3896.000; 4191.000
938.607;  948.600; 4488.000; 4205.000
938.845; 1216.000; 5587.000; 5549.000
939.082; 1100.200; 5387.000; 5177.000
939.320; 1252.600; 5799.000; 5728.000
939.557; 1397.800; 6549.000; 6491.000
939.794; 1624.300; 7285.000; 7097.000
940.031; 1886.100; 8421.000; 8368.000
940.269; 2193.700; 9552.000; 9107.000
940.506; 2320.300;10901.000;10507.000

