
Integration time [ms]: 200.000
Averaging Nr. [scans]: 10
Smoothing Nr. [pixels]: 0
Data measured with spectrometer [name]: 2101013U2
Wave   ;Sample   ;Dark     ;Reference
[nm]   ;[counts] ;[counts] ;[counts] 

394.013;   80.623; -450.257; -315.536
394.305;  365.420; -461.258; -419.536
394.596; 2110.870; -676.269; -527.514
394.887; 5307.695; -796.268; -654.518
395.178; 2037.139;  145.736;   11.476
395.470;  126.455; -210.263; -356.526
395.761;  359.116;  305.734;  394.479
396.052;  564.188; -545.284; -306.489
396.343;  558.490; -557.276; -454.503
396.634;  167.945; -200.279; -290.497
396.926;  141.491; -618.268; -565.517
397.217;  212.797;   11.725;  -17.504
397.508;   74.420; -366.273; -154.507
397.799;   38.345; -555.279; -571.497
398.090;  -70.364; -973.280; -902.495
398.381;  190.979;   11.708;  -11.473
398.672;  -45.619; -585.292; -742.473
398.963;   55.753; -348.279; -373.498
399.254;  178.894;   54.709; -209.475
399.545;  -94.489;-1017.266; -883.520
399.836;   74.574; -407.277; -343.501
400.127;  101.845; -205.295; -209.468
400.418;   38.512; -423.274; -392.506
400.709;   90.618; -359.281; -333.493
401.000;   93.100; -268.291; -309.476
401.290;  206.853;  225.698;  115.545
401.581;   95.963; -166.286; -228.485
401.872;   24.404; -542.298; -486.462
402.163;  132.834; -313.296; -252.467
402.454;  186.895; -123.291; -163.475
402.744;   77.221; -844.297; -813.465
403.035;  617.567; -226.293;  -86.471
403.326;  753.585; -366.292; -384.474
403.617;  626.196;  204.701;  165.539
403.907;  435.197; -593.283; -679.490
404.198; 4473.986; -545.307; -599.446
404.489;11644.504; -618.283; -588.491
404.779; 3835.458; -618.302; -660.456
405.070;  440.727;  -67.304; -174.451
405.360;  625.870; -259.293; -238.472
405.651;  679.274;  125.699;   98.542
405.942;  311.456;  209.714;  127.516
406.232;  333.978; -432.285; -413.487
406.523;  755.959;  641.706;  758.530
406.813;  137.860; -579.286; -644.484
407.104;  562.278;  261.708;  144.527
407.394;  197.798; -604.299; -591.462
407.685;  333.376;  336.715;  222.513
407.975;  102.002; -400.283; -382.490
408.265;  187.416; -134.289; -190.478
408.556;   73.591; -472.291; -459.475
408.846;  366.560;  474.706;  429.530
409.137;  143.128;   -1.288; -216.480
409.427;   87.377; -193.285; -271.487
409.717;   62.024; -776.273; -692.508
410.007;  205.468;    4.715; -170.486
410.298;  144.949; -360.295; -342.469
410.588;   93.873; -495.285; -510.486
410.878;   14.845; -792.287; -873.482
411.168;  172.408; -481.298; -478.463
411.459;  183.094; -295.283; -242.489
411.749;   98.689; -609.292; -507.474
412.039;   69.326; -755.289; -386.480
412.329;  394.264;   40.722;  132.501
412.619;  346.760;  -62.286; -148.485
412.909;  677.220;  639.711;  594.521
413.199;  527.237; -130.280; -251.495
413.490;  714.406;  521.710;  352.523
413.780;  225.343;-1013.279; -913.496
414.070;  567.091;  -46.276;  235.497
414.360;  600.058; -729.278; -666.498
414.650;  708.339; -726.288; -688.482
414.940;  899.942; -538.280; -441.496
415.230; 1619.934;   50.712;   74.519
415.520;11184.269;  155.730;   66.486
415.809;43450.817; -305.281; -125.493
416.099;34968.877; -388.277; -229.501
416.389; 9626.108;  435.726;  236.494
416.679; 5771.361;   91.738;   85.473
416.969; 1013.651; -527.287; -503.483
417.259; 1121.845;  341.721;  171.503
417.549; 1302.215;  522.718;  318.508
417.838; 2999.594; -205.268; -147.518
418.128;10143.514;  650.710;  492.522
418.418; 8589.733; -491.272; -579.509
418.708; 5631.909;    9.726;  -48.506
418.997;21426.702; -474.275; -480.505
419.287;22801.118; -733.273; -790.507
419.577;21371.193; -160.283; -123.489
419.866;64329.274; -588.277; -498.501
420.156;64290.863; -242.270;  -55.513
420.446;13040.550; -112.263;  -26.526
420.735; 1382.855; -376.271; -446.512
421.025; 1570.257; 1830.722;  315.502
421.314; 1058.852; -203.271; -226.512
421.604; 1870.883;   89.732;  233.484
421.893; 1091.047; -705.271; -602.511
422.183;  404.650; -487.263; -461.526
422.472;  708.749;  -36.271; -107.511
422.762;  714.420; -416.266; -379.521
423.051;  347.792; -916.276; -916.503
423.341;  471.721; -491.273; -439.507
423.630;  679.429; -121.265;   15.477
423.919;  654.701;   58.725;   49.495
424.209;  659.958;  -31.263;   56.473
424.498;  879.690;   68.732;  161.483
424.787; 1874.399; -535.267; -601.518
425.077; 5773.126;   34.735;   29.478
425.366; 7354.866; -734.262; -744.528
425.655;17234.422;  639.727;  259.493
425.945;40005.253; -313.247; -268.554
426.234;22880.399;  117.741;  300.467
426.523; 9055.306;  -86.259; -350.534
426.812;12549.614;  107.734;  159.480
427.101;18305.878; -127.269; -323.515
427.390;22905.469;  -55.270;  -86.514
427.680; 4490.735; -624.257; -411.538
427.969;  808.051; -330.255; -301.540
428.258;  518.823; -385.257; -477.536
428.547;  895.539;  449.728;  397.490
428.836; 1690.474; -421.253; -398.543
429.125; 2397.509; -199.259;  -72.534
429.414; 1257.107; -330.251; -294.548
429.703; 5486.307; -231.251; -213.548
429.992;16742.812; -938.250; -828.549
430.281;11299.439; -397.264; -331.524
430.570; 1047.293;  -21.252;   32.454
430.859;  925.506;  279.741;  352.466
431.148;  785.447;  636.752;  631.446
431.437;  580.293;  391.748;  367.454
431.725;  234.625; -544.257; -481.536
432.014;  187.785; -845.253; -756.545
432.303;  627.257; -149.239; -105.569
432.592;  867.249; -460.263; -178.525
432.881; 1773.549; -601.248; -437.554
433.169;11103.452; -343.255;  -61.540
433.458;22887.806;  445.765;  540.424
433.747; 9731.274; -397.261; -289.529
434.036; 1390.722; -275.242; -280.564
434.324; 3611.130; -395.249; -379.551
434.613; 6466.713;   40.757;  159.437
434.902; 2194.243;  333.760;  439.433
435.190;  757.355;   75.761;  295.431
435.479;  455.086;  -52.245;   83.441
435.767;  149.998; -411.244; -427.561
436.056;  351.816; -340.242; -294.563
436.345;  638.546; -372.240; -223.568
436.633;  691.624;   60.750;  383.450
436.922;  440.950;  208.760;  414.432
437.210;  714.092; -194.236;    1.426
437.499; 2096.004; -583.235; -432.576
437.787; 2411.691; -339.236;  -10.574
438.075;  655.464;   56.761;  162.430
438.364;  925.867;  -44.238;  250.429
438.652;  555.919; -286.226; -138.592
438.941;  221.467;    3.770;  269.415
439.229;  -14.111; -665.252; -466.545
439.517;   70.116; -160.234;  -85.577
439.806;  -23.058; -501.225; -290.595
440.094;  304.427;  377.766;  650.421
440.382;  216.532; -653.233; -302.580
440.670;  251.003; -361.235; -285.576
440.959;    2.767; -347.223; -170.599
441.247;  127.484; -151.229; -109.587
441.535;  132.913; -266.235;   31.423
441.823;    8.523; -497.234; -305.578
442.111;  312.690;  173.771;  327.412
442.400;  675.085; -628.245; -335.559
442.688; 1668.426; -111.234; -620.579
442.976; 1086.095; -786.213; -450.617
443.264;  109.252; -324.224; -364.597
443.552;  161.921; -258.226;   51.408
443.840;  314.011;  602.765;  876.423
444.128;  204.631;  265.767;  269.420
444.416;  -65.106; -694.228; -312.588
444.704;   39.610; -465.219;  -92.605
444.992;  112.825;   -0.226;  240.407
445.280;   46.468; -517.230;  -94.585
445.568;   45.700; -694.212; -396.618
445.856;  457.387; -174.221;  357.398
446.143;  896.005;  -54.220;   -7.604
446.431;  763.899;  -25.228;  625.411
446.719;  409.638;  489.783;  675.391
447.007;  334.560;  481.769;  705.416
447.295;  328.363;  597.777;  871.402
447.583;  106.480; -464.229;  -34.587
447.870;  174.883; -434.221; -202.601
448.158;  508.266; -104.230;  129.415
448.446;  369.407; -800.219; -338.604
448.733;  227.754;   13.776;  269.403
449.021;  397.999;   60.788;  341.382
449.309;  278.221; -296.210;  208.379
449.596;  351.933;  128.783;   59.392
449.884;  215.073; -571.222; -325.600
450.172;  257.107; -756.227; -406.590
450.459;  815.071;  645.786;  780.387
450.747; 4179.231; -411.218; -147.608
451.034;13577.801;  493.772;  889.411
451.322;11463.975; -413.214; -170.614
451.609; 1030.056;  292.777;  508.403
451.897; 1025.813; -550.203; -183.634
452.184; 3214.564; -622.223; -400.598
452.472; 3039.152;   97.792;  269.375
452.759;  644.507;  512.781;  864.395
453.047;  175.096; -407.212; -125.617
453.334;   66.619; -732.219; -216.606
453.621;   93.678; -438.214; -161.615
453.909;  208.901;   13.796;  384.368
454.196;  189.067; -299.199; -123.641
454.483;  376.731;  317.798;  540.364
454.771;  200.557; -215.208;  196.374
455.058;   77.561; -316.207;  102.374
455.345;  203.847;   71.807;  344.347
455.632;  170.166; -128.207;  235.373
455.919;  105.999;  -82.196;  182.354
456.207; -111.627; -774.198; -450.642
456.494;  -36.451; -475.200;  -66.639
456.781;   39.625; -399.202; -198.635
457.068;  100.876; -253.206;  -29.628
457.355;  -53.623; -698.206; -401.629
457.642;  -42.115; -552.205; -290.630
457.929;  -23.666; -778.194; -417.651
458.216;   92.596; -575.212; -354.617
458.503;  443.941; -173.193;  -19.652
458.790;  369.853; -864.208; -630.625
459.077;  470.832;  -77.202;  110.364
459.364; 1398.524; -350.195; -210.649
459.651; 2917.873;  -46.206;  220.372
459.938; 1400.440; -864.209; -665.623
460.225;  252.637;  132.799;  276.363
460.512; -118.705; -836.197; -688.645
460.799;  173.029;  -32.218;  320.392
461.086;   95.156; -370.200; -251.640
461.372;   24.374; -509.198; -279.642
461.659;  175.101; -165.196;  108.354
461.946;   85.439; -445.193;  -54.651
462.233;  441.352;  842.800;  888.361
462.519;  528.148; -814.201; -464.639
462.806; 1692.596; -768.197; -497.645
463.093; 1562.969; -445.191;  -66.656
463.380;  -65.372; -920.186; -824.664
463.666;  106.699; -259.197;  -18.646
463.953;  156.016; -406.195; -243.648
464.239;  324.116; -173.195;  -77.648
464.526;  661.432;  413.806;  743.350
464.813;  454.985; -565.190; -304.658
465.099;  554.040;  606.807;  607.348
465.386;  578.146;  903.807;  921.348
465.672;   16.896; -694.197; -522.645
465.959;   43.111; -598.188; -520.662
466.245;   17.646; -468.193; -359.652
466.532;  139.013; -109.195;   63.352
466.818;  119.728; -357.186; -216.664
467.104;  -44.514; -488.182; -415.672
467.391;  -30.312; -628.189; -459.658
467.677;   62.833; -289.186;    9.335
467.964;  -15.802; -682.189; -471.660
468.250;   98.137; -331.186; -160.665
468.536;  175.390;   90.811;  180.341
468.822;  -71.946; -821.184; -574.668
469.109;  304.403;  351.827;  471.311
469.395;  387.360;  729.808;  787.346
469.681;  349.294;   46.811;  156.341
469.967; 2108.401; -699.188; -382.660
470.254; 4621.713; -494.188; -306.662
470.540; 3088.399; -601.196; -476.646
470.826;  408.402; -488.181; -397.675
471.112;  555.060;  288.816;  113.331
471.398;  141.166; -253.183;  -58.670
471.684;   72.743; -626.177; -447.680
471.970;  -36.092; -918.180; -981.675
472.256;   47.658; -521.192; -441.654
472.542;   18.919; -499.171; -434.691
472.828;  -36.519; -743.182; -607.672
473.114;   52.682; -380.166; -283.700
473.400;   44.167; -504.175; -293.684
473.686;   45.892; -452.166; -400.701
473.972;  126.789; -230.174; -131.687
474.258;  -90.996; -925.173; -843.689
474.544;  350.032; -183.178;   -2.679
474.830;  578.970;  -65.175;   45.316
475.116;  870.088; -123.190; -196.658
475.401; 1136.011; -558.180; -467.676
475.687;  303.610; -725.180; -718.676
475.973;  -33.408; -673.181; -770.673
476.259;  475.073;  736.825;  764.315
476.544;  585.655; -539.176; -437.682
476.830; 1445.514; -398.172; -322.690
477.116; 1290.653; -430.177; -336.682
477.401;  292.911;  346.820;  358.324
477.687;   -8.832; -289.175; -405.684
477.973;  121.697;   21.819;   28.326
478.258;  -27.279; -448.163; -348.706
478.544;   93.745;   21.815;   61.334
478.829; -149.273; -818.171; -738.692
479.115;  -67.687; -749.172; -651.690
479.401;  -11.318; -444.174; -449.686
479.686;   78.909; -253.180;  -74.676
479.972;  -62.261; -886.178; -776.680
480.257;   44.585; -258.166;  -65.700
480.542;  -21.967; -614.170; -469.693
480.828;  481.565; 1288.824; 1392.317
481.113;  -54.238; -464.176; -426.683
481.399;   11.556; -236.161; -202.711
481.684; -118.316; -620.166; -462.700
481.969;   62.775; -158.159;  -73.713
482.255;    3.449; -439.169; -285.695
482.540;   -4.961; -569.178; -441.680
482.825;   35.821; -395.187; -404.663
483.110;  195.153;  -85.169; -105.696
483.396;  312.007; -840.157; -652.718
483.681;  913.389;  543.826;  730.313
483.966;  287.867; -696.160; -700.712
484.251;   43.187; -404.174; -310.687
484.536;   11.699; -356.165; -378.703
484.822;   33.192; -205.173; -218.687
485.107;  -89.838; -599.152; -502.726
485.392;  279.708;  662.836;  541.296
485.677;  140.267;  354.832;  163.302
485.962;  248.403;  160.843;  270.283
486.247;  174.233;  -14.162;   -8.707
486.532;   68.186; -178.166; -325.701
486.817;  280.748;  381.839;  431.291
487.102;  171.337; -453.154; -514.722
487.387; 1133.309; -637.156; -652.718
487.672; 2056.215; -154.164;  -38.705
487.957; 1313.958; -394.160; -286.711
488.241;  349.186; -290.150; -314.729
488.526; 1276.864; -280.152; -148.726
488.811; 1979.342; -881.177; -818.680
489.096; 1510.841; -666.154; -702.723
489.381;  843.259;    3.847;  162.275
489.666;  703.455; -428.161; -510.710
489.950;  373.546;  558.846;  627.277
490.235;  -72.521; -480.151; -458.728
490.520; -107.346; -756.161; -723.710
490.804; -110.388; -827.156; -736.719
491.089;   30.109; -469.149; -299.732
491.374;   78.813; -132.164;  -75.704
491.658;  -36.974; -817.147; -717.735
491.943;  222.670; -657.152; -609.727
492.227;  387.631; -178.155;  -38.721
492.512;   69.502; -294.157; -341.717
492.797; -145.100; -713.149; -716.731
493.081;  -91.470; -588.147; -598.735
493.366;  -90.144; -751.161; -635.711
493.650;  407.407;  831.859;  917.254
493.935;   18.325; -648.147; -447.734
494.219; -122.112; -778.142; -687.743
494.503;  -65.607; -585.150; -487.730
494.788;   84.890;   46.842;   74.285
495.072;  204.388;  184.850;  434.271
495.356;  249.014; -463.148; -343.733
495.641;  644.039; -812.146; -736.736
495.925;  604.319; -976.156; -903.719
496.209;   49.908; -599.149; -451.732
496.494; -118.011; -763.142; -544.744
496.778;   15.537; -364.154; -360.722
497.062;  -94.481; -819.156; -627.719
497.346;  -83.939; -869.160; -640.711
497.631;  331.719;  580.852;  560.266
497.915;  134.554;  -64.145;  175.261
498.199;   38.607; -341.157; -277.718
498.483;   46.661; -562.152; -508.725
498.767;  328.290;  301.850;  300.271
499.051;  286.805; -126.149; -100.732
499.335;   23.302; -693.149; -739.731
499.619;  -65.547; -381.129; -423.767
499.903;   58.029; -272.155;  -65.721
500.187;   55.348; -588.153; -316.724
500.471;    4.469; -796.152; -595.727
500.755;  190.754;   62.839;  -96.710
501.039;    8.530; -270.155; -357.721
501.323;  196.909;  -21.141;  264.254
501.607;   41.122; -447.163; -503.706
501.891;  -45.091; -607.156; -512.718
502.174; -115.229; -726.144; -585.741
502.458;  123.075;   89.849;  370.273
502.742;   92.144; -180.138; -191.751
503.026;  198.424; -412.147; -254.734
503.310;  307.674; -437.159; -375.713
503.593;  195.127; -464.147; -325.735
503.877;  205.202; -232.133; -156.760
504.161;  263.251;    2.847;  -50.724
504.444;  135.293; -841.158; -710.716
504.728;  778.812; -487.164; -522.704
505.012; 1204.485; -257.150;  -76.729
505.295;  898.756; -417.161; -212.711
505.579;  851.418; -256.156; -496.719
505.862; 1327.149; -555.145; -333.738
506.146; 1178.477; -681.159; -758.714
506.429;  745.778;  568.841;  461.286
506.713;   94.381; -732.151; -667.728
506.996;  572.137;   90.846;  295.278
507.280;  531.305; -633.165; -474.703
507.563;  415.827; -469.155; -261.721
507.847;  166.249; -423.153; -112.724
508.130;  158.457; -665.161; -456.711
508.413;  155.378; -758.167; -577.700
508.697;  466.779; -151.167;   12.300
508.980;  278.651; -422.153; -312.724
509.263;  -26.778; -466.155; -450.720
509.547;   78.785; -124.150;   82.271
509.830;   83.560; -172.160;  140.289
510.113;  185.218;  128.844;  298.281
510.396;   37.659; -530.152; -300.725
510.680;  163.051; -818.145; -812.738
510.963;  737.543;  184.846;  180.277
511.246;  545.696; -493.150; -357.730
511.529;  390.358; -482.145;  -83.739
511.812;  608.197; -250.134;   10.241
512.095;  422.377; -740.151; -396.728
512.378;  118.632; -317.147; -245.736
512.661;    7.555; -703.137; -623.753
512.944;   42.091; -750.142; -637.744
513.227;  105.751; -170.137; -171.752
513.510;   47.770; -479.144; -671.741
513.793;   21.615; -485.140; -435.747
514.076;  224.483;  -43.127;  -39.771
514.359;  166.309; -294.149; -135.732
514.642;  137.495; -442.142; -567.744
514.925; 1362.813;  581.860;  561.253
515.208; 1713.992; -498.134; -443.758
515.491; 1138.912; -276.133; -182.761
515.773;  618.776; -410.143; -337.742
516.056; 3565.564;  249.864;  409.246
516.339; 4594.070; -754.136; -652.755
516.622; 2906.893; -518.150; -488.730
516.904; 1622.286;  882.857;  975.257
517.187;  674.249; -730.138; -523.752
517.470;  563.984; -568.143; -510.743
517.752;  692.474; -624.136; -470.756
518.035;  503.631; -708.139; -725.749
518.318;  642.270; -799.136; -744.755
518.600; 4161.817; -300.132; -325.762
518.883; 5648.294;  310.858;   88.256
519.165; 2775.838; -585.138; -426.751
519.448;  615.417;  -61.132;  -19.762
519.730;  262.894; -573.126; -415.773
520.013;  559.706;  588.867;  664.240
520.295;  979.700;  -94.134;  -15.759
520.578; 2082.035; -335.131; -305.764
520.860; 2430.417; -254.132;   56.238
521.143; 1315.277; -763.135; -584.756
521.425;  749.513; -251.125; -279.775
521.707; 1078.584; -622.127; -380.771
521.990; 3011.785; -199.127;  167.229
522.272; 3349.518; -116.140;   -4.748
522.554; 1485.977; -237.143; -157.742
522.836;  483.597;  -24.134;   99.241
523.119;  279.722; -496.148; -189.734
523.401;  198.046; -448.130; -314.766
523.683;  117.655; -865.137; -693.753
523.965;  540.846;  408.862;  260.248
524.247;  485.244;   54.878;  170.220
524.529;  300.999; -451.134; -367.759
524.812;  592.448;   -3.130;  191.234
525.094; 1412.245; -773.138; -631.751
525.376; 2235.226; -143.124;   78.223
525.658; 1411.166; -441.136; -339.754
525.940;    3.331; -805.131; -671.764
526.222;   60.771; -188.136;  -88.755
526.504;  170.028; -190.131;   32.237
526.786;  137.003; -960.133; -647.760
527.068;  364.734; -124.123;  -67.778
527.349;   81.961; -865.137; -774.754
527.631;  209.916; -137.132;   22.238
527.913;  200.783; -664.127; -450.771
528.195;  270.803; -761.125; -639.774
528.477;  398.992;  -93.134;  -30.758
528.759;  221.348; -648.130; -522.766
529.040;   76.032; -569.123; -293.778
529.322;  106.307; -235.125;  -10.774
529.604;  193.151;  -47.130;   93.233
529.886;   99.094; -546.126; -302.773
530.167;  211.639;  232.870;  192.235
530.449;  104.032;    1.853;   63.265
530.731;  -18.158; -572.122; -459.779
531.012;   88.973; -513.120; -216.784
531.294;  170.829; -118.116;  -43.792
531.575;  282.113;  290.875;  538.225
531.857;   96.385; -548.135; -266.757
532.138;  228.007; -113.141;   40.254
532.420;  300.879;  294.865;  403.244
532.701;  212.507; -722.133; -751.760
532.983;  479.911;  232.867;  182.239
533.264;  150.191; -243.126;  175.228
533.546;  -65.629; -491.136; -508.755
533.827;   72.602;  173.867;   -1.759
534.109;   28.285; -352.135;  -80.757
534.390;   70.422; -725.132; -582.762
534.671;  377.879; -270.135;  -82.756
534.953;  181.436; -751.123; -611.779
535.234;   79.008; -426.117; -255.789
535.515; -174.315; -891.119; -735.785
535.796;  -17.323; -431.128; -193.770
536.078; -237.874;-1050.124; -904.777
536.359;   49.737;  -22.123;    3.221
536.640;  -60.095; -480.125; -197.774
536.921;  325.959;  225.871;  143.232
537.202;  620.040;  -87.138;  -16.751
537.483;  771.435;  251.869;  377.236
537.764;  331.039;   17.870;   98.235
538.045;  -77.009; -543.134; -371.758
538.326;  -55.739; -596.129; -447.768
538.607;   17.985; -686.127; -476.771
538.888;  298.360;   98.879;    5.218
539.169;  274.152; -704.122; -535.781
539.450;  516.157;  236.871;   16.233
539.731;  316.465; -361.121; -182.783
540.012;  205.173;  199.880;  412.216
540.293;  179.118;   82.876;  158.224
540.574;  -43.841; -895.113; -717.796
540.855;  756.263;  435.879;  377.218
541.136;  886.848;   47.878;  139.220
541.416;  463.649; -161.130; -220.766
541.697;  329.728; -274.131; -170.763
541.978; 1729.282; -270.135; -315.757
542.259; 2116.985; -211.127; -236.771
542.539; 1094.720; -191.116; -186.790
542.820;  326.212;  461.875;  480.225
543.101;  188.753;  -52.145;  -77.738
543.381;  -11.116; -638.127; -591.771
543.662;  468.081;  159.873; -254.771
543.942;  886.878; -751.127; -830.770
544.223; 1809.450;  193.878;  161.219
544.504; 1086.225; -275.124; -182.777
544.784; 1021.594; -592.126; -408.773
545.065; 2680.326;  104.884; -254.791
545.345; 3181.985;  227.881;   14.215
545.626; 2187.158;  -14.113; -108.796
545.906; 1439.138;   77.869;   98.235
546.186;  613.200;   92.874;  -95.773
546.467;  359.229;   99.877;  -95.778
546.747;  552.920;  264.884;  327.210
547.027;  658.823;   91.876;  111.223
547.308;  506.277; -376.127; -530.770
547.588;  675.762;  299.871;  371.232
547.868;  410.740;  458.870;  588.235
548.149;  405.636;  609.885;  593.207
548.429;  190.882; -347.127; -299.771
548.709;  340.972; -645.120; -461.784
548.989;  817.299;   84.882;   88.213
549.269; 3578.014;   10.868;  139.239
549.550; 8056.735;  215.877;  117.222
549.830; 7176.784; -758.111; -556.799
550.110; 1458.495; -468.110; -320.801
550.390; 1411.243; -128.122;  -56.779
550.670; 1785.452; -868.114; -783.795
550.950; 1287.263; -509.121; -471.782
551.230;  395.857;  549.879;  460.218
551.510;  -28.139; -381.121; -326.782
551.790;   57.406; -173.109; -127.803
552.070;  544.929;  940.877; 1181.223
552.350;  706.391; -492.119; -377.786
552.630;  968.954;   -2.121;   77.219
552.909;  637.326;  181.884;   73.209
553.189;  410.624;  -49.132;   33.237
553.469;  276.190; -703.119; -514.786
553.749;  315.087; -469.127; -357.772
554.029;  293.314;   33.883;  -24.790
554.308;  261.443; -154.115;  -37.794
554.588;  111.476; -196.128; -204.770
554.868;  100.864; -366.121;  -47.782
555.147;  255.638; -114.115;  -46.793
555.427; 1021.430; -260.116; -250.792
555.707; 6645.935; -284.115; -200.793
555.986; 7699.889; -719.111; -538.800
556.266; 4251.918;   23.884;   72.210
556.546;  190.061; -888.121; -675.782
556.825;  419.649; -657.114; -556.794
557.105; 3055.572; -125.128;   17.230
557.384; 3491.125;  122.884;  187.209
557.664; 1408.129; -717.116; -508.792
557.943;  198.663; -557.121; -411.782
558.222;  325.103; -345.118; -344.788
558.502;  444.640; -116.115;  -76.793
558.781;  869.534;  194.885;  499.208
559.061;  691.603; -232.118; -227.788
559.340;  513.410;  302.883;  353.211
559.619; 1167.118;   93.884;  148.210
559.899; 1695.913; -239.117; -266.789
560.178; 1570.440; -778.115; -593.793
560.457; 5381.815; -623.117; -562.790
560.736; 7081.591; -472.111; -482.800
561.015; 4924.269; -500.128; -502.769
561.295;  648.235;  180.893;  215.193
561.574;  575.636;  119.885;  116.207
561.853;  779.612;  274.891;  303.197
562.132;  841.843;  -45.114;  182.206
562.411;  771.154;  396.879;  553.219
562.690;  227.433; -592.115; -458.792
562.969;  290.768;  472.888;  630.203
563.248; 1024.351; 2966.878; 2487.219
563.527;  473.590; -290.111; -408.800
563.806;  617.182; -650.127; -521.771
564.085;  661.257; -297.105; -206.810
564.364;  396.217; -594.117; -405.790
564.643;  855.155; -276.121; -223.781
564.922; 3184.904;  221.890;  397.198
565.201; 3012.709; -640.109; -700.803
565.479; 1437.032; -297.115; -219.792
565.758;  509.973; -810.128; -712.770
566.037;  758.211; -155.109; -100.803
566.316;  431.925; -286.116;  -28.791
566.595;   83.336;  -17.115;  -12.793
566.873;  196.393; -166.111;  -79.801
567.152; -111.332; -490.113; -590.797
567.431;   28.419; -113.116;    6.210
567.709;   67.635; -344.107; -212.807
567.988;  388.648; -810.114; -769.794
568.266;  838.536; -160.115;  -68.793
568.545;  645.525; -644.100; -514.819
568.824; 1052.331;  160.885;  356.208
569.102;  923.848; -351.114; -235.794
569.381;  374.830; -492.116; -407.792
569.659;  -59.338; -553.113; -553.796
569.938;   35.949; -743.122; -465.780
570.216;  186.314; -225.109; -225.804
570.494;  -58.647; -632.114; -572.795
570.773;  100.161;  202.879;  114.218
571.051;   35.433; -373.123; -357.778
571.330;  151.359; -221.113; -174.796
571.608;   77.851; -181.098; -173.823
571.886; -136.119; -671.111; -581.799
572.164; -140.336; -739.121; -621.782
572.443;  -69.438; -562.105; -512.811
572.721;  -45.785; -399.117; -289.790
572.999;  -22.494; -280.117; -168.788
573.277;  213.853;  379.894;  620.191
573.555;  533.556;   94.894;   37.190
573.834; 2269.805;  -86.117; -114.788
574.112; 2703.439;  880.893;  811.193
574.390;  825.991; -143.111;  -96.801
574.668;   31.569;  -91.112;  -61.797
574.946;   -3.544; -165.106; -187.810
575.224;   43.309;   71.891;  -16.803
575.502;   -2.078; -200.116; -204.791
575.780; -150.729; -767.112; -829.798
576.058;  396.090; 1589.889; 1004.200
576.336;  -18.202; -210.110; -129.801
576.614; -101.629; -511.112; -340.798
576.891;   88.542; -711.115; -823.794
577.169;  783.026; -158.108; -285.805
577.447;  970.238;  169.893;  202.193
577.725;  521.078;  629.888;  854.201
578.003;   32.275;  -71.112; -371.798
578.280;  170.575; -208.104; -242.812
578.558;   87.340; -450.115; -422.793
578.836;  204.052; -210.114; -145.795
579.114;   37.769; -630.112; -670.797
579.391;  131.308;   -6.117;  -18.789
579.669; -139.257; -595.114; -704.794
579.947;  283.833; -326.107; -127.806
580.224;  489.833; -692.107; -524.806
580.502;  523.439;  127.893;   76.193
580.779;   37.217;  -42.117;   75.210
581.057; -124.285; -584.109; -470.804
581.334; -206.403; -726.102; -695.815
581.612;   91.957;   54.895;  511.190
581.889;  -27.584;  -83.101; -129.818
582.167;  -69.563; -298.099; -190.821
582.444; -206.692; -845.102; -814.817
582.721;  229.709;  657.899;  715.183
582.999;   98.033; -326.100; -167.821
583.276;  879.539; -812.123; -713.779
583.553; 1100.501; -364.102; -294.816
583.831;  386.271; -607.104; -631.812
584.108;  138.123;  349.892;  174.195
584.385;   19.696; -122.102;  -98.815
584.662; -127.307; -651.111; -828.801
584.940;   98.292;  204.889;  204.199
585.217;  -40.138;  -73.113; -303.796
585.494;   55.305;   71.890;  118.198
585.771;  322.716; -250.109; -354.804
586.048;  847.662; -196.113;  -76.796
586.325;  515.797; -721.110; -773.801
586.602;  164.976;  230.896;  213.188
586.879;  -52.172; -499.100; -580.820
587.156;  104.859; -156.105; -331.810
587.433;  -51.195; -701.102; -667.817
587.710;  109.872;  152.888;  234.202
587.987;  523.266; -264.105; -236.811
588.264; 1301.874;  315.888;  387.202
588.541; 2297.379;  -61.104;   26.187
588.818; 4328.819;   72.892;  171.196
589.095; 3667.673; -163.104; -174.812
589.371;  619.613; -459.109; -414.804
589.648;    3.639; -581.107; -437.807
589.925;   55.354; -517.114; -621.795
590.202;   19.171; -741.112; -607.798
590.478;  190.769; -166.105;  -73.811
590.755;  458.928; -241.108; -132.806
591.032; 4191.300; -741.110; -699.802
591.308; 5446.909; -732.094; -790.831
591.585; 2955.699; -573.110; -560.802
591.862;  217.707;-1056.102; -950.817
592.138;  158.324; -475.108; -474.805
592.415;  202.177; -486.104; -495.813
592.691; 2514.574;  460.896;  518.188
592.968; 2930.154; -208.098; -123.824
593.244; 1500.620; -695.116; -595.790
593.521;  164.908; -105.102;  -42.817
593.797;  -37.255; -810.122; -720.780
594.074;  547.572; -611.096; -588.826
594.350; 1132.888;  828.905;  729.172
594.626;  522.593; -303.111; -283.801
594.903;  172.809; -643.101; -645.817
595.179;  327.183;  243.896;  418.187
595.455;   18.241; -136.107; -150.807
595.731;    0.085;  -19.103;  -38.814
596.008;  -52.515; -464.111; -434.800
596.284;   69.731; -187.100; -242.820
596.560;  107.818; -501.093; -493.833
596.836;  340.162; -173.105;  -70.810
597.112;  568.226; -582.108; -437.805
597.388;  466.169;  -49.097;  -48.826
597.665;  237.665;  437.887;  530.203
597.941; -120.839; -572.089; -658.839
598.217;   32.504; -323.110; -293.802
598.493;  476.218;   61.891; -204.804
598.769;  788.523; -175.100;  -50.819
599.045;  506.530; -490.108; -562.806
599.321;   77.830; -193.100; -261.820
599.597;  260.317; -355.109; -476.804
599.872;  787.479;  409.896;  429.187
600.148;  610.871;  -61.097; -172.826
600.424;  504.037;   91.893;  202.193
600.700;  366.740; -170.107; -280.807
600.976;  228.763; -442.097; -464.825
601.252;  432.612; -226.109; -272.803
601.527;  323.581; -833.104; -840.813
601.803;  261.970; -453.105; -404.812
602.079;  323.623; -124.100; -118.819
602.354;  895.832; -620.092; -531.835
602.630; 1289.462; -140.113; -482.796
602.906; 4058.916; -910.101; -863.818
603.181;10722.590; -627.119; -534.786
603.457; 9219.168;   98.903; -278.826
603.733; 1414.567; -605.120; -626.783
604.008; 1689.157; -245.106; -164.810
604.284; 4672.911; -636.101; -580.817
604.559; 4306.677;   -3.112;  -42.799
604.835;  850.261; -163.105; -225.810
605.110;  656.537; -732.099; -892.821
605.385; 1177.422;  224.907;  267.167
605.661; 1150.892; -625.095; -729.829
605.936; 1820.230; -664.108; -737.806
606.211; 1698.694;  -17.103; -170.815
606.487;  358.146; -329.114; -376.794
606.762;  -15.409; -791.119; -745.786
607.037;  -28.538; -501.105; -433.810
607.313;  -85.218; -589.096; -574.828
607.588;    7.956; -375.106; -137.810
607.863;   85.015;  -28.101; -143.818
608.138;  370.603;  513.890;  516.198
608.413;   35.043; -576.099; -592.822
608.688;   81.925; -203.108; -267.805
608.964;  315.548; -509.106; -218.809
609.239;  471.458; -107.105; -212.810
609.514;  459.969;  281.895;  240.188
609.789; 1036.475; -187.104; -716.812
610.064; 1385.981; -435.096; -609.827
610.339; 1419.513; -855.109; -799.804
610.614; 1901.730; -131.100; -315.820
610.889; 1123.869;  215.895;  107.188
611.163;   66.470; -407.104; -591.812
611.438;  152.148;   81.886; -167.794
611.713;    6.211; -467.101; -499.817
611.988;  111.614; -144.101; -328.818
612.263;  -52.503; -771.102; -717.815
612.538;  415.161;  385.887;  251.204
612.812;  236.032; -832.100; -911.820
613.087;  199.450; -358.098; -338.823
613.362;  -87.560; -497.107; -557.807
613.637;   97.389;  261.897;  138.186
613.911;  -27.467; -256.092; -345.835
614.186;  258.338; -249.107; -292.807
614.460; 1044.569; -842.081; -758.854
614.735; 1351.794;  -55.087;  -17.843
615.010;  319.380;   43.912;  -82.841
615.284;  422.224;  360.892;  246.195
615.559;  554.232; -792.092; -955.835
615.833;  506.940;  -76.099;  -87.822
616.108;   14.449; -225.090; -390.837
616.382;  308.597;  274.913;  402.156
616.656;  259.849; -241.090; -232.837
616.931;  810.041; -785.099; -700.822
617.205; 1624.781; -973.104; -979.813
617.480; 1587.510;  -91.125;    6.225
617.754;  273.906; -396.125; -128.774
618.028;   10.964; -369.129; -382.768
618.302;  128.422;   73.892;  -25.805
618.577;  -92.109; -371.103; -518.815
618.851; -104.992; -399.109; -600.803
619.125;  -72.901; -335.134; -378.759
619.399;  -29.918; -244.104; -374.813
619.673;  -91.169; -330.115; -515.792
619.947;  -78.648; -333.114; -448.795
620.222;  -14.005; -198.110; -204.801
620.496;   48.563;  -47.121;  -96.782
620.770;    5.951; -187.122;  -93.781
621.044;  413.459;  323.895;  346.190
621.318; 1170.167; -653.120; -614.783
621.592; 1053.164; -430.121; -409.783
621.866;  573.979; -476.112; -572.799
622.140;   47.322; -207.116; -356.791
622.413;  128.585;  138.889;  112.200
622.687;  -54.289; -746.101; -492.817
622.961;   42.222; -130.108; -143.805
623.235; -102.814; -633.111; -661.800
623.509; -213.731; -816.105; -848.811
623.783;   44.434;  -12.107;   48.193
624.056;   16.469; -254.120; -280.783
624.330;  117.269;   63.888;   -3.797
624.604;   97.117; -271.116; -355.790
624.877;  144.001;  180.890;   26.198
625.151;   73.844; -249.114; -238.794
625.425;  -39.115; -150.103; -283.814
625.698;  -81.918; -367.119; -374.785
625.972; -173.195; -799.110; -765.802
626.245;  175.620;  685.884;  484.210
626.519;  -72.725; -426.120; -340.784
626.792;  -16.960; -192.107; -380.807
627.066; -148.959; -485.122; -662.779
627.339; -183.901; -736.110; -663.802
627.613;  131.273;  351.880;  148.216
627.886;  118.707;  187.891; -612.803
628.160;    4.167;  312.880; -161.783
628.433; -171.386; -695.125; -703.775
628.706; -141.525; -517.120; -615.784
628.979;   79.723;  296.876;  117.223
629.253; -158.311; -785.119; -833.786
629.526;  648.491; -334.126; -253.772
629.799;  493.234; -641.123; -479.778
630.072;  301.666; -497.128; -516.769
630.346; -113.980;-1115.116;-1080.790
630.619;  766.141; -467.107; -545.808
630.892; 1031.187;  709.889;  593.200
631.165;  633.582;  790.896;  679.187
631.438; -170.425;-1092.112;-1055.798
631.711;  106.138;  453.877;  257.221
631.984;  -97.387; -523.117; -624.789
632.257; -116.092; -636.117; -681.789
632.530;  -57.517; -412.119; -433.785
632.803;  105.642; -109.115;    7.207
633.076;  -86.071; -360.123; -422.777
633.349;   66.172;  173.872;  121.231
633.622;  -61.919; -187.119; -240.785
633.895; -202.731; -903.120; -823.783
634.167; -155.006; -496.126; -525.773
634.440;   29.229;  -19.116; -137.792
634.713;   40.988;  -22.119; -120.786
634.986;  206.657;  593.871;  453.233
635.258; -156.861; -507.115; -597.793
635.531;  266.302;  742.882; -343.788
635.804;  -40.989; -303.117; -318.789
636.077; -210.677; -830.116; -852.791
636.349;  -25.263; -586.115; -474.793
636.622;  789.990; 1695.874; 1392.228
636.894;  381.175; -474.120; -909.784
637.167;  233.282; -836.127; -789.771
637.439;   63.876; -278.128; -213.770
637.712;  -54.207; -312.126; -293.772
637.984; -133.876; -635.116; -707.791
638.257;  692.729;  515.877;  488.222
638.529;  816.515; -881.125; -924.776
638.802;  364.066; -508.128; -449.769
639.074; -214.450; -927.122; -952.781
639.346; -228.613; -942.135; -930.757
639.619;   40.093;  -79.142; -319.744
639.891;   24.441;  -83.122; -168.779
640.163; -145.556; -689.122; -756.780
640.435;   80.646;  273.878;  103.220
640.708;   60.349;  -72.122; -132.780
640.980;  -36.548; -366.122; -362.781
641.252;  372.954;  -25.121;  -71.781
641.524; 2970.857;  580.879;  573.219
641.796; 2712.060;-1094.121; -907.782
642.068;  531.562; -191.121; -300.782
642.340; -106.735; -486.121; -566.783
642.613;   84.267;  294.880;  323.217
642.885; -183.630; -787.120; -878.783
643.157;  -87.927; -810.120; -658.784
643.428;  125.975;  170.880;  218.216
643.700; -100.722; -498.120; -425.784
643.972;  -53.419;  -16.119; -133.785
644.244; -141.017; -474.119; -559.785
644.516;  -34.214; -250.119; -114.786
644.788;  180.489;  662.881;  548.214
645.060;   17.691;  -12.119; -124.786
645.332; -193.006; -525.118; -535.787
645.603;  107.897;  479.882;  342.213
645.875; -127.501; -334.118; -369.787
646.147;  428.802; 1487.882; 1242.212
646.418; -142.895; -931.117; -918.788
646.690;  213.407; -714.117; -715.789
646.962;   65.810; -413.117; -451.789
647.233;   50.812;   15.883;   11.211
647.505; -182.685; -595.117; -475.790
647.776;  126.118;  328.884;  229.210
648.048;   20.420; -248.116; -418.790
648.320; -145.677; -752.116; -679.791
648.591; -279.974;-1055.116; -958.791
648.862; -123.872; -505.116; -577.792
649.134;   58.431;  115.885;  198.208
649.405; -103.166; -661.115; -618.792
649.677;  -91.064; -475.115; -598.793
649.948;  -17.961; -181.115; -296.793
650.219;   26.242;  -37.115; -147.793
650.491; -126.956; -431.114; -520.794
650.762; -214.253; -705.114; -731.794
651.033; -123.550; -437.114; -424.795
651.304; -166.348; -743.114; -728.795
651.576; -125.845; -680.114; -645.795
651.847;  -33.743; -250.113; -140.796
652.118;  -22.840;  -32.113; -189.796
652.389; -187.937; -639.113; -722.796
652.660;   -1.935; -147.113;  -89.797
652.931; -248.332; -897.112; -871.797
653.202; -149.329; -382.112; -541.798
653.473;  -73.827; -633.112; -533.798
653.744;  235.276; -595.112; -590.798
654.015;  218.879; -356.112; -303.799
654.286; -121.819; -642.111; -663.799
654.557;  -78.816; -586.111; -521.799
654.828; -293.113;-1114.111;-1088.800
655.099; -133.011; -404.111; -291.800
655.370; -166.608; -427.111; -543.801
655.641; -197.905; -656.110; -714.801
655.911; -184.203; -618.110; -638.801
656.182;  137.900;  437.890;  387.198
656.453;  244.102;  830.890;  746.198
656.724; -100.395; -466.110; -426.802
656.994; -117.992; -553.109; -568.803
657.265; -195.290; -862.109; -873.803
657.536; -151.787; -500.109; -377.804
657.806; -159.484; -561.109; -593.804
658.077; -282.482; -866.109; -950.804
658.347; -136.979; -523.108; -598.805
658.618; -235.776; -646.108; -694.805
658.888;  -27.974;  -41.108;  112.195
659.159; -141.371; -432.108; -548.806
659.429;   -2.568; -292.108; -349.806
659.700;   15.834; -435.107; -390.807
659.970;  -23.463; -370.107; -359.807
660.241;   33.840; -754.107; -921.807
660.511;  849.242; -147.107; -174.808
660.781;  147.845; -793.106; -748.808
661.052;  -60.853; -222.106; -381.808
661.322;   10.250;   21.894;   -9.809
661.592;   65.353;  257.894;  148.191
661.862;  -99.945; -369.106; -382.810
662.133; -189.942; -551.105; -502.810
662.403; -211.539; -770.105; -676.810
662.673;  -91.437; -256.105; -213.811
662.943; -151.834; -612.105; -551.811
663.213;   21.969;  -85.105;  -81.811
663.483; -116.929; -593.104; -568.812
663.753;  -37.526; -194.104; -152.812
664.023;    7.877;   68.896;  -32.813
664.293;  -72.621; -319.104; -126.813
664.563; -182.818; -694.104; -648.813
664.833; -211.715; -743.103; -608.814
665.103; -234.913; -730.103; -793.814
665.373; -193.610; -766.103; -806.814
665.643; -182.108; -863.103; -918.815
665.913;   32.095; -534.103; -714.815
666.182;  186.698; -685.102; -719.816
666.452;  438.000;  -22.102;  -89.816
666.722;  -37.597; -724.102; -784.816
666.992; -230.294; -948.102; -921.817
667.261; -190.692; -824.102; -808.817
667.531;  369.511;  134.899;   45.183
667.801;  806.014; -440.101; -412.818
668.070;  433.616;  714.899;  697.182
668.340; -187.781; -883.101; -840.819
668.609;  239.322;  588.900;  301.181
668.879; -126.176; -490.100; -558.819
669.149; -120.873; -539.100; -516.820
669.418; -149.970; -698.100; -726.820
669.688;  -18.468; -482.100; -666.820
669.957;  128.435; -423.099; -546.821
670.226;  -12.463; -268.099; -331.821
670.496; -151.560; -431.099; -635.822
670.765; -130.957; -418.099; -501.822
671.034; -238.955; -872.099; -828.822
671.304;   39.048;   55.902; -111.823
671.573; -256.649;-1085.098; -957.823
671.842;  133.653; -380.098; -294.823
672.112;   17.056; -692.098; -586.824
672.381;   39.359; -239.098; -214.824
672.650; -268.539;-1005.097;-1021.825
672.919; -161.136; -631.097; -507.825
673.188; -156.533; -681.097; -878.825
673.457; -319.031;-1101.097;-1143.826
673.726; -143.928; -579.096; -646.826
673.995;  -36.425; -533.096; -479.826
674.265;    7.077; -263.096; -333.827
674.534;   10.180; -183.096; -235.827
674.802;    8.382; -618.096; -703.828
675.071; 1744.785; -886.095; -801.828
675.340; 5999.888; -464.095; -339.828
675.609; 2154.190;  103.905;   82.171
675.878;  111.093; -949.095; -893.829
676.147;  107.996;  -26.095;   -8.829
676.416;  149.098; -210.094; -294.830
676.685; 1231.701; 1000.906; -622.830
676.953;  177.904; -603.094; -452.831
677.222;   -4.094; -193.094; -273.831
677.491;  -16.091;  -24.094; -127.831
677.759;   -2.088;   11.907;  172.168
678.028;   -2.386; -279.093; -222.832
678.297;    1.317;   71.907;  197.168
678.565; -281.180; -898.093; -944.833
678.834;  -53.278; -311.093; -268.833
679.102; -106.275; -411.092; -391.834
679.371; -258.573; -898.092; -727.834
679.639; -218.370; -797.092; -786.834
679.908; -228.167; -794.092; -724.835
680.176; -295.865; -895.091; -941.835
680.445; -110.362; -346.091; -352.835
680.713;    8.041;  -58.091;  -23.836
680.982; -157.157; -523.091; -525.836
681.250; -171.054; -578.091; -507.837
681.518; -159.451; -534.090; -751.837
681.787;  -14.649; -204.090; -167.837
682.055; -101.946; -490.090; -422.838
682.323; -296.443; -993.090; -992.838
682.591;   85.559; -216.090; -538.838
682.859;  141.762;    9.911;  -35.839
683.128;   98.765;  232.911;  497.161
683.396; -326.333;-1102.089;-1122.840
683.664;  -46.630; -241.089;   21.160
683.932;   68.572;  144.911;  -76.840
684.200; -125.425; -576.088; -320.841
684.468;  -15.022;  -73.088; -124.841
684.736;   -1.920; -214.088; -175.841
685.004; -224.917;-1024.088; -982.842
685.272;  -89.214; -880.088; -774.842
685.540;  -84.412; -499.087; -557.843
685.808; -139.109; -651.087; -682.843
686.076; -198.806; -894.087; -969.843
686.343;  -88.404; -601.087; -815.844
686.611;   90.499; -195.087; -224.844
686.879;  849.102; -530.086; -553.844
687.147; 5050.604; -483.086; -480.845
687.414; 1461.307;  -12.086; -169.845
687.682;  -14.190; -658.086; -757.846
687.950;  566.312;  259.915;  263.154
688.217;  -19.885; -792.085; -760.846
688.485;    8.617; -632.085; -636.847
688.753;  854.220;  -11.085; -102.847
689.020;  221.823; -820.085; -851.847
689.288; -156.175; -853.084; -787.848
689.555;    3.228; -195.084; -148.848
689.823;  -45.069; -241.084; -345.849
690.090; -124.867; -546.084; -651.849
690.358; -260.264; -877.084; -897.849
690.625;   69.539;  120.917;   45.150
690.892; -117.559; -403.083; -369.850
691.160;   -0.156;   72.917;  -35.850
691.427;   61.047;  141.917;  130.149
691.694; -244.551; -855.083; -929.851
691.962; -229.848;-1177.082;-1060.852
692.229;  103.055;  127.918;   56.148
692.496;  174.957;  130.918;  -49.852
692.763;   47.760; -164.082; -201.853
693.031; -121.238; -739.082; -716.853
693.298;  -41.935; -509.081; -368.853
693.565;  568.268; -155.081; -163.854
693.832; 1971.770;   -5.081;   -9.854
694.099;  199.773; -643.081; -642.855
694.366; -113.124; -882.081; -896.855
694.633;  -88.922; -920.080; -633.855
694.900; 1605.981; 4367.920; -114.856
695.167;  660.184; -214.080; -380.856
695.434;  159.486; -646.080; -623.856
695.701;  366.889;  121.921;  -61.857
695.968;  735.592; -365.079; -361.857
696.234; 1680.494; -415.079; -646.858
696.501;15862.497; -776.079; -614.858
696.768; 7583.700; -554.079; -617.858
697.035;  501.202; -632.078; -667.859
697.302;   64.305; -448.078; -552.859
697.568;   82.907; -458.078; -497.859
697.835;  -82.290; -683.078; -624.860
698.102;  -26.287; -498.078; -407.860
698.368;  173.915;  384.923;  396.139
698.635;  -22.282;  -47.077; -424.861
698.901;  -24.879; -240.077; -348.861
699.168;  143.023; -534.077; -456.862
699.435;  158.126;  -72.077;  -13.862
699.701; -220.671; -868.076; -764.862
699.968;  -42.269;  144.924; -441.863
700.234; -158.266; -783.076; -822.863
700.500; -102.863; -448.076; -539.864
700.767;   51.139;   -1.075;   26.136
701.033; -230.458;-1015.075; -963.864
701.299;  -67.656; -450.075; -483.865
701.566;  279.147;  950.925;  763.135
701.832;  109.950;  -31.075;  -76.865
702.098; -173.148;-1054.074;-1034.866
702.365; -176.645;-1098.074;-1030.866
702.631;  -74.842;-1038.074;-1063.867
702.897; 2188.660; -765.074; -676.867
703.163; 3345.863;  348.926;  254.133
703.429;  245.766; -256.073; -273.868
703.695;  -91.032; -796.073; -792.868
703.961;   78.571; -214.073; -210.868
704.227;  -95.126; -630.073; -725.869
704.493;  309.576;  613.927;  510.131
704.759;  -35.721; -565.072; -540.870
705.025;   72.082; -203.072; -194.870
705.291;    8.084; -666.072; -562.870
705.557;  415.787;  719.928;   34.129
705.823;   31.589; -742.072; -694.871
706.089;  233.992; -307.071; -326.871
706.355;  607.095; -315.071; -244.872
706.620; 8586.197; -776.071; -729.872
706.886;11165.900; -309.071; -362.873
707.152; 1025.603; -818.070; -973.873
707.418;  -97.695;-1153.070;-1186.873
707.683;   18.208; -550.070; -530.874
707.949;  -97.389; -547.070; -578.874
708.215;   50.013; -129.070; -207.874
708.480;  -29.884; -520.069; -420.875
708.746;  222.219;   68.931;   28.125
709.011;  -73.379; -578.069; -612.876
709.277; -130.776; -538.069; -543.876
709.542;  -81.773; -428.069; -387.876
709.808;   36.729;  -59.068;   89.123
710.073; -139.968; -577.068; -695.877
710.339;  -21.166; -242.068; -228.877
710.604;   73.237; -780.068; -845.878
710.869;  492.440; -277.068; -366.878
711.135; -148.958; -715.067; -628.879
711.400; -110.255; -507.067; -608.879
711.665;  -93.952; -404.067; -479.879
711.931; -139.050; -661.067; -677.880
712.196; -212.547; -876.067; -954.880
712.461;  248.256; -402.066; -490.880
712.726;  174.058; -727.066; -771.881
712.991; -145.639; -647.066; -664.881
713.256;  -50.936; -350.066; -332.882
713.521;  -75.034; -417.065; -381.882
713.787;  -76.631; -454.065; -472.882
714.052;  -23.028; -214.065; -400.883
714.317; -207.726;-1045.065; -981.883
714.581; 1675.877; -374.065; -268.883
714.846; 1903.179; -822.064; -888.884
715.111;  259.382;  261.936;  257.116
715.376;   -2.215;  -86.064; -223.885
715.641;   26.387; -365.064; -367.885
715.906;  480.990;   15.936; -551.885
716.171;  299.293;  221.937;  209.114
716.436;   96.295;  -78.063; -104.886
716.700; -172.102; -818.063; -692.886
716.965; -189.799; -794.063; -807.887
717.230;  -99.797; -339.063; -392.887
717.494;  -34.594;  -40.062; -134.888
717.759; -153.791; -784.062; -640.888
718.024;   61.111;  269.938;  250.112
718.288;  207.714;  685.938;  395.111
718.553; -271.083; -803.062; -977.889
718.817; -232.581; -883.061; -899.889
719.082;  -23.978; -115.061; -125.890
719.346; -244.176;-1000.061; -947.890
719.611;  -43.773; -300.061; -255.891
719.875; -132.970; -568.060; -537.891
720.140; -141.868; -453.060; -603.891
720.404;  113.835; -136.060; -249.892
720.668; 1355.438; -475.060; -411.892
720.933;  520.240;  146.940;  137.108
721.197; -160.457; -667.059; -600.893
721.461; -215.654; -851.059; -826.893
721.725;   46.648;  -21.059; -250.894
721.990;  -53.749; -284.059; -204.894
722.254;   -5.046;  -26.059; -108.894
722.518; -107.144; -286.058; -442.895
722.782; -148.441; -743.058; -594.895
723.046;  261.062;  614.942;  570.105
723.310;   88.964;  374.942;  210.104
723.574; -142.833; -654.058; -614.896
723.838; -167.831; -576.057; -642.897
724.102;  -30.328; -226.057; -239.897
724.366; -239.625;-1032.057; -978.897
724.630; -129.123; -749.057; -571.898
724.894; -110.420; -722.057; -514.898
725.158;   30.283;   38.944; -295.898
725.422;  -77.515; -394.056; -327.899
725.685;  -67.812; -441.056; -349.899
725.949; -138.609; -566.056; -519.900
726.213; -125.407; -732.056; -811.900
726.477;  266.296;-1020.055; -933.900
726.740;  243.699; -274.055; -104.901
727.004;  573.801; -384.055; -510.901
727.268; 5000.704; -442.055; -400.901
727.531; 1230.907; -961.055; -775.902
727.795;  -64.491; -713.054; -673.902
728.059;  -85.688; -552.054; -557.903
728.322;  -94.386; -841.054; -669.903
728.586;   20.017; -692.054; -701.903
728.849; -124.080; -695.053; -756.904
729.112; -204.978; -812.053; -912.904
729.376; -221.775; -959.053; -905.904
729.639; -108.372; -536.053; -536.905
729.903; -141.270; -733.053; -699.905
730.166;  -59.667; -437.052; -399.906
730.429;   -0.664; -317.052; -468.906
730.693; -103.162; -355.052; -894.906
730.956;  460.941;  810.948;  651.093
731.219; 1075.744; -310.052; -103.907
731.482;  206.646;-1003.051; -894.907
731.745;   85.049; -794.051; -935.908
732.009;   70.752;  -30.051;   50.092
732.272; -167.746; -904.051; -771.909
732.535;  -47.443; -300.051; -310.909
732.798; -270.441;-1083.050;-1166.909
733.061;  -55.738; -430.050; -456.910
733.324;   52.365;   31.950; -180.910
733.587;  202.167;  290.950;  365.090
733.850; -115.630; -973.049;-1050.911
734.113;   63.773;   33.951;   32.089
734.376;    3.875; -328.049; -447.912
734.639;  485.478; 1188.951; 1011.088
734.901;  147.581; -180.049; -402.912
735.164;  847.683; -883.048; -837.913
735.427; 1963.686; -166.048; -355.913
735.690;  227.589; -205.048; -234.913
735.952;  -91.309; -923.048; -925.914
736.215;  -68.606;-1113.048;-1009.914
736.478;   52.897; -771.047; -774.915
736.740;  370.099;   33.953;  129.085
737.003; 1256.002; -658.047; -672.915
737.266; 6260.104;  -94.047;   46.084
737.528;  630.507; -682.047; -660.916
737.791;  499.510; -316.046; -327.916
738.053; 1403.412;  465.954;  649.083
738.316;17509.215; -162.046; -136.917
738.578;10441.818; -770.046; -736.918
738.841;  683.720; -382.046; -446.918
739.103;  303.423; -875.045; -777.918
739.365;  803.926;   79.955;  -69.919
739.628;  -13.872; -884.045; -805.919
739.890;  -25.869; -758.045; -710.919
740.152;  -90.466; -692.044; -754.920
740.414;   -3.164; -408.044; -359.920
740.677;  -52.561; -785.044; -634.921
740.939;  -46.058; -587.044; -487.921
741.201;  450.644; -432.044; -572.921
741.463;   69.547; -689.043; -745.922
741.725;   75.249;  -21.043; -199.922
741.987;  160.652;  220.957;  116.078
742.249;   26.355; -751.043; -859.923
742.511;  312.357; -703.043; -794.923
742.773;   30.460; -546.042; -546.924
743.035;  288.363;  796.958;  533.076
743.297;  -70.535; -963.042;-1013.924
743.559; 1189.468; -278.042; -262.925
743.821;   68.571; -735.042; -744.925
744.083;   12.273;  -44.041; -149.925
744.345; -164.824; -869.041; -892.926
744.607;  102.279;   75.959;  122.074
744.868; -106.319; -490.041; -554.927
745.130; -198.916; -994.041;-1008.927
745.392;  138.087;   -1.040;  -44.927
745.653;   -3.711; -411.040; -378.928
745.915;  350.292;  896.960;  631.072
746.177;  151.894;   35.960;  -43.928
746.438;  -25.803; -428.040; -543.929
746.700;  -97.200; -947.039; -988.929
746.961;   16.102; -659.039; -740.930
747.223;  248.905; -190.039;  -74.930
747.484;  184.608; -391.039; -471.930
747.746;  294.610;  -23.038; -106.931
748.007;  145.913; -647.038; -689.931
748.269;  525.316; -468.038; -440.931
748.530;  755.318; -852.038; -638.932
748.791;  425.221; -354.038; -420.932
749.053;  788.624;  286.963;  163.067
749.314;  730.426; -236.037; -169.933
749.575;  773.929; -945.037; -905.933
749.836; 1365.432; -217.037;   86.066
750.098; 4553.834;  -60.037;  -21.934
750.359;56257.137;  414.964;  555.066
750.620;12690.139; -121.036; -220.935
750.881; 1621.142; -585.036; -513.935
751.142; 2228.145; -950.036; -938.936
751.403;26779.847; -789.036; -705.936
751.664; 9935.950;-1034.035; -999.936
751.925;  778.453; -175.035; -262.937
752.186;  466.455; -298.035; -278.937
752.447;  249.158; -590.035; -445.937
752.708;  108.961; -532.035; -648.938
752.969;   30.763; -566.034; -576.938
753.230;   -3.634; -777.034; -672.939
753.491;   -9.831; -650.034; -631.939
753.751;  143.771;  109.966;   19.061
754.012;  215.974;  258.967;  181.060
754.273;  151.477; -174.033;  -71.940
754.534;   14.979; -487.033; -580.940
754.794; -166.518; -926.033; -911.941
755.055;  385.784; 1051.967;  881.059
755.316;  -40.713; -700.032; -566.942
755.576;  -23.510; -606.032; -576.942
755.837;  -50.808; -527.032; -695.942
756.097;  -18.905; -530.032; -564.943
756.358; -100.702; -725.032; -770.943
756.618;  -48.000; -705.031; -641.943
756.879;   21.803; -254.031; -349.944
757.139; -186.794;-1098.031;-1116.944
757.400;  -61.392; -538.031; -553.945
757.660;   -5.189; -365.031; -401.945
757.920;  104.814; -266.030; -228.945
758.181;    8.716; -468.030; -351.946
758.441; -161.481; -870.030; -809.946
758.701;  -32.378; -308.030; -215.946
758.961;   46.024; -220.030; -278.947
759.222;  -32.073; -574.029; -502.947
759.482; -124.971; -683.029; -723.948
759.742; -130.268; -706.029; -547.948
760.002;   49.935;  -83.029; -143.948
760.262;  119.737;   50.972;  182.051
760.522;  -28.060; -498.028; -574.949
760.782;  -79.957; -738.028; -612.949
761.042;  -27.855; -618.028; -573.950
761.302;  141.548;   55.972;  -18.950
761.562;  109.051; -164.027; -154.951
761.822;  151.353; -710.027; -551.951
762.082;  -74.144;-1104.027;-1093.951
762.342;  119.959; -328.027; -403.952
762.601;  197.761; -567.027; -506.952
762.861;  629.664; -281.026; -207.952
763.121;  704.267; -406.026; -411.953
763.381;12984.769; -499.026; -485.953
763.640;11646.672; -139.026; -307.954
763.900;  594.674; -242.026; -203.954
764.160;  139.577; -458.025; -491.954
764.419;  -17.020; -726.025; -782.955
764.679; -114.818; -795.025; -726.955
764.939;   30.585; -124.025; -210.955
765.198; -106.712; -608.025; -563.956
765.458; -105.110; -710.024; -612.956
765.717; -116.107; -454.024; -590.957
765.976;  -64.304; -428.024; -411.957
766.236;  -69.502; -475.024; -610.957
766.495;  110.701;  260.977;   73.042
766.755; -167.896;-1090.023; -987.958
767.014;   18.006; -594.023; -665.958
767.273;  -67.091; -373.023; -397.959
767.533;  -33.989; -228.023; -307.959
767.792;   -9.586; -151.022; -188.960
768.051;  -49.883; -228.022; -276.960
768.310; -150.081; -546.022; -650.960
768.569;   31.822; -161.022;    4.039
768.828;  -16.375; -285.022; -363.961
769.088; -219.173;-1050.021; -942.961
769.347; -106.670; -755.021; -599.962
769.606; -157.967; -876.021; -857.962
769.865; -230.265;-1016.021;-1033.963
770.124;   42.138; -411.021; -336.963
770.383;  -84.759; -778.020; -910.963
770.641;  -21.157; -398.020; -400.964
770.900; -134.954; -953.020; -846.964
771.159;  -98.851; -851.020; -951.964
771.418;  -62.549; -917.020; -779.965
771.677;  241.054; -224.019; -293.965
771.936;  165.156; -794.019; -865.966
772.194; 4065.459; -465.019; -437.966
772.453;15825.362; -213.019; -391.966
772.712; 1190.564;  416.982;  329.033
772.970;  250.767;   32.982;   63.033
773.229;  184.570;  -22.018;  102.033
773.488; -158.228; -814.018; -770.968
773.746;  182.675;  296.982;  335.032
774.005;   25.278;  190.983;  -22.969
774.263;   62.480;  243.983;  177.031
774.522; -167.917; -422.017; -548.969
774.780; -108.414; -484.017; -417.970
775.039; -133.912; -551.017; -531.970
775.297;    9.691; -135.016; -351.970
775.555; -180.906; -489.016; -612.971
775.814; -172.704; -618.016; -570.971
776.072; -176.601; -749.016; -740.971
776.330; -143.799; -630.016; -520.972
776.589; -203.096; -703.015; -721.972
776.847; -200.193; -645.015; -624.973
777.105; -264.791;-1016.015;-1032.973
777.363; -118.288; -459.015; -454.973
777.621; -193.785; -660.015; -717.974
777.879;  -22.483;  -42.014;   32.026
778.138; -154.480; -554.014; -717.974
778.396; -170.277; -585.014; -526.975
778.654; -284.475;-1015.014; -970.975
778.912;  -80.672; -269.014; -371.976
779.170; -220.769; -880.013; -803.976
779.427; -274.367; -922.013; -897.976
779.685; -201.864; -880.013; -832.977
779.943; -158.561; -654.013; -593.977
780.201; -287.559; -964.012; -883.978
780.459; -172.956; -651.012; -610.978
780.717; -100.754; -440.012; -390.978
780.974; -146.051; -449.012; -490.979
781.232;  -91.248; -358.012; -338.979
781.490; -126.846; -551.011; -472.979
781.747; -148.643; -555.011; -476.980
782.005;   97.460;  462.989;  254.020
782.263; -283.938; -542.011;-1004.981
782.520;  -84.835; -326.011; -501.981
782.778; -309.932;-1013.010;-1051.981
783.035; -270.830; -962.010; -938.982
783.293;  -77.727; -248.010; -206.982
783.550;  -49.724; -134.010; -198.982
783.808; -203.522; -764.010; -776.983
784.065; -258.119; -745.009; -874.983
784.322;  -40.316;   25.991;  -86.984
784.580; -219.614; -915.009; -771.984
784.837; -127.411; -392.009; -466.984
785.094; -215.109; -783.009; -762.985
785.352;  -69.706; -304.008; -404.985
785.609; -195.603; -934.008; -839.985
785.866;  -91.501; -345.008; -401.986
786.123;  -92.898; -639.008; -583.986
786.380; -155.495; -665.008; -604.987
786.637;  -25.693; -225.007; -380.987
786.895;  -14.990; -456.007; -543.987
787.152;  -26.887; -135.007; -267.988
787.409;  -32.285; -123.007; -225.988
787.666;  -75.282; -299.006; -378.988
787.923; -161.579; -616.006; -695.989
788.179; -129.377; -551.006; -584.989
788.436; -175.274; -585.006; -585.990
788.693;  -36.071;  -92.006;  -87.990
788.950;  329.231; -125.005; -112.990
789.207;  323.634; -381.005; -372.991
789.464;  -34.364; -161.005; -301.991
789.720;   56.639;  150.995;  110.009
789.977; -286.858;-1003.005; -671.992
790.234;  -15.456;   44.996;  -66.992
790.490; -253.953; -884.004;-1031.993
790.747;    5.850;  -85.004;   22.007
791.004;    0.652; -426.004; -348.993
791.260; -102.945; -430.004; -560.994
791.517; -159.242; -843.003; -788.994
791.773;  -59.140; -379.003; -342.994
792.030; -144.537; -596.003; -660.995
792.286; -162.734; -686.003; -636.995
792.543;   25.468;  -74.002; -159.995
792.799;  -76.529; -584.002; -382.996
793.055; -294.826;-1179.002;-1210.996
793.312; -176.224; -827.002; -816.997
793.568; -129.721; -746.002; -599.997
793.824;   39.581; -226.001; -284.997
794.081;   52.584; -447.001; -508.998
794.337;  127.187; -664.001; -561.998
794.593; 2705.989; -319.001; -271.999
794.849; 9930.392; -746.001; -772.999
795.105;  529.295; -270.000; -261.999
795.361;   55.097; -490.000; -457.000
795.617; -108.500; -875.000; -945.000
795.873;  -60.600; -360.000; -407.000
796.129;  -50.800; -368.000; -306.000
796.385;  -10.200; -124.000; -156.000
796.641;  190.300;  412.000;  550.000
796.897; -115.100; -666.000; -635.000
797.153;  161.500;  453.000;  357.000
797.409; -155.900; -785.000; -868.000
797.665; -111.200; -625.000; -732.000
797.921; -137.200; -775.000; -762.000
798.176; -100.600; -744.000; -747.000
798.432;  -92.900; -824.000; -596.000
798.688; -157.300;-1174.000;-1078.000
798.943;  155.600; -165.000; -147.000
799.199;  -47.600;-1005.000; -959.000
799.455;  449.300;  369.000;  316.000
799.710;  184.000; -813.000; -380.000
799.966;  477.000; -162.000; -160.000
800.221;  751.200; -638.000; -721.000
800.477;17764.900; -743.000; -710.000
800.732;12046.700; -773.000; -800.000
800.988; 1003.000;  205.000;  -19.000
801.243; 3257.700; -454.000; -344.000
801.498;10796.800; -814.000; -739.000
801.754;  641.300; -289.000; -163.000
802.009;  156.800; -257.000; -335.000
802.264; -117.100; -967.000;-1033.000
802.520;   81.800;  222.000;   -3.000
802.775;  -57.700; -524.000; -359.000
803.030;  155.700;  395.000;  356.000
803.285; -165.900; -840.000; -903.000
803.540;  -86.600; -686.000; -699.000
803.795;  -71.100; -648.000; -583.000
804.051;  -24.600; -279.000; -346.000
804.306;   75.900;  168.000;  128.000
804.561;  321.100;  451.000;  362.000
804.816;  320.500;  714.000;  861.000
805.071;   83.900; -185.000; -280.000
805.325;  336.000; -257.000; -427.000
805.580; -183.900; -841.000; -877.000
805.835;    8.700; -204.000; -297.000
806.090; -124.000; -760.000; -676.000
806.345;   30.300; -344.000; -264.000
806.600;  -24.500; -549.000; -632.000
806.854;  -24.000; -408.000; -538.000
807.109;    5.000; -493.000; -577.000
807.364;   45.700; -407.000; -328.000
807.618;   47.200; -415.000; -381.000
807.873;   81.100; -470.000; -494.000
808.128;  189.600; -257.000; -518.000
808.382;  195.100; -224.000; -332.000
808.637;  134.700; -440.000; -511.000
808.891;  323.700; -257.000; -180.000
809.146;  137.400; -902.000; -794.000
809.400;  408.800; -848.000; -923.000
809.654;  527.000; -779.000; -551.000
809.909;  786.700; -841.000; -927.000
810.163;12711.500; -813.000; -651.000
810.418;25068.100; -940.000; -861.000
810.672; 1526.700; -685.000; -690.000
810.926; 1099.300; -993.000; -973.000
811.180; 2406.700; -439.000; -372.000
811.434;50593.600;  240.000;  135.000
811.689;15331.700; -231.000; -365.000
811.943;  849.400; -936.000; -953.000
812.197;  511.300; -893.000; -671.000
812.451;  240.600; -379.000; -514.000
812.705;  -43.400; -809.000; -619.000
812.959;  -42.000; -263.000; -388.000
813.213;   40.300; -283.000; -209.000
813.467;  177.500;  470.000;  253.000
813.721; -134.200; -764.000; -792.000
813.975; -193.700; -826.000; -877.000
814.229;  156.100;  430.000;  353.000
814.482; -129.900; -517.000; -566.000
814.736; -173.400; -766.000; -744.000
814.990; -192.700; -779.000; -872.000
815.244;  -23.600; -228.000; -285.000
815.497; -115.500; -636.000; -601.000
815.751;   48.600; -141.000;   82.000
816.005; -114.900; -470.000; -586.000
816.258;  -81.700; -510.000; -363.000
816.512; -192.000; -693.000; -610.000
816.766;   94.100;  121.000;  157.000
817.019;  110.500;  148.000;  149.000
817.273; -202.900;-1000.000; -802.000
817.526;  -33.300; -206.000; -173.000
817.779; -104.800;-1049.000; -960.000
818.033; -136.500; -693.000; -807.000
818.286; -179.700; -725.000; -792.000
818.540; -121.900; -403.000; -403.000
818.793;  -90.600; -402.000; -489.000
819.046; -181.100; -582.000; -520.000
819.299;   -9.300; -157.000; -166.000
819.553; -145.800; -552.000; -592.000
819.806; -241.900;-1016.000; -838.000
820.059;  -58.100; -334.000; -354.000
820.312;  109.800;  152.000;  185.000
820.565;   13.400;  110.000;  -27.000
820.818;   -5.800;  -59.000; -173.000
821.071; -252.300;-1041.000; -957.000
821.324; -165.000; -536.000; -540.000
821.577; -154.100; -457.000; -483.000
821.830;  -82.500; -270.000; -172.000
822.083; -232.600; -733.000; -288.000
822.336;  -51.900; -261.000; -167.000
822.589; -219.800; -805.000; -688.000
822.842; -213.400; -875.000; -770.000
823.094; -313.000;-1076.000;-1114.000
823.347; -205.800; -925.000; -729.000
823.600;   80.600;  402.000;  187.000
823.853;  -28.700; -311.000; -267.000
824.105;  -91.900; -331.000; -575.000
824.358; -160.000; -617.000; -716.000
824.611;  121.200;  234.000;   40.000
824.863;  -61.700; -612.000; -591.000
825.116;  103.400;  -33.000;   27.000
825.368;  144.300; -366.000; -372.000
825.621;  262.200; -186.000; -240.000
825.873;  112.500; -704.000; -737.000
826.126; 1167.300; -669.000; -641.000
826.378;18983.800; -389.000; -505.000
826.630; 3254.700; -890.000; -898.000
826.883;   45.500; -754.000; -693.000
827.135;  107.100; -279.000; -270.000
827.387; -196.500; -893.000; -839.000
827.639;   19.600;  -86.000;   32.000
827.892; -196.700; -742.000; -582.000
828.144; -258.900; -848.000; -804.000
828.396;   19.500;  104.000;  -80.000
828.648; -131.300; -440.000; -333.000
828.900; -217.100; -702.000; -795.000
829.152; -193.600; -684.000; -683.000
829.404;  -62.800; -215.000; -267.000
829.656;  -16.500;  321.000;  214.000
829.908;   14.300;  393.000;  229.000
830.160; -285.300;-1064.000;-1047.000
830.412; -151.100; -481.000; -430.000
830.664; -181.400; -557.000; -665.000
830.916;  -58.600; -268.000; -206.000
831.167; -287.900;-1073.000; -951.000
831.419; -186.600; -623.000; -566.000
831.671; -236.800; -764.000; -809.000
831.923; -137.100; -311.000; -447.000
832.174;  -89.800; -273.000; -331.000
832.426; -181.900; -493.000; -582.000
832.678; -325.700;-1043.000;-1091.000
832.929; -260.900; -947.000; -935.000
833.181;  -74.700; -575.000; -677.000
833.432;  -53.500;  -59.000; -186.000
833.684;   21.200;  112.000;  -27.000
833.935; -180.400; -610.000; -566.000
834.187; -214.400; -829.000; -823.000
834.438;  -18.900;  -58.000;  -25.000
834.689;  -28.900; -255.000; -123.000
834.941;  -46.800; -343.000; -244.000
835.192; -152.200; -590.000; -533.000
835.443; -118.600; -419.000; -506.000
835.695;   16.900;  138.000;  -16.000
835.946; -112.300; -608.000; -378.000
836.197; -168.300; -599.000; -622.000
836.448; -133.400; -528.000; -395.000
836.699;  -72.400; -253.000; -341.000
836.950;   57.700;   72.000;    7.000
837.201; -262.000;-1003.000; -987.000
837.452;  -56.300; -356.000; -170.000
837.703; -177.600; -791.000; -737.000
837.954;  -10.200; -205.000; -365.000
838.205; -134.600;-1029.000;-1008.000
838.456;  306.600; -196.000; -282.000
838.707;   -2.200; -423.000; -519.000
838.958;   34.900; -634.000; -647.000
839.209;  561.900;   18.000;   40.000
839.460;  222.000; -439.000; -201.000
839.710;  276.700; -135.000; -297.000
839.961;  758.600;  730.000;  612.000
840.212;  512.300; -382.000; -497.000
840.462; 2020.100; -328.000; -277.000
840.713;29802.700; -571.000; -536.000
840.964; 9027.600;  -62.000; -143.000
841.214;  750.500; -384.000; -624.000
841.465;  921.400; -214.000; -141.000
841.715;  808.900; -417.000; -380.000
841.966; 1092.800; -746.000; -685.000
842.216;17955.300; -330.000; -431.000
842.466;50960.100; -169.000; -313.000
842.717; 2014.400; -964.000; -952.000
842.967;  574.000; -635.000; -641.000
843.217;  447.500;   20.000;   28.000
843.468;  148.300; -104.000; -132.000
843.718;  -44.700; -718.000; -726.000
843.968; -178.900; -837.000; -765.000
844.218;   61.000; -315.000; -262.000
844.469;  -65.200; -577.000; -561.000
844.719; -153.500; -537.000; -682.000
844.969; -156.500; -550.000; -580.000
845.219; -229.400; -814.000; -862.000
845.469;  -93.200; -392.000; -342.000
845.719; -236.500; -792.000; -884.000
845.969;   15.500;  119.000;  174.000
846.219; -170.100; -738.000; -720.000
846.469;  122.800;  464.000;  432.000
846.718;  -47.800; -115.000;   31.000
846.968; -224.400; -827.000; -827.000
847.218;  -44.900; -224.000; -371.000
847.468; -155.800; -586.000; -555.000
847.718; -252.100; -827.000; -798.000
847.967; -215.100; -826.000; -915.000
848.217; -118.800; -449.000; -569.000
848.467;  -56.000; -405.000; -376.000
848.716; -177.000; -708.000; -725.000
848.966;   25.000; -372.000; -358.000
849.215;  -81.500; -428.000; -419.000
849.465; -160.500; -785.000; -615.000
849.714; -263.500;-1132.000;-1150.000
849.964;  -91.200; -551.000; -613.000
850.213;  -23.600; -393.000; -355.000
850.463;  179.200;  137.000;  340.000
850.712;    5.000; -542.000; -567.000
850.961;   11.200; -739.000; -678.000
851.211;  204.600; -513.000; -504.000
851.460;  270.200; -635.000; -650.000
851.709;  926.700;  -25.000;   18.000
851.958;18404.400; -912.000; -750.000
852.208;16739.900; -859.000; -879.000
852.457;  701.200; -181.000;  -13.000
852.706;  107.300; -791.000; -823.000
852.955;   -4.100; -507.000; -528.000
853.204; -110.700; -521.000; -461.000
853.453; -107.700; -418.000; -458.000
853.702; -257.400; -660.000; -750.000
853.951; -174.200; -532.000; -520.000
854.200; -185.900; -613.000; -562.000
854.449; -186.300; -695.000; -661.000
854.698; -127.100; -340.000; -279.000
854.946;  -52.400; -181.000; -284.000
855.195; -257.700; -843.000; -868.000
855.444; -111.200; -395.000; -420.000
855.693; -189.900; -345.000; -432.000
855.941; -133.400; -387.000; -516.000
856.190;  -47.400; -256.000; -382.000
856.439; -200.900; -652.000; -703.000
856.687;  -52.400;  -99.000;  -72.000
856.936; -170.700; -621.000; -323.000
857.184; -310.300;-1067.000;-1020.000
857.433; -180.500; -423.000; -512.000
857.681; -261.700; -989.000; -953.000
857.930;  -87.600; -282.000; -433.000
858.178; -285.300; -856.000; -929.000
858.427; -254.100; -802.000; -781.000
858.675; -164.700; -377.000; -544.000
858.923; -137.700; -527.000; -819.000
859.172; -308.300;-1094.000;-1070.000
859.420; -125.600; -339.000; -239.000
859.668; -211.000; -624.000; -628.000
859.916;   59.600;  109.000;  115.000
860.164; -197.700; -699.000; -603.000
860.413;  530.200; -878.000; -696.000
860.661;  256.000; -709.000; -577.000
860.909;  -69.800; -339.000; -325.000
861.157; -126.300; -277.000; -444.000
861.405; -164.600; -534.000; -670.000
861.653;  115.200;  310.000;  310.000
861.901;  339.700; -543.000; -613.000
862.149;  -74.400; -801.000; -824.000
862.396;  -77.400; -297.000; -187.000
862.644; -134.200; -368.000; -347.000
862.892;  -26.800;   98.000;  138.000
863.140; -167.800; -549.000; -530.000
863.388; -269.200; -815.000; -759.000
863.635; -190.600; -642.000; -601.000
863.883;   44.300;  231.000;  190.000
864.131; -110.900; -288.000; -357.000
864.378; -203.500; -675.000; -540.000
864.626; -132.600; -347.000; -415.000
864.873; -151.000; -556.000; -505.000
865.121; -253.700; -714.000; -799.000
865.368;  -52.800; -173.000;   75.000
865.616;  -13.900;  -33.000;  -40.000
865.863; -131.500; -462.000; -506.000
866.111; -192.000; -795.000; -824.000
866.358;   70.200; -426.000; -420.000
866.605; 3933.500;  -64.000; -804.000
866.853; 2842.900; -621.000; -537.000
867.100;  -93.200; -728.000; -775.000
867.347; -168.900; -672.000; -611.000
867.594; -139.600; -740.000; -714.000
867.841;  211.500;   97.000;   17.000
868.089; -254.300; -746.000; -698.000
868.336; -158.500; -477.000; -420.000
868.583; -212.800; -637.000; -741.000
868.830;   -6.300; -131.000; -170.000
869.077; -260.200; -859.000; -787.000
869.324; -189.400; -502.000; -458.000
869.571; -207.300; -398.000; -430.000
869.818; -180.800; -485.000; -439.000
870.065; -176.300; -439.000; -513.000
870.311; -134.600; -456.000; -542.000
870.558; -127.000; -332.000; -311.000
870.805;  -96.100; -320.000; -384.000
871.052; -158.100; -494.000; -369.000
871.298;  -26.500; -204.000; -131.000
871.545;  -60.800; -151.000; -185.000
871.792;  -97.800; -173.000; -222.000
872.038;  -86.800;   43.000; -126.000
872.285; -168.400; -496.000; -387.000
872.532; -149.600; -357.000; -387.000
872.778;  124.700;  556.000;  403.000
873.025; -133.500; -384.000; -359.000
873.271;  124.000;  501.000;  578.000
873.517;   25.000; -133.000; -209.000
873.764;  -38.400; -193.000;  -80.000
874.010;  -77.500; -143.000; -230.000
874.257;  -26.700;  123.000;   90.000
874.503; -204.500; -579.000; -479.000
874.749;  -51.900;   31.000;  275.000
874.995;  -46.000;  -80.000;  -20.000
875.242; -163.900; -540.000; -478.000
875.488; -165.100; -414.000; -439.000
875.734;  -48.400; -106.000; -234.000
875.980;  392.800; -872.000;-1032.000
876.226;  558.300; -157.000; -255.000
876.472;   42.500;  343.000;  237.000
876.718;  -31.400;  184.000;  158.000
876.964;  -15.500;   56.000;   55.000
877.210; -212.800; -547.000; -677.000
877.456; -219.300; -630.000; -557.000
877.702; -278.100; -821.000; -832.000
877.948; -141.400; -377.000; -497.000
878.193;   93.400;  361.000;  255.000
878.439; -128.500; -487.000; -472.000
878.685; -153.300; -272.000; -343.000
878.931; -185.100; -618.000; -676.000
879.176;  -93.800; -201.000; -201.000
879.422; -306.100; -933.000; -820.000
879.668;  142.800;   10.000;   79.000
879.913;  283.700;   53.000;  137.000
880.159;  -44.500; -112.000;  -17.000
880.404;  -57.100; -152.000; -162.000
880.650;  -22.100;   91.000;  141.000
880.895; -271.000; -670.000; -710.000
881.141; -159.100; -454.000; -428.000
881.386; -228.900; -503.000; -658.000
881.631; -134.300; -311.000; -166.000
881.877;    8.100;  112.000;  -13.000
882.122; -202.100; -684.000; -600.000
882.367; -104.800; -136.000; -186.000
882.612;  -78.800;  -80.000; -176.000
882.858; -281.100; -877.000; -823.000
883.103; -141.900; -297.000; -267.000
883.348; -227.600; -759.000; -852.000
883.593; -225.600; -677.000; -602.000
883.838;  -57.400; -311.000;  -24.000
884.083;  109.400;  353.000;  288.000
884.328; -118.300; -564.000; -545.000
884.573;  -46.600; -196.000; -143.000
884.818;  408.400; -694.000; -531.000
885.063;  261.800; -348.000; -315.000
885.308; -172.500; -475.000; -398.000
885.553;   67.100;  245.000;  325.000
885.797; -183.100; -545.000; -615.000
886.042;  -16.100;    8.000;   58.000
886.287;  -91.900; -253.000; -211.000
886.532;  -30.300;   26.000;  204.000
886.776; -120.400; -407.000; -525.000
887.021; -215.200; -621.000; -574.000
887.265; -241.000; -685.000; -689.000
887.510; -169.100; -557.000; -496.000
887.755; -107.500; -194.000; -164.000
887.999; -204.400; -552.000; -575.000
888.244;  -67.800;  -58.000;  161.000
888.488;   73.000;  371.000;  393.000
888.732; -166.600; -368.000; -520.000
888.977; -186.000; -622.000; -567.000
889.221; -270.900; -683.000; -659.000
889.465; -155.300; -422.000; -566.000
889.710;  -81.700;  -56.000; -299.000
889.954;   54.100;  579.000;  467.000
890.198; -259.200; -584.000; -707.000
890.442; -270.400; -716.000; -712.000
890.687; -252.700; -800.000; -753.000
890.931; -138.200; -273.000; -210.000
891.175; -211.700; -502.000; -500.000
891.419;  -68.700; -105.000; -110.000
891.663;  -97.400; -239.000; -112.000
891.907; -254.900; -801.000; -545.000
892.151; -283.500; -920.000; -815.000
892.395; -152.800; -274.000; -387.000
892.638;   41.700;  408.000;  291.000
892.882; -285.600; -780.000; -867.000
893.126;   80.700;  758.000;  558.000
893.370; -124.900; -167.000; -168.000
893.614; -207.700; -714.000; -715.000
893.857; -132.600; -183.000; -197.000
894.101; -205.400; -527.000; -631.000
894.345;  -34.100;  300.000;  150.000
894.588;  137.300;  569.000;  380.000
894.832;  -93.000; -178.000;  -84.000
895.075; -119.900;   15.000;  -92.000
895.319; -177.300; -552.000; -420.000
895.563; -174.900; -413.000; -353.000
895.806; -254.400; -628.000; -741.000
896.049;  -60.600; -576.000; -368.000
896.293;  266.700;  527.000;  405.000
896.536; -126.300; -465.000; -468.000
896.779;  -34.300; -149.000;   -1.000
897.023; -205.400; -751.000; -714.000
897.266;   18.700;  325.000;  269.000
897.509; -287.600; -900.000; -901.000
897.752;  -14.900;  149.000;  171.000
897.996; -321.000; -972.000; -864.000
898.239;  -17.000;  168.000;  102.000
898.482; -166.900; -431.000; -453.000
898.725;    4.100;  101.000;   53.000
898.968; -236.700; -609.000; -744.000
899.211; -151.000; -513.000; -361.000
899.454; -192.100; -633.000; -539.000
899.697;  -53.700;   90.000;  -43.000
899.940; -255.500; -761.000; -757.000
900.182; -128.100; -335.000; -405.000
900.425; -114.400; -150.000; -298.000
900.668;   21.300;  491.000;  350.000
900.911; -157.100; -292.000; -345.000
901.154;  -40.400;  141.000;   -3.000
901.396; -186.500; -407.000; -412.000
901.639; -219.100; -430.000; -496.000
901.882; -285.100; -790.000; -809.000
902.124;  -92.400;  -29.000; -143.000
902.367; -178.900; -315.000; -361.000
902.609; -189.500; -476.000; -453.000
902.852; -104.900; -108.000; -260.000
903.094; -181.000; -458.000; -337.000
903.337;  -18.700;  -26.000;   53.000
903.579; -129.100; -228.000; -441.000
903.821; -279.800; -597.000; -744.000
904.064;  -27.000;   85.000;  127.000
904.306;  -95.500; -126.000; -166.000
904.548; -140.800; -152.000; -366.000
904.790; -133.600; -195.000; -340.000
905.033; -225.500; -625.000; -577.000
905.275; -218.300; -513.000; -524.000
905.517;  181.300;  468.000;  256.000
905.759; -129.100; -667.000; -761.000
906.001; -109.900; -322.000; -369.000
906.243;  -54.000; -162.000; -224.000
906.485;  270.100; -265.000; -207.000
906.727;  165.800; -499.000; -542.000
906.969;   -4.500;  -30.000; -135.000
907.211;  307.700; -316.000; -382.000
907.453;  553.200; -188.000; -237.000
907.695;   13.800; -158.000; -385.000
907.936;  171.300;  818.000;  706.000
908.178;  -54.700;   92.000; -135.000
908.420;  -83.800; -111.000; -162.000
908.662; -203.600; -633.000; -682.000
908.903; -106.300; -208.000; -123.000
909.145;  -88.000; -240.000; -305.000
909.386;  102.400;  315.000;  280.000
909.628;  110.800;  363.000;  397.000
909.870;   57.100;   29.000;  264.000
910.111; -136.800; -809.000; -949.000
910.353;   42.300; -123.000; -161.000
910.594;  -18.300; -574.000; -606.000
910.835;  172.800; -265.000; -326.000
911.077;  267.000; -503.000; -604.000
911.318;  480.300; -505.000; -471.000
911.559;  725.700; -577.000; -880.000
911.801; 2430.500; -284.000; -280.000
912.042;21174.100;  -50.000; -159.000
912.283;43623.200;  404.000;  371.000
912.524; 5154.000; -396.000; -457.000
912.765;  830.500; -193.000;   79.000
913.006;  442.500; -307.000; -338.000
913.247;   88.100; -270.000; -290.000
913.488;   46.500;  -43.000;   30.000
913.729; -101.300; -373.000; -373.000
913.970;  -98.300;  -96.000; -292.000
914.211;  -71.700; -160.000; -198.000
914.452;  -43.400; -118.000;  -11.000
914.693;   92.900;  510.000;  592.000
914.934;  102.100;  510.000;  440.000
915.175;  -69.800;   53.000;  -95.000
915.415; -105.200; -137.000;   27.000
915.656;  -38.000;  -28.000;  192.000
915.897; -154.600; -252.000;  -82.000
916.137;  -60.500;   74.000;   -9.000
916.378; -206.300; -573.000; -517.000
916.619;  -96.300; -159.000;  -63.000
916.859;   15.700;  303.000;  330.000
917.100;  340.400; 1655.000; 1070.000
917.340;  216.800;  930.000;  728.000
917.581;  159.800;  965.000;  789.000
917.821;   29.900; -171.000;  143.000
918.061;   -4.100; -199.000;  -72.000
918.302;  -73.900; -152.000; -211.000
918.542;  -12.600;  -22.000;    3.000
918.782;  115.200;  369.000;  377.000
919.023;  268.500;  360.000;  427.000
919.263; 2839.800; 8131.000;  202.000
919.503; 1772.100; -137.000;  -54.000
919.743; 1147.100;  390.000;  266.000
919.983;  409.500; -134.000;  -26.000
920.223;  200.000;  135.000;   14.000
920.463;  326.700;  631.000;  554.000
920.703;  244.900;   84.000;   39.000
920.943;  273.400; -110.000;   90.000
921.183;  399.000; -414.000; -405.000
921.423;  857.400;  307.000;  546.000
921.663; 1162.500; -174.000; -257.000
921.903; 2689.600;  237.000;  173.000
922.143;16360.200;  372.000;  389.000
922.383;55093.200;  158.000;  115.000
922.622;14194.100; -120.000;  -15.000
922.862; 1795.200;  796.000;  785.000
923.102;  722.100;  -51.000;   33.000
923.341;  295.800;   59.000;   74.000
923.581;  188.500;  450.000;  360.000
923.821;   95.400;  301.000;  398.000
924.060;   94.900;  351.000;  193.000
924.300;  -54.300;  -16.000; -128.000
924.539;   70.400;  584.000;  473.000
924.779;   75.400;  812.000;  597.000
925.018;   -1.600;  247.000;  353.000
925.257;   71.400;  595.000;  666.000
925.497;  -29.900;  447.000;  412.000
925.736;  -85.900;  -35.000;  102.000
925.975;  109.200;  687.000;  669.000
926.214;  178.700;  907.000;  850.000
926.454;  103.500;  706.000;  757.000
926.693;  -12.600;  419.000;  543.000
926.932;  118.700; 1021.000;  825.000
927.171;  254.500; 1107.000; 1044.000
927.410;  186.400; 1144.000;  967.000
927.649;  120.000;  924.000;  742.000
927.888;   64.700;  590.000;  564.000
928.127;   43.100;  680.000;  678.000
928.366;   97.100;  842.000;  826.000
928.605;  173.800;  831.000;  737.000
928.844;  560.300; 1451.000; 1393.000
929.083; 1120.600;  770.000;  613.000
929.321;  586.700; 1335.000; 1359.000
929.560;  260.500; 1158.000; 1122.000
929.799;    6.400;  574.000;  475.000
930.038;  254.800; 1025.000; 1394.000
930.276;  -14.700;  334.000;  397.000
930.515;   82.900;  827.000;  681.000
930.753;   37.300;  614.000;  589.000
930.992;   23.400;  664.000;  717.000
931.230;   45.400;  847.000;  847.000
931.469;  446.900; 2162.000;  892.000
931.707;  218.800;  840.000;  751.000
931.946;  212.300; 1278.000; 1344.000
932.184;  206.800; 1437.000; 1175.000
932.423;  189.700; 1265.000;  963.000
932.661;  255.800; 1296.000; 1428.000
932.899;  138.400;  987.000;  821.000
933.137;   86.400;  754.000;  564.000
933.376;  392.600; 1664.000; 1335.000
933.614;  415.500; 1759.000; 1196.000
933.852;  198.200; 1357.000; 1171.000
934.090;  330.800; 1722.000; 1747.000
934.328;  293.400; 1252.000; 1457.000
934.566;  283.300; 1431.000; 1110.000
934.804;  344.100; 1263.000; 1309.000
935.042;  868.600; 1861.000; 1850.000
935.280; 3314.000; 2088.000; 2063.000
935.518; 2506.800; 2113.000; 2007.000
935.756;  620.200; 2481.000; 2316.000
935.994;  371.700; 1808.000; 1751.000
936.231;  746.000; 2890.000; 2950.000
936.469;  438.300; 2367.000; 2378.000
936.707;  417.700; 2220.000; 2167.000
936.945;  587.600; 2825.000; 2882.000
937.182;  513.800; 2679.000; 2741.000
937.420;  682.100; 3602.000; 3031.000
937.657;  925.800; 3365.000; 3478.000
937.895;  749.500; 3331.000; 3488.000
938.133;  727.500; 3540.000; 3528.000
938.370;  804.500; 3896.000; 4191.000
938.607;  888.700; 4488.000; 4205.000
938.845; 1224.300; 5587.000; 5549.000
939.082; 1038.300; 5387.000; 5177.000
939.320; 1235.000; 5799.000; 5728.000
939.557; 1396.400; 6549.000; 6491.000
939.794; 1543.900; 7285.000; 7097.000
940.031; 1957.200; 8421.000; 8368.000
940.269; 2303.000; 9552.000; 9107.000
940.506; 2358.800;10901.000;10507.000

