
Integration time [ms]: 100.000
Averaging Nr. [scans]: 40
Smoothing Nr. [pixels]: 0
Data measured with spectrometer [name]: 2101013U2
Wave   ;Sample   ;Dark     ;Reference
[nm]   ;[counts] ;[counts] ;[counts] 

394.013;   86.430; -450.257; -315.536
394.305;  269.878; -461.258; -419.536
394.596; 1140.623; -676.269; -527.514
394.887; 2659.640; -796.268; -654.518
395.178; 1007.521;  145.736;   11.476
395.470;  103.783; -210.263; -356.526
395.761;  236.705;  305.734;  394.479
396.052;  413.696; -545.284; -306.489
396.343;  434.192; -557.276; -454.503
396.634;  146.035; -200.279; -290.497
396.926;  144.913; -618.268; -565.517
397.217;  146.872;   11.725;  -17.504
397.508;   68.413; -366.273; -154.507
397.799;   66.385; -555.279; -571.497
398.090;   18.779; -973.280; -902.495
398.381;  132.845;   11.708;  -11.473
398.672;   10.246; -585.292; -742.473
398.963;   61.616; -348.279; -373.498
399.254;  148.855;   54.709; -209.475
399.545;  -12.973;-1017.266; -883.520
399.836;  106.131; -407.277; -343.501
400.127;   57.245; -205.295; -209.468
400.418;   81.557; -423.274; -392.506
400.709;   82.866; -359.281; -333.493
401.000;   62.534; -268.291; -309.476
401.290;  108.806;  225.698;  115.545
401.581;   77.903; -166.286; -228.485
401.872;   28.792; -542.298; -486.462
402.163;   62.063; -313.296; -252.467
402.454;  110.506; -123.291; -163.475
402.744;  107.779; -844.297; -813.465
403.035;  520.936; -226.293;  -86.471
403.326;  695.324; -366.292; -384.474
403.617;  412.911;  204.701;  165.539
403.907;  282.702; -593.283; -679.490
404.198; 2384.184; -545.307; -599.446
404.489; 6222.882; -618.283; -588.491
404.779; 2118.609; -618.302; -660.456
405.070;  246.763;  -67.304; -174.451
405.360;  339.813; -259.293; -238.472
405.651;  378.121;  125.699;   98.542
405.942;  195.298;  209.714;  127.516
406.232;  370.113; -432.285; -413.487
406.523;  550.655;  641.706;  758.530
406.813;  139.051; -579.286; -644.484
407.104;  389.268;  261.708;  144.527
407.394;  249.087; -604.299; -591.462
407.685;  176.762;  336.715;  222.513
407.975;   78.405; -400.283; -382.490
408.265;  129.995; -134.289; -190.478
408.556;   91.652; -472.291; -459.475
408.846;  164.881;  474.706;  429.530
409.137;   94.104;   -1.288; -216.480
409.427;   63.013; -193.285; -271.487
409.717;   61.791; -776.273; -692.508
410.007;  145.406;    4.715; -170.486
410.298;  101.148; -360.295; -342.469
410.588;   75.510; -495.285; -510.486
410.878;   64.765; -792.287; -873.482
411.168;  124.619; -481.298; -478.463
411.459;  134.325; -295.283; -242.489
411.749;   61.126; -609.292; -507.474
412.039;   84.027; -755.289; -386.480
412.329;  214.699;   40.722;  132.501
412.619;  212.026;  -62.286; -148.485
412.909;  387.348;  639.711;  594.521
413.199;  376.355; -130.280; -251.495
413.490;  433.188;  521.710;  352.523
413.780;  159.834;-1013.279; -913.496
414.070;  345.143;  -46.276;  235.497
414.360;  407.370; -729.278; -666.498
414.650;  440.811; -726.288; -688.482
414.940;  539.308; -538.280; -441.496
415.230;  918.108;   50.712;   74.519
415.520; 6073.047;  155.730;   66.486
415.809;23929.741; -305.281; -125.493
416.099;18065.308; -388.277; -229.501
416.389; 5015.030;  435.726;  236.494
416.679; 2891.186;   91.738;   85.473
416.969;  513.570; -527.287; -503.483
417.259;  482.786;  341.721;  171.503
417.549;  710.790;  522.718;  318.508
417.838; 1634.065; -205.268; -147.518
418.128; 5363.219;  650.710;  492.522
418.418; 4410.597; -491.272; -579.509
418.708; 3021.930;    9.726;  -48.506
418.997;11345.851; -474.275; -480.505
419.287;11576.587; -733.273; -790.507
419.577;10885.049; -160.283; -123.489
419.866;36480.081; -588.277; -498.501
420.156;37561.193; -242.270;  -55.513
420.446; 6661.054; -112.263;  -26.526
420.735;  956.262; -376.271; -446.512
421.025;  850.869; 1830.722;  315.502
421.314;  784.135; -203.271; -226.512
421.604; 1757.882;   89.732;  233.484
421.893;  985.007; -705.271; -602.511
422.183;  225.454; -487.263; -461.526
422.472;  417.783;  -36.271; -107.511
422.762;  501.908; -416.266; -379.521
423.051;  302.068; -916.276; -916.503
423.341;  340.364; -491.273; -439.507
423.630;  446.239; -121.265;   15.477
423.919;  414.325;   58.725;   49.495
424.209;  384.635;  -31.263;   56.473
424.498;  494.737;   68.732;  161.483
424.787; 1106.794; -535.267; -601.518
425.077; 3358.413;   34.735;   29.478
425.366; 4993.215; -734.262; -744.528
425.655; 9660.814;  639.727;  259.493
425.945;20240.546; -313.247; -268.554
426.234;11065.588;  117.741;  300.467
426.523; 5056.669;  -86.259; -350.534
426.812; 6818.554;  107.734;  159.480
427.101;10045.479; -127.269; -323.515
427.390;12726.147;  -55.270;  -86.514
427.680; 3129.964; -624.257; -411.538
427.969;  511.725; -330.255; -301.540
428.258;  361.780; -385.257; -477.536
428.547;  571.977;  449.728;  397.490
428.836; 1460.416; -421.253; -398.543
429.125; 2086.645; -199.259;  -72.534
429.414;  902.389; -330.251; -294.548
429.703; 3069.164; -231.251; -213.548
429.992; 9205.143; -938.250; -828.549
430.281; 5887.547; -397.264; -331.524
430.570;  620.879;  -21.252;   32.454
430.859;  629.918;  279.741;  352.466
431.148;  487.542;  636.752;  631.446
431.437;  301.454;  391.748;  367.454
431.725;  174.332; -544.257; -481.536
432.014;  137.973; -845.253; -756.545
432.303;  421.794; -149.239; -105.569
432.592;  690.553; -460.263; -178.525
432.881; 1068.068; -601.248; -437.554
433.169; 5948.400; -343.255;  -61.540
433.458;12215.979;  445.765;  540.424
433.747; 5066.646; -397.261; -289.529
434.036;  975.920; -275.242; -280.564
434.324; 2070.955; -395.249; -379.551
434.613; 3585.513;   40.757;  159.437
434.902; 1208.059;  333.760;  439.433
435.190;  722.943;   75.761;  295.431
435.479;  403.095;  -52.245;   83.441
435.767;  128.803; -411.244; -427.561
436.056;  246.315; -340.242; -294.563
436.345;  383.587; -372.240; -223.568
436.633;  392.501;   60.750;  383.450
436.922;  309.739;  208.760;  414.432
437.210;  752.143; -194.236;    1.426
437.499; 2486.402; -583.235; -432.576
437.787; 2707.018; -339.236;  -10.574
438.075;  654.924;   56.761;  162.430
438.364;  914.951;  -44.238;  250.429
438.652;  554.058; -286.226; -138.592
438.941;  156.421;    3.770;  269.415
439.229;   22.602; -665.252; -466.545
439.517;   61.160; -160.234;  -85.577
439.806;    1.324; -501.225; -290.595
440.094;  195.568;  377.766;  650.421
440.382;  253.322; -653.233; -302.580
440.670;  273.001; -361.235; -285.576
440.959;   47.566; -347.223; -170.599
441.247;   87.733; -151.229; -109.587
441.535;  136.508; -266.235;   31.423
441.823;   60.515; -497.234; -305.578
442.111;  220.937;  173.771;  327.412
442.400;  625.219; -628.245; -335.559
442.688; 1747.517; -111.234; -620.579
442.976; 1282.456; -786.213; -450.617
443.264;  154.305; -324.224; -364.597
443.552;  111.559; -258.226;   51.408
443.840;  178.982;  602.765;  876.423
444.128;  111.571;  265.767;  269.420
444.416;   18.165; -694.228; -312.588
444.704;   32.272; -465.219;  -92.605
444.992;   98.287;   -0.226;  240.407
445.280;   67.472; -517.230;  -94.585
445.568;   75.634; -694.212; -396.618
445.856;  413.205; -174.221;  357.398
446.143;  936.343;  -54.220;   -7.604
446.431;  769.968;  -25.228;  625.411
446.719;  303.616;  489.783;  675.391
447.007;  198.166;  481.769;  705.416
447.295;  192.813;  597.777;  871.402
447.583;  108.980; -464.229;  -34.587
447.870;  196.177; -434.221; -202.601
448.158;  475.346; -104.230;  129.415
448.446;  397.044; -800.219; -338.604
448.733;  193.507;   13.776;  269.403
449.021;  289.359;   60.788;  341.382
449.309;  189.649; -296.210;  208.379
449.596;  244.312;  128.783;   59.392
449.884;  153.245; -571.222; -325.600
450.172;  164.549; -756.227; -406.590
450.459;  441.139;  645.786;  780.387
450.747; 2277.286; -411.218; -147.608
451.034; 7259.870;  493.772;  889.411
451.322; 5851.892; -413.214; -170.614
451.609;  491.683;  292.777;  508.403
451.897;  586.588; -550.203; -183.634
452.184; 1757.689; -622.223; -400.598
452.472; 1653.671;   97.792;  269.375
452.759;  352.919;  512.781;  864.395
453.047;  144.931; -407.212; -125.617
453.334;   91.177; -732.219; -216.606
453.621;  110.744; -438.214; -161.615
453.909;  136.205;   13.796;  384.368
454.196;  132.151; -299.199; -123.641
454.483;  214.751;  317.798;  540.364
454.771;  152.474; -215.208;  196.374
455.058;   57.302; -316.207;  102.374
455.345;  119.232;   71.807;  344.347
455.632;   89.280; -128.207;  235.373
455.919;   64.449;  -82.196;  182.354
456.207;  -49.044; -774.198; -450.642
456.494;    2.614; -475.200;  -66.639
456.781;    8.397; -399.202; -198.635
457.068;   80.812; -253.206;  -29.628
457.355;    8.938; -698.206; -401.629
457.642;    6.319; -552.205; -290.630
457.929;   14.773; -778.194; -417.651
458.216;   63.457; -575.212; -354.617
458.503;  220.603; -173.193;  -19.652
458.790;  222.347; -864.208; -630.625
459.077;  278.277;  -77.202;  110.364
459.364;  781.516; -350.195; -210.649
459.651; 1635.610;  -46.206;  220.372
459.938;  776.062; -864.209; -665.623
460.225;  168.955;  132.799;  276.363
460.512;  -31.254; -836.197; -688.645
460.799;  111.809;  -32.218;  320.392
461.086;   92.518; -370.200; -251.640
461.372;   70.956; -509.198; -279.642
461.659;  141.750; -165.196;  108.354
461.946;   69.576; -445.193;  -54.651
462.233;  262.066;  842.800;  888.361
462.519;  348.738; -814.201; -464.639
462.806; 1018.522; -768.197; -497.645
463.093;  841.847; -445.191;  -66.656
463.380;   -3.586; -920.186; -824.664
463.666;   60.123; -259.197;  -18.646
463.953;  115.711; -406.195; -243.648
464.239;  204.811; -173.195;  -77.648
464.526;  405.146;  413.806;  743.350
464.813;  372.184; -565.190; -304.658
465.099;  367.277;  606.807;  607.348
465.386;  347.656;  903.807;  921.348
465.672;   54.422; -694.197; -522.645
465.959;   45.527; -598.188; -520.662
466.245;   20.881; -468.193; -359.652
466.532;   96.408; -109.195;   63.352
466.818;   98.439; -357.186; -216.664
467.104;   12.905; -488.182; -415.672
467.391;   -3.389; -628.189; -459.658
467.677;   41.718; -289.186;    9.335
467.964;   24.118; -682.189; -471.660
468.250;   80.095; -331.186; -160.665
468.536;   84.087;   90.811;  180.341
468.822;  -36.718; -821.184; -574.668
469.109;  148.937;  351.827;  471.311
469.395;  187.241;  729.808;  787.346
469.681;  203.765;   46.811;  156.341
469.967; 1220.320; -699.188; -382.660
470.254; 2628.378; -494.188; -306.662
470.540; 1614.224; -601.196; -476.646
470.826;  244.491; -488.181; -397.675
471.112;  280.586;  288.816;  113.331
471.398;   96.316; -253.183;  -58.670
471.684;   61.470; -626.177; -447.680
471.970;    6.645; -918.180; -981.675
472.256;   30.890; -521.192; -441.654
472.542;   40.398; -499.171; -434.691
472.828;   25.451; -743.182; -607.672
473.114;   38.717; -380.166; -283.700
473.400;   32.812; -504.175; -293.684
473.686;   45.024; -452.166; -400.701
473.972;   57.626; -230.174; -131.687
474.258;  -23.163; -925.173; -843.689
474.544;  187.311; -183.178;   -2.679
474.830;  286.238;  -65.175;   45.316
475.116;  414.136; -123.190; -196.658
475.401;  631.522; -558.180; -467.676
475.687;  195.871; -725.180; -718.676
475.973;   22.109; -673.181; -770.673
476.259;  265.716;  736.825;  764.315
476.544;  366.028; -539.176; -437.682
476.830;  768.844; -398.172; -322.690
477.116;  642.977; -430.177; -336.682
477.401;  132.572;  346.820;  358.324
477.687;   -5.788; -289.175; -405.684
477.973;   41.087;   21.819;   28.326
478.258;   -0.581; -448.163; -348.706
478.544;   49.851;   21.815;   61.334
478.829;  -31.647; -818.171; -738.692
479.115;  -37.557; -749.172; -651.690
479.401;    3.897; -444.174; -449.686
479.686;   35.146; -253.180;  -74.676
479.972;  -16.708; -886.178; -776.680
480.257;   31.894; -258.166;  -65.700
480.542;   -7.468; -614.170; -469.693
480.828;  224.935; 1288.824; 1392.317
481.113;  -23.342; -464.176; -426.683
481.399;  -21.582; -236.161; -202.711
481.684;  -35.857; -620.166; -462.700
481.969;   26.407; -158.159;  -73.713
482.255;    5.093; -439.169; -285.695
482.540;   -7.083; -569.178; -441.680
482.825;   11.209; -395.187; -404.663
483.110;   94.347;  -85.169; -105.696
483.396;  175.629; -840.157; -652.718
483.681;  447.577;  543.826;  730.313
483.966;  161.926; -696.160; -700.712
484.251;    5.401; -404.174; -310.687
484.536;    6.329; -356.165; -378.703
484.822;    1.979; -205.173; -218.687
485.107;  -19.882; -599.152; -502.726
485.392;  129.485;  662.836;  541.296
485.677;   81.957;  354.832;  163.302
485.962;  104.126;  160.843;  270.283
486.247;  104.202;  -14.162;   -8.707
486.532;   33.745; -178.166; -325.701
486.817;  165.463;  381.839;  431.291
487.102;  122.301; -453.154; -514.722
487.387;  615.606; -637.156; -652.718
487.672; 1090.290; -154.164;  -38.705
487.957;  696.845; -394.160; -286.711
488.241;  196.460; -290.150; -314.729
488.526;  682.644; -280.152; -148.726
488.811; 1131.344; -881.177; -818.680
489.096;  831.678; -666.154; -702.723
489.381;  468.440;    3.847;  162.275
489.666;  350.543; -428.161; -510.710
489.950;  164.531;  558.846;  627.277
490.235;  -16.845; -480.151; -458.728
490.520;  -41.108; -756.161; -723.710
490.804;  -42.167; -827.156; -736.719
491.089;   -1.999; -469.149; -299.732
491.374;   32.364; -132.164;  -75.704
491.658;    6.237; -817.147; -717.735
491.943;  205.173; -657.152; -609.727
492.227;  290.821; -178.155;  -38.721
492.512;   78.851; -294.157; -341.717
492.797;  -56.555; -713.149; -716.731
493.081;  -47.985; -588.147; -598.735
493.366;  -40.256; -751.161; -635.711
493.650;  195.219;  831.859;  917.254
493.935;   28.937; -648.147; -447.734
494.219;  -24.519; -778.142; -687.743
494.503;  -44.286; -585.150; -487.730
494.788;   51.843;   46.842;   74.285
495.072;  108.661;  184.850;  434.271
495.356;  171.529; -463.148; -343.733
495.641;  473.297; -812.146; -736.736
495.925;  473.413; -976.156; -903.719
496.209;   49.425; -599.149; -451.732
496.494;  -36.368; -763.142; -544.744
496.778;    7.876; -364.154; -360.722
497.062;  -34.363; -819.156; -627.719
497.346;  -31.303; -869.160; -640.711
497.631;  140.883;  580.852;  560.266
497.915;   73.182;  -64.145;  175.261
498.199;   76.254; -341.157; -277.718
498.483;   43.267; -562.152; -508.725
498.767;  188.762;  301.850;  300.271
499.051;  175.823; -126.149; -100.732
499.335;   31.896; -693.149; -739.731
499.619;  -29.478; -381.129; -423.767
499.903;   45.820; -272.155;  -65.721
500.187;   39.708; -588.153; -316.724
500.471;   31.823; -796.152; -595.727
500.755;  117.242;   62.839;  -96.710
501.039;   47.920; -270.155; -357.721
501.323;   93.296;  -21.141;  264.254
501.607;   37.545; -447.163; -503.706
501.891;    9.456; -607.156; -512.718
502.174;  -21.481; -726.144; -585.741
502.458;   62.552;   89.849;  370.273
502.742;   49.470; -180.138; -191.751
503.026;   93.136; -412.147; -254.734
503.310;  172.306; -437.159; -375.713
503.593;  108.863; -464.147; -325.735
503.877;  128.961; -232.133; -156.760
504.161;  199.685;    2.847;  -50.724
504.444;  133.370; -841.158; -710.716
504.728;  428.963; -487.164; -522.704
505.012;  695.934; -257.150;  -76.729
505.295;  523.369; -417.161; -212.711
505.579;  529.462; -256.156; -496.719
505.862;  696.529; -555.145; -333.738
506.146;  710.933; -681.159; -758.714
506.429;  376.784;  568.841;  461.286
506.713;   72.606; -732.151; -667.728
506.996;  286.900;   90.846;  295.278
507.280;  323.858; -633.165; -474.703
507.563;  214.443; -469.155; -261.721
507.847;   91.709; -423.153; -112.724
508.130;   84.769; -665.161; -456.711
508.413;  121.814; -758.167; -577.700
508.697;  220.214; -151.167;   12.300
508.980;  139.335; -422.153; -312.724
509.263;   -6.735; -466.155; -450.720
509.547;   45.734; -124.150;   82.271
509.830;   52.796; -172.160;  140.289
510.113;  105.212;  128.844;  298.281
510.396;   34.916; -530.152; -300.725
510.680;  215.355; -818.145; -812.738
510.963;  789.405;  184.846;  180.277
511.246;  710.592; -493.150; -357.730
511.529;  270.985; -482.145;  -83.739
511.812;  349.933; -250.134;   10.241
512.095;  249.853; -740.151; -396.728
512.378;   77.892; -317.147; -245.736
512.661;   15.478; -703.137; -623.753
512.944;   38.658; -750.142; -637.744
513.227;   51.500; -170.137; -171.752
513.510;   39.344; -479.144; -671.741
513.793;   27.325; -485.140; -435.747
514.076;  138.018;  -43.127;  -39.771
514.359;   96.651; -294.149; -135.732
514.642;   88.761; -442.142; -567.744
514.925;  692.324;  581.860;  561.253
515.208;  928.354; -498.134; -443.758
515.491;  591.668; -276.133; -182.761
515.773;  341.348; -410.143; -337.742
516.056; 1935.459;  249.864;  409.246
516.339; 2705.638; -754.136; -652.755
516.622; 2023.064; -518.150; -488.730
516.904; 1506.205;  882.857;  975.257
517.187;  693.149; -730.138; -523.752
517.470;  412.729; -568.143; -510.743
517.752;  399.916; -624.136; -470.756
518.035;  312.811; -708.139; -725.749
518.318;  323.963; -799.136; -744.755
518.600; 2217.546; -300.132; -325.762
518.883; 3100.561;  310.858;   88.256
519.165; 1469.191; -585.138; -426.751
519.448;  409.296;  -61.132;  -19.762
519.730;  225.751; -573.126; -415.773
520.013;  337.514;  588.867;  664.240
520.295; 1027.584;  -94.134;  -15.759
520.578; 2324.334; -335.131; -305.764
520.860; 2532.671; -254.132;   56.238
521.143; 1278.768; -763.135; -584.756
521.425;  484.214; -251.125; -279.775
521.707;  638.293; -622.127; -380.771
521.990; 1671.919; -199.127;  167.229
522.272; 1896.027; -116.140;   -4.748
522.554;  910.223; -237.143; -157.742
522.836;  408.032;  -24.134;   99.241
523.119;  257.135; -496.148; -189.734
523.401;  167.466; -448.130; -314.766
523.683;   90.178; -865.137; -693.753
523.965;  253.822;  408.862;  260.248
524.247;  259.185;   54.878;  170.220
524.529;  190.934; -451.134; -367.759
524.812;  366.293;   -3.130;  191.234
525.094;  787.646; -773.138; -631.751
525.376; 1253.898; -143.124;   78.223
525.658;  749.385; -441.136; -339.754
525.940;   38.031; -805.131; -671.764
526.222;   52.764; -188.136;  -88.755
526.504;  148.479; -190.131;   32.237
526.786;  236.637; -960.133; -647.760
527.068;  394.003; -124.123;  -67.778
527.349;  176.632; -865.137; -774.754
527.631;  145.196; -137.132;   22.238
527.913;  120.342; -664.127; -450.771
528.195;  154.756; -761.125; -639.774
528.477;  224.854;  -93.134;  -30.758
528.759;  142.668; -648.130; -522.766
529.040;   40.677; -569.123; -293.778
529.322;   52.009; -235.125;  -10.774
529.604;  150.970;  -47.130;   93.233
529.886;  156.050; -546.126; -302.773
530.167;  134.687;  232.870;  192.235
530.449;   61.942;    1.853;   63.265
530.731;   15.634; -572.122; -459.779
531.012;   54.280; -513.120; -216.784
531.294;   62.320; -118.116;  -43.792
531.575;  143.664;  290.875;  538.225
531.857;   31.099; -548.135; -266.757
532.138;   84.019; -113.141;   40.254
532.420;  178.420;  294.865;  403.244
532.701;  276.464; -722.133; -751.760
532.983;  394.842;  232.867;  182.239
533.264;  159.448; -243.126;  175.228
533.546;  -26.861; -491.136; -508.755
533.827;   60.811;  173.867;   -1.759
534.109;   53.024; -352.135;  -80.757
534.390;  113.150; -725.132; -582.762
534.671;  253.570; -270.135;  -82.756
534.953;  163.755; -751.123; -611.779
535.234;   27.905; -426.117; -255.789
535.515;  -74.286; -891.119; -735.785
535.796;  -24.287; -431.128; -193.770
536.078; -112.653;-1050.124; -904.777
536.359;   -2.819;  -22.123;    3.221
536.640;    3.508; -480.125; -197.774
536.921;  136.651;  225.871;  143.232
537.202;  369.768;  -87.138;  -16.751
537.483;  441.084;  251.869;  377.236
537.764;  163.287;   17.870;   98.235
538.045;  -33.997; -543.134; -371.758
538.326;  -11.473; -596.129; -447.768
538.607;   10.369; -686.127; -476.771
538.888;  160.871;   98.879;    5.218
539.169;  181.666; -704.122; -535.781
539.450;  335.950;  236.871;   16.233
539.731;  216.825; -361.121; -182.783
540.012;  134.455;  199.880;  412.216
540.293;   84.992;   82.876;  158.224
540.574;   39.816; -895.113; -717.796
540.855;  458.399;  435.879;  377.218
541.136;  529.788;   47.878;  139.220
541.416;  262.869; -161.130; -220.766
541.697;  186.779; -274.131; -170.763
541.978;  968.647; -270.135; -315.757
542.259; 1227.619; -211.127; -236.771
542.539;  590.764; -191.116; -186.790
542.820;  200.563;  461.875;  480.225
543.101;  142.757;  -52.145;  -77.738
543.381;   54.494; -638.127; -591.771
543.662;  242.891;  159.873; -254.771
543.942;  526.664; -751.127; -830.770
544.223;  991.315;  193.878;  161.219
544.504;  647.522; -275.124; -182.777
544.784;  538.375; -592.126; -408.773
545.065; 1585.818;  104.884; -254.791
545.345; 1855.614;  227.881;   14.215
545.626; 1188.490;  -14.113; -108.796
545.906;  817.186;   77.869;   98.235
546.186;  321.555;   92.874;  -95.773
546.467;  176.650;   99.877;  -95.778
546.747;  311.789;  264.884;  327.210
547.027;  338.396;   91.876;  111.223
547.308;  310.389; -376.127; -530.770
547.588;  377.803;  299.871;  371.232
547.868;  184.463;  458.870;  588.235
548.149;  197.200;  609.885;  593.207
548.429;  128.742; -347.127; -299.771
548.709;  150.730; -645.120; -461.784
548.989;  458.124;   84.882;   88.213
549.269; 1910.920;   10.868;  139.239
549.550; 4500.779;  215.877;  117.222
549.830; 3983.758; -758.111; -556.799
550.110;  776.816; -468.110; -320.801
550.390;  770.185; -128.122;  -56.779
550.670; 1070.886; -868.114; -783.795
550.950;  741.773; -509.121; -471.782
551.230;  178.020;  549.879;  460.218
551.510;  -18.078; -381.121; -326.782
551.790;   31.474; -173.109; -127.803
552.070;  231.200;  940.877; 1181.223
552.350;  359.293; -492.119; -377.786
552.630;  527.067;   -2.121;   77.219
552.909;  321.943;  181.884;   73.209
553.189;  219.701;  -49.132;   33.237
553.469;  179.918; -703.119; -514.786
553.749;  163.595; -469.127; -357.772
554.029;  157.684;   33.883;  -24.790
554.308;  136.629; -154.115;  -37.794
554.588;   50.037; -196.128; -204.770
554.868;   57.749; -366.121;  -47.782
555.147;  147.276; -114.115;  -46.793
555.427;  545.195; -260.116; -250.792
555.707; 3584.299; -284.115; -200.793
555.986; 4365.237; -719.111; -538.800
556.266; 2223.762;   23.884;   72.210
556.546;   95.522; -888.121; -675.782
556.825;  237.434; -657.114; -556.794
557.105; 1663.010; -125.128;   17.230
557.384; 1953.642;  122.884;  187.209
557.664;  721.970; -717.116; -508.792
557.943;  112.023; -557.121; -411.782
558.222;  151.302; -345.118; -344.788
558.502;  267.278; -116.115;  -76.793
558.781;  465.823;  194.885;  499.208
559.061;  395.627; -232.118; -227.788
559.340;  269.782;  302.883;  353.211
559.619;  647.687;   93.884;  148.210
559.899;  931.608; -239.117; -266.789
560.178;  847.177; -778.115; -593.793
560.457; 2835.035; -623.117; -562.790
560.736; 4072.713; -472.111; -482.800
561.015; 2654.408; -500.128; -502.769
561.295;  362.744;  180.893;  215.193
561.574;  324.975;  119.885;  116.207
561.853;  486.528;  274.891;  303.197
562.132;  455.855;  -45.114;  182.206
562.411;  404.393;  396.879;  553.219
562.690;  103.648; -592.115; -458.792
562.969;  134.172;  472.888;  630.203
563.248;  434.465; 2966.878; 2487.219
563.527;  264.837; -290.111; -408.800
563.806;  346.017; -650.127; -521.771
564.085;  376.810; -297.105; -206.810
564.364;  210.537; -594.117; -405.790
564.643;  455.518; -276.121; -223.781
564.922; 1717.172;  221.890;  397.198
565.201; 1710.751; -640.109; -700.803
565.479;  709.297; -297.115; -219.792
565.758;  294.686; -810.128; -712.770
566.037;  444.952; -155.109; -100.803
566.316;  233.142; -286.116;  -28.791
566.595;   45.925;  -17.115;  -12.793
566.873;   94.214; -166.111;  -79.801
567.152;  -63.203; -490.113; -590.797
567.431;   13.538; -113.116;    6.210
567.709;    3.994; -344.107; -212.807
567.988;  240.483; -810.114; -769.794
568.266;  486.399; -160.115;  -68.793
568.545;  338.232; -644.100; -514.819
568.824;  538.296;  160.885;  356.208
569.102;  488.933; -351.114; -235.794
569.381;  181.395; -492.116; -407.792
569.659;  -35.857; -553.113; -553.796
569.938;   27.838; -743.122; -465.780
570.216;  101.030; -225.109; -225.804
570.494;  -22.813; -632.114; -572.795
570.773;   36.422;  202.879;  114.218
571.051;   11.753; -373.123; -357.778
571.330;   46.591; -221.113; -174.796
571.608;   36.200; -181.098; -173.823
571.886;  -62.618; -671.111; -581.799
572.164;  -67.876; -739.121; -621.782
572.443;  -35.037; -562.105; -512.811
572.721;  -42.315; -399.117; -289.790
572.999;  -15.571; -280.117; -168.788
573.277;   77.932;  379.894;  620.191
573.555;  247.884;   94.894;   37.190
573.834; 1219.203;  -86.117; -114.788
574.112; 1448.397;  880.893;  811.193
574.390;  429.813; -143.111;  -96.801
574.668;    5.123;  -91.112;  -61.797
574.946;  -23.066; -165.106; -187.810
575.224;    6.251;   71.891;  -16.803
575.502;  -16.985; -200.116; -204.791
575.780;  -79.876; -767.112; -829.798
576.058;  221.938; 1589.889; 1004.200
576.336;  -11.457; -210.110; -129.801
576.614;  -66.450; -511.112; -340.798
576.891;   38.804; -711.115; -823.794
577.169;  440.488; -158.108; -285.805
577.447;  536.846;  169.893;  202.193
577.725;  245.379;  629.888;  854.201
578.003;   15.277;  -71.112; -371.798
578.280;   85.472; -208.104; -242.812
578.558;   79.253; -450.115; -422.793
578.836;  136.836; -210.114; -145.795
579.114;   55.973; -630.112; -670.797
579.391;   59.630;   -6.117;  -18.789
579.669;  -63.720; -595.114; -704.794
579.947;  152.218; -326.107; -127.806
580.224;  287.268; -692.107; -524.806
580.502;  291.572;  127.893;   76.193
580.779;   18.936;  -42.117;   75.210
581.057;  -76.145; -584.109; -470.804
581.334;  -95.138; -726.102; -695.815
581.612;   38.135;   54.895;  511.190
581.889;  -19.099;  -83.101; -129.818
582.167;  -34.385; -298.099; -190.821
582.444; -101.330; -845.102; -814.817
582.721;   94.871;  657.899;  715.183
582.999;   49.263; -326.100; -167.821
583.276;  460.482; -812.123; -713.779
583.553;  644.041; -364.102; -294.816
583.831;  201.869; -607.104; -631.812
584.108;   50.311;  349.892;  174.195
584.385;    5.637; -122.102;  -98.815
584.662;  -68.885; -651.111; -828.801
584.940;   35.239;  204.889;  204.199
585.217;  -17.432;  -73.113; -303.796
585.494;   37.973;   71.890;  118.198
585.771;  182.531; -250.109; -354.804
586.048;  477.193; -196.113;  -76.796
586.325;  297.717; -721.110; -773.801
586.602;   76.448;  230.896;  213.188
586.879;   -5.191; -499.100; -580.820
587.156;   37.861; -156.105; -331.810
587.433;  -32.757; -701.102; -667.817
587.710;   51.250;  152.888;  234.202
587.987;  275.441; -264.105; -236.811
588.264;  753.527;  315.888;  387.202
588.541; 1264.975;  -61.104;   26.187
588.818; 2561.158;   72.892;  171.196
589.095; 2171.371; -163.104; -174.812
589.371;  345.279; -459.109; -414.804
589.648;   14.922; -581.107; -437.807
589.925;   23.237; -517.114; -621.795
590.202;    1.500; -741.112; -607.798
590.478;   68.068; -166.105;  -73.811
590.755;  243.489; -241.108; -132.806
591.032; 2250.169; -741.110; -699.802
591.308; 3179.241; -732.094; -790.831
591.585; 1591.619; -573.110; -560.802
591.862;  127.270;-1056.102; -950.817
592.138;   53.112; -475.108; -474.805
592.415;  125.024; -486.104; -495.813
592.691; 1359.646;  460.896;  518.188
592.968; 1817.727; -208.098; -123.824
593.244;  822.663; -695.116; -595.790
593.521;   64.520; -105.102;  -42.817
593.797;  -22.639; -810.122; -720.780
594.074;  286.015; -611.096; -588.826
594.350;  603.526;  828.905;  729.172
594.626;  285.515; -303.111; -283.801
594.903;   81.846; -643.101; -645.817
595.179;  169.652;  243.896;  418.187
595.455;   14.748; -136.107; -150.807
595.731;   -1.171;  -19.103;  -38.814
596.008;  -42.241; -464.111; -434.800
596.284;   43.911; -187.100; -242.820
596.560;   46.247; -501.093; -493.833
596.836;  193.113; -173.105;  -70.810
597.112;  295.637; -582.108; -437.805
597.388;  277.463;  -49.097;  -48.826
597.665;  101.145;  437.887;  530.203
597.941;  -63.423; -572.089; -658.839
598.217;    8.373; -323.110; -293.802
598.493;  238.582;   61.891; -204.804
598.769;  457.406; -175.100;  -50.819
599.045;  287.615; -490.108; -562.806
599.321;   38.060; -193.100; -261.820
599.597;  119.932; -355.109; -476.804
599.872;  448.425;  409.896;  429.187
600.148;  342.664;  -61.097; -172.826
600.424;  254.495;   91.893;  202.193
600.700;  214.548; -170.107; -280.807
600.976;   97.409; -442.097; -464.825
601.252;  234.728; -226.109; -272.803
601.527;  172.776; -833.104; -840.813
601.803;  140.318; -453.105; -404.812
602.079;  156.581; -124.100; -118.819
602.354;  512.182; -620.092; -531.835
602.630;  744.068; -140.113; -482.796
602.906; 2058.451; -910.101; -863.818
603.181; 6183.493; -627.119; -534.786
603.457; 5249.187;   98.903; -278.826
603.733;  748.476; -605.120; -626.783
604.008;  885.285; -245.106; -164.810
604.284; 2842.872; -636.101; -580.817
604.559; 2471.104;   -3.112;  -42.799
604.835;  418.287; -163.105; -225.810
605.110;  368.341; -732.099; -892.821
605.385;  635.225;  224.907;  267.167
605.661;  581.304; -625.095; -729.829
605.936; 1063.216; -664.108; -737.806
606.211;  908.311;  -17.103; -170.815
606.487;  173.432; -329.114; -376.794
606.762;   17.243; -791.119; -745.786
607.037;  -40.787; -501.105; -433.810
607.313;  -43.103; -589.096; -574.828
607.588;  -15.541; -375.106; -137.810
607.863;   31.575;  -28.101; -143.818
608.138;  167.696;  513.890;  516.198
608.413;   26.320; -576.099; -592.822
608.688;   30.662; -203.108; -267.805
608.964;  185.828; -509.106; -218.809
609.239;  237.010; -107.105; -212.810
609.514;  230.793;  281.895;  240.188
609.789;  594.472; -187.104; -716.812
610.064;  808.171; -435.096; -609.827
610.339;  782.454; -855.109; -799.804
610.614; 1092.011; -131.100; -315.820
610.889;  589.318;  215.895;  107.188
611.163;   32.919; -407.104; -591.812
611.438;   66.133;   81.886; -167.794
611.713;    6.672; -467.101; -499.817
611.988;   32.549; -144.101; -328.818
612.263;  -29.638; -771.102; -717.815
612.538;  193.642;  385.887;  251.204
612.812;  141.337; -832.100; -911.820
613.087;  108.750; -358.098; -338.823
613.362;  -59.552; -497.107; -557.807
613.637;   46.432;  261.897;  138.186
613.911;  -14.742; -256.092; -345.835
614.186;   94.921; -249.107; -292.807
614.460;  603.828; -842.081; -758.854
614.735;  687.476;  -55.087;  -17.843
615.010;  140.416;   43.912;  -82.841
615.284;  215.336;  360.892;  246.195
615.559;  347.882; -792.092; -955.835
615.833;  250.293;  -76.099;  -87.822
616.108;    4.569; -225.090; -390.837
616.382;  122.327;  274.913;  402.156
616.656;  151.194; -241.090; -232.837
616.931;  466.493; -785.099; -700.822
617.205;  982.552; -973.104; -979.813
617.480;  883.386;  -91.125;    6.225
617.754;  146.109; -396.125; -128.774
618.028;   -0.696; -369.129; -382.768
618.302;   59.160;   73.892;  -25.805
618.577;  -45.092; -371.103; -518.815
618.851;  -60.900; -399.109; -600.803
619.125;  -55.041; -335.134; -378.759
619.399;  -19.023; -244.104; -374.813
619.673;  -60.654; -330.115; -515.792
619.947;  -32.814; -333.114; -448.795
620.222;  -16.759; -198.110; -204.801
620.496;  -13.576;  -47.121;  -96.782
620.770;    7.290; -187.122;  -93.781
621.044;  189.986;  323.895;  346.190
621.318;  689.027; -653.120; -614.783
621.592;  608.775; -430.121; -409.783
621.866;  315.480; -476.112; -572.799
622.140;   24.490; -207.116; -356.791
622.413;   55.509;  138.889;  112.200
622.687;  -51.228; -746.101; -492.817
622.961;   17.085; -130.108; -143.805
623.235;  -58.665; -633.111; -661.800
623.509; -106.132; -816.105; -848.811
623.783;   14.044;  -12.107;   48.193
624.056;  -31.747; -254.120; -280.783
624.330;   53.673;   63.888;   -3.797
624.604;   30.512; -271.116; -355.790
624.877;   72.845;  180.890;   26.198
625.151;   28.356; -249.114; -238.794
625.425;  -38.296; -150.103; -283.814
625.698;  -64.413; -367.119; -374.785
625.972;  -95.627; -799.110; -765.802
626.245;   59.638;  685.884;  484.210
626.519;  -40.793; -426.120; -340.784
626.792;  -21.878; -192.107; -380.807
627.066;  -78.742; -485.122; -662.779
627.339; -111.531; -736.110; -663.802
627.613;   36.106;  351.880;  148.216
627.886;   48.925;  187.891; -612.803
628.160;  -16.149;  312.880; -161.783
628.433; -105.711; -695.125; -703.775
628.706;  -60.468; -517.120; -615.784
628.979;   13.271;  296.876;  117.223
629.253;  -97.883; -785.119; -833.786
629.526;  299.249; -334.126; -253.772
629.799;  317.453; -641.123; -479.778
630.072;  138.706; -497.128; -516.769
630.346;  -70.961;-1115.116;-1080.790
630.619;  408.448; -467.107; -545.808
630.892;  577.860;  709.889;  593.200
631.165;  297.677;  790.896;  679.187
631.438;  -83.273;-1092.112;-1055.798
631.711;   37.581;  453.877;  257.221
631.984;  -53.666; -523.117; -624.789
632.257;  -75.395; -636.117; -681.789
632.530;  -41.687; -412.119; -433.785
632.803;   19.404; -109.115;    7.207
633.076;  -61.575; -360.123; -422.777
633.349;   15.585;  173.872;  121.231
633.622;  -37.664; -187.119; -240.785
633.895; -124.222; -903.120; -823.783
634.167;  -66.649; -496.126; -525.773
634.440;  -12.205;  -19.116; -137.792
634.713;   -5.309;  -22.119; -120.786
634.986;   58.549;  593.871;  453.233
635.258;  -78.098; -507.115; -597.793
635.531;   88.576;  742.882; -343.788
635.804;  -25.618; -303.117; -318.789
636.077;  -81.459; -830.116; -852.791
636.349;   -4.875; -586.115; -474.793
636.622;  348.623; 1695.874; 1392.228
636.894;  229.382; -474.120; -909.784
637.167;  129.892; -836.127; -789.771
637.439;   23.088; -278.128; -213.770
637.712;  -58.401; -312.126; -293.772
637.984;  -93.708; -635.116; -707.791
638.257;  327.725;  515.877;  488.222
638.529;  553.840; -881.125; -924.776
638.802;  224.905; -508.128; -449.769
639.074; -102.210; -927.122; -952.781
639.346; -119.550; -942.135; -930.757
639.619;    2.609;  -79.142; -319.744
639.891;  -18.767;  -83.122; -168.779
640.163;  -75.390; -689.122; -756.780
640.435;   21.287;  273.878;  103.220
640.708;    8.764;  -72.122; -132.780
640.980;  -30.009; -366.122; -362.781
641.252;  181.418;  -25.121;  -71.781
641.524; 1684.294;  580.879;  573.219
641.796; 1768.596;-1094.121; -907.782
642.068;  313.273; -191.121; -300.782
642.340;  -47.250; -486.121; -566.783
642.613;   30.052;  294.880;  323.217
642.885; -100.396; -787.120; -878.783
643.157;  -50.844; -810.120; -658.784
643.428;   67.907;  170.880;  218.216
643.700;  -83.491; -498.120; -425.784
643.972;  -26.114;  -16.119; -133.785
644.244;  -92.362; -474.119; -559.785
644.516;  -49.185; -250.119; -114.786
644.788;   55.267;  662.881;  548.214
645.060;  -28.507;  -12.119; -124.786
645.332; -100.455; -525.118; -535.787
645.603;   40.172;  479.882;  342.213
645.875;  -80.951; -334.118; -369.787
646.147;  172.901; 1487.882; 1242.212
646.418;  -73.547; -931.117; -918.788
646.690;  114.130; -714.117; -715.789
646.962;   17.931; -413.117; -451.789
647.233;   -1.217;   15.883;   11.211
647.505; -110.315; -595.117; -475.790
647.776;   27.112;  328.884;  229.210
648.048;  -24.886; -248.116; -418.790
648.320;  -62.184; -752.116; -679.791
648.591; -153.332;-1055.116; -958.791
648.862;  -78.006; -505.116; -577.792
649.134;   -0.629;  115.885;  198.208
649.405;  -43.527; -661.115; -618.792
649.677;  -64.625; -475.115; -598.793
649.948;   -5.398; -181.115; -296.793
650.219;  -17.946;  -37.115; -147.793
650.491;  -83.769; -431.114; -520.794
650.762; -122.593; -705.114; -731.794
651.033;  -80.716; -437.114; -424.795
651.304; -103.489; -743.114; -728.795
651.576;  -65.562; -680.114; -645.795
651.847;  -29.010; -250.113; -140.796
652.118;  -16.158;  -32.113; -189.796
652.389; -114.281; -639.113; -722.796
652.660;  -32.180; -147.113;  -89.797
652.931; -147.178; -897.112; -871.797
653.202;  -91.626; -382.112; -541.798
653.473;  -64.099; -633.112; -533.798
653.744;  131.428; -595.112; -590.798
654.015;  118.080; -356.112; -303.799
654.286;  -63.868; -642.111; -663.799
654.557;  -65.492; -586.111; -521.799
654.828; -147.665;-1114.111;-1088.800
655.099;  -94.488; -404.111; -291.800
655.370;  -81.886; -427.111; -543.801
655.641; -121.209; -656.110; -714.801
655.911;  -93.807; -618.110; -638.801
656.182;   41.844;  437.890;  387.198
656.453;  106.921;  830.890;  746.198
656.724;  -78.827; -466.110; -426.802
656.994;  -74.900; -553.109; -568.803
657.265; -124.948; -862.109; -873.803
657.536;  -71.846; -500.109; -377.804
657.806; -103.219; -561.109; -593.804
658.077; -124.443; -866.109; -950.804
658.347;  -96.641; -523.108; -598.805
658.618; -112.889; -646.108; -694.805
658.888;  -25.037;  -41.108;  112.195
659.159;  -67.710; -432.108; -548.806
659.429;  -19.533; -292.108; -349.806
659.700;    3.194; -435.107; -390.807
659.970;  -22.505; -370.107; -359.807
660.241;   21.472; -754.107; -921.807
660.511;  454.174; -147.107; -174.808
660.781;   92.451; -793.106; -748.808
661.052;  -46.722; -222.106; -381.808
661.322;  -22.145;   21.894;   -9.809
661.592;    3.007;  257.894;  148.191
661.862;  -73.567; -369.106; -382.810
662.133; -106.965; -551.105; -502.810
662.403; -124.313; -770.105; -676.810
662.673;  -60.811; -256.105; -213.811
662.943; -101.584; -612.105; -551.811
663.213;  -11.657;  -85.105;  -81.811
663.483;  -76.205; -593.104; -568.812
663.753;  -60.704; -194.104; -152.812
664.023;  -16.927;   68.896;  -32.813
664.293;  -56.475; -319.104; -126.813
664.563; -111.598; -694.104; -648.813
664.833; -124.571; -743.103; -608.814
665.103; -122.194; -730.103; -793.814
665.373; -120.618; -766.103; -806.814
665.643;  -87.441; -863.103; -918.815
665.913;   15.236; -534.103; -714.815
666.182;  113.188; -685.102; -719.816
666.452;  238.215;  -22.102;  -89.816
666.722;  -14.108; -724.102; -784.816
666.992; -131.606; -948.102; -921.817
667.261;  -89.280; -824.102; -808.817
667.531;  184.097;  134.899;   45.183
667.801;  573.099; -440.101; -412.818
668.070;  230.676;  714.899;  697.182
668.340;  -97.872; -883.101; -840.819
668.609;   75.355;  588.900;  301.181
668.879;  -72.168; -490.100; -558.819
669.149;  -69.592; -539.100; -516.820
669.418; -102.790; -698.100; -726.820
669.688;  -44.613; -482.100; -666.820
669.957;   78.939; -423.099; -546.821
670.226;  -25.859; -268.099; -331.821
670.496;  -82.482; -431.099; -635.822
670.765;  -86.930; -418.099; -501.822
671.034; -137.304; -872.099; -828.822
671.304;   -0.902;   55.902; -111.823
671.573; -136.400;-1085.098; -957.823
671.842;   66.902; -380.098; -294.823
672.112;   17.329; -692.098; -586.824
672.381;  -33.569; -239.098; -214.824
672.650; -136.017;-1005.097;-1021.825
672.919;  -98.466; -631.097; -507.825
673.188;  -96.764; -681.097; -878.825
673.457; -148.062;-1101.097;-1143.826
673.726;  -77.610; -579.096; -646.826
673.995;  -54.008; -533.096; -479.826
674.265;  -36.981; -263.096; -333.827
674.534;   -8.354; -183.096; -235.827
674.802;   -8.353; -618.096; -703.828
675.071;  851.574; -886.095; -801.828
675.340; 3624.001; -464.095; -339.828
675.609; 1187.803;  103.905;   82.171
675.878;   58.080; -949.095; -893.829
676.147;    8.532;  -26.095;   -8.829
676.416;   59.033; -210.094; -294.830
676.685;  669.185; 1000.906; -622.830
676.953;  104.912; -603.094; -452.831
677.222;  -38.311; -193.094; -273.831
677.491;  -15.909;  -24.094; -127.831
677.759;  -18.232;   11.907;  172.168
678.028;  -27.955; -279.093; -222.832
678.297;   -2.454;   71.907;  197.168
678.565; -142.152; -898.093; -944.833
678.834;  -80.325; -311.093; -268.833
679.102;  -74.573; -411.092; -391.834
679.371; -157.671; -898.092; -727.834
679.639; -116.369; -797.092; -786.834
679.908; -136.167; -794.092; -724.835
680.176; -145.441; -895.091; -941.835
680.445;  -70.764; -346.091; -352.835
680.713;  -24.112;  -58.091;  -23.836
680.982;  -94.360; -523.091; -525.836
681.250; -117.658; -578.091; -507.837
681.518; -105.306; -534.090; -751.837
681.787;  -14.804; -204.090; -167.837
682.055;  -75.878; -490.090; -422.838
682.323; -131.026; -993.090; -992.838
682.591;    3.301; -216.090; -538.838
682.859;   84.128;    9.911;  -35.839
683.128;    5.705;  232.911;  497.161
683.396; -161.943;-1102.089;-1122.840
683.664;  -42.041; -241.089;   21.160
683.932;   -1.890;  144.911;  -76.840
684.200;  -83.388; -576.088; -320.841
684.468;  -18.311;  -73.088; -124.841
684.736;  -46.709; -214.088; -175.841
685.004; -117.407;-1024.088; -982.842
685.272;  -63.355; -880.088; -774.842
685.540;  -69.878; -499.087; -557.843
685.808;  -83.127; -651.087; -682.843
686.076;  -99.800; -894.087; -969.843
686.343;  -62.873; -601.087; -815.844
686.611;   42.779; -195.087; -224.844
686.879;  366.156; -530.086; -553.844
687.147; 3066.683; -483.086; -480.845
687.414;  858.534;  -12.086; -169.845
687.682;    1.636; -658.086; -757.846
687.950;  277.813;  259.915;  263.154
688.217;   19.215; -792.085; -760.846
688.485;  -33.608; -632.085; -636.847
688.753;  477.644;  -11.085; -102.847
689.020;  122.821; -820.085; -851.847
689.288; -107.553; -853.084; -787.848
689.555;  -29.526; -195.084; -148.848
689.823;  -60.199; -241.084; -345.849
690.090;  -82.247; -546.084; -651.849
690.358; -141.870; -877.084; -897.849
690.625;   -3.518;  120.917;   45.150
690.892;  -82.816; -403.083; -369.850
691.160;  -34.240;   72.917;  -35.850
691.427;    4.287;  141.917;  130.149
691.694; -135.411; -855.083; -929.851
691.962; -134.134;-1177.082;-1060.852
692.229;   14.668;  127.918;   56.148
692.496;   74.670;  130.918;  -49.852
692.763;  -12.578; -164.082; -201.853
693.031;  -56.327; -739.082; -716.853
693.298;  -52.225; -509.081; -368.853
693.565;  264.452; -155.081; -163.854
693.832; 1183.504;   -5.081;   -9.854
694.099;  133.356; -643.081; -642.855
694.366;  -63.317; -882.081; -896.855
694.633;  -53.240; -920.080; -633.855
694.900;  704.086; 4367.920; -114.856
695.167;  397.538; -214.080; -380.856
695.434;   87.515; -646.080; -623.856
695.701;  198.217;  121.921;  -61.857
695.968;  418.194; -365.079; -361.857
696.234;  934.896; -415.079; -646.858
696.501;10479.523; -776.079; -614.858
696.768; 5585.724; -554.079; -617.858
697.035;  329.176; -632.078; -667.859
697.302;   38.353; -448.078; -552.859
697.568;    2.655; -458.078; -497.859
697.835;  -31.293; -683.078; -624.860
698.102;  -27.066; -498.078; -407.860
698.368;   87.485;  384.923;  396.139
698.635;  -40.288;  -47.077; -424.861
698.901;  -34.186; -240.077; -348.861
699.168;   54.566; -534.077; -456.862
699.435;   69.393;  -72.077;  -13.862
699.701; -105.805; -868.076; -764.862
699.968;   28.347;  144.924; -441.863
700.234;  -96.552; -783.076; -822.863
700.500;  -65.625; -448.076; -539.864
700.767;   -1.198;   -1.075;   26.136
701.033; -115.121;-1015.075; -963.864
701.299;  -60.819; -450.075; -483.865
701.566;  115.808;  950.925;  763.135
701.832;   22.885;  -31.075;  -76.865
702.098;  -98.489;-1054.074;-1034.866
702.365;  -78.562;-1098.074;-1030.866
702.631;  -19.585;-1038.074;-1063.867
702.897; 1237.467; -765.074; -676.867
703.163; 2221.619;  348.926;  254.133
703.429;  159.921; -256.073; -273.868
703.695;  -23.827; -796.073; -792.868
703.961;    8.574; -214.073; -210.868
704.227;  -40.174; -630.073; -725.869
704.493;  121.253;  613.927;  510.131
704.759;  -24.270; -565.072; -540.870
705.025;   24.232; -203.072; -194.870
705.291;    4.684; -666.072; -562.870
705.557;  194.736;  719.928;   34.129
705.823;   39.387; -742.072; -694.871
706.089;  148.914; -307.071; -326.871
706.355;  366.141; -315.071; -244.872
706.620; 5716.118; -776.071; -729.872
706.886; 8322.895; -309.071; -362.873
707.152;  770.772; -818.070; -973.873
707.418;   -8.926;-1153.070;-1186.873
707.683;    2.975; -550.070; -530.874
707.949;  -31.898; -547.070; -578.874
708.215;   -3.246; -129.070; -207.874
708.480;  -24.844; -520.069; -420.875
708.746;   81.033;   68.931;   28.125
709.011;  -46.190; -578.069; -612.876
709.277;  -73.414; -538.069; -543.876
709.542;  -39.762; -428.069; -387.876
709.808;  -18.910;  -59.068;   89.123
710.073;  -87.858; -577.068; -695.877
710.339;  -43.531; -242.068; -228.877
710.604;   64.246; -780.068; -845.878
710.869;  321.498; -277.068; -366.878
711.135;  -69.776; -715.067; -628.879
711.400;  -88.299; -507.067; -608.879
711.665;  -53.147; -404.067; -479.879
711.931;  -87.220; -661.067; -677.880
712.196; -115.493; -876.067; -954.880
712.461;   81.984; -402.066; -490.880
712.726;  146.086; -727.066; -771.881
712.991;  -90.563; -647.066; -664.881
713.256;  -25.436; -350.066; -332.882
713.521;  -63.159; -417.065; -381.882
713.787;  -54.157; -454.065; -472.882
714.052;  -25.355; -214.065; -400.883
714.317;  -79.453;-1045.065; -981.883
714.581; 1018.699; -374.065; -268.883
714.846; 1589.475; -822.064; -888.884
715.111;  138.802;  261.936;  257.116
715.376;  -16.021;  -86.064; -223.885
715.641;  -29.494; -365.064; -367.885
715.906;  272.383;   15.936; -551.885
716.171;  118.910;  221.937;  209.114
716.436;   22.587;  -78.063; -104.886
716.700; -111.212; -818.063; -692.886
716.965; -122.260; -794.063; -807.887
717.230;  -80.108; -339.063; -392.887
717.494;  -28.256;  -40.062; -134.888
717.759;  -97.504; -784.062; -640.888
718.024;   17.948;  269.938;  250.112
718.288;   64.624;  685.938;  395.111
718.553; -131.899; -803.062; -977.889
718.817; -145.722; -883.061; -899.889
719.082;  -26.270; -115.061; -125.890
719.346; -139.493;-1000.061; -947.890
719.611;  -48.641; -300.061; -255.891
719.875; -116.814; -568.060; -537.891
720.140;  -61.888; -453.060; -603.891
720.404;   28.464; -136.060; -249.892
720.668;  750.591; -475.060; -411.892
720.933;  311.918;  146.940;  137.108
721.197;  -92.955; -667.059; -600.893
721.461; -139.053; -851.059; -826.893
721.725;   -8.301;  -21.059; -250.894
721.990;  -56.350; -284.059; -204.894
722.254;  -27.798;  -26.059; -108.894
722.518;  -69.821; -286.058; -442.895
722.782;  -85.144; -743.058; -594.895
723.046;  104.283;  614.942;  570.105
723.310;   33.435;  374.942;  210.104
723.574;  -99.363; -654.058; -614.896
723.838;  -91.062; -576.057; -642.897
724.102;  -40.135; -226.057; -239.897
724.366; -135.508;-1032.057; -978.897
724.630; -106.481; -749.057; -571.898
724.894;  -74.954; -722.057; -514.898
725.158;  -27.552;   38.944; -295.898
725.422;  -68.225; -394.056; -327.899
725.685;  -70.499; -441.056; -349.899
725.949;  -80.047; -566.056; -519.900
726.213;  -69.895; -732.056; -811.900
726.477;  147.807;-1020.055; -933.900
726.740;  152.409; -274.055; -104.901
727.004;  322.936; -384.055; -510.901
727.268; 3387.963; -442.055; -400.901
727.531; 1031.789; -961.055; -775.902
727.795;  -49.934; -713.054; -673.902
728.059;  -54.382; -552.054; -557.903
728.322;  -92.705; -841.054; -669.903
728.586;   29.922; -692.054; -701.903
728.849;  -72.951; -695.053; -756.904
729.112; -113.725; -812.053; -912.904
729.376; -125.448; -959.053; -905.904
729.639;  -65.971; -536.053; -536.905
729.903; -108.244; -733.053; -699.905
730.166;  -29.717; -437.052; -399.906
730.429;  -40.190; -317.052; -468.906
730.693;  -69.788; -355.052; -894.906
730.956;  164.838;  810.948;  651.093
731.219;  690.240; -310.052; -103.907
731.482;   87.792;-1003.051; -894.907
731.745;   96.744; -794.051; -935.908
732.009;    7.821;  -30.051;   50.092
732.272;  -95.202; -904.051; -771.909
732.535;  -51.500; -300.051; -310.909
732.798; -159.074;-1083.050;-1166.909
733.061;  -56.597; -430.050; -456.910
733.324;   13.430;   31.950; -180.910
733.587;   47.032;  290.950;  365.090
733.850;  -62.291; -973.049;-1050.911
734.113;   31.461;   33.951;   32.089
734.376;   10.813; -328.049; -447.912
734.639;  201.789; 1188.951; 1011.088
734.901;   72.841; -180.049; -402.912
735.164;  442.093; -883.048; -837.913
735.427; 1269.495; -166.048; -355.913
735.690;  105.047; -205.048; -234.913
735.952;  -31.951; -923.048; -925.914
736.215;  -38.299;-1113.048;-1009.914
736.478;   53.777; -771.047; -774.915
736.740;  199.429;   33.953;  129.085
737.003;  581.656; -658.047; -672.915
737.266; 3807.958;  -94.047;   46.084
737.528;  434.235; -682.047; -660.916
737.791;  326.212; -316.046; -327.916
738.053;  793.039;  465.954;  649.083
738.316;10510.090; -162.046; -136.917
738.578; 8240.642; -770.046; -736.918
738.841;  465.444; -382.046; -446.918
739.103;  187.321; -875.045; -777.918
739.365;  482.498;   79.955;  -69.919
739.628;   27.050; -884.045; -805.919
739.890;  -36.374; -758.045; -710.919
740.152;  -50.072; -692.044; -754.920
740.414;  -20.270; -408.044; -359.920
740.677;  -30.568; -785.044; -634.921
740.939;  -50.766; -587.044; -487.921
741.201;  258.161; -432.044; -572.921
741.463;   45.263; -689.043; -745.922
741.725;   11.064;  -21.043; -199.922
741.987;   51.316;  220.957;  116.078
742.249;    4.493; -751.043; -859.923
742.511;  190.245; -703.043; -794.923
742.773;   14.522; -546.042; -546.924
743.035;  124.499;  796.958;  533.076
743.297;  -39.624; -963.042;-1013.924
743.559;  702.827; -278.042; -262.925
743.821;   59.104; -735.042; -744.925
744.083;    9.481;  -44.041; -149.925
744.345;  -84.892; -869.041; -892.926
744.607;   36.785;   75.959;  122.074
744.868;  -51.638; -490.041; -554.927
745.130; -110.061; -994.041;-1008.927
745.392;   34.790;   -1.040;  -44.927
745.653;  -13.208; -411.040; -378.928
745.915;  144.719;  896.960;  631.072
746.177;   52.221;   35.960;  -43.928
746.438;   -5.002; -428.040; -543.929
746.700;  -34.750; -947.039; -988.929
746.961;    4.327; -659.039; -740.930
747.223;  137.578; -190.039;  -74.930
747.484;   59.330; -391.039; -471.930
747.746;  138.657;  -23.038; -106.931
748.007;  121.734; -647.038; -689.931
748.269;  271.936; -468.038; -440.931
748.530;  457.363; -852.038; -638.932
748.791;  251.615; -354.038; -420.932
749.053;  432.641;  286.963;  163.067
749.314;  419.018; -236.037; -169.933
749.575;  490.220; -945.037; -905.933
749.836;  835.772; -217.037;   86.066
750.098; 2206.949;  -60.037;  -21.934
750.359;34778.851;  414.964;  555.066
750.620; 9877.152; -121.036; -220.935
750.881; 1005.654; -585.036; -513.935
751.142; 1315.781; -950.036; -938.936
751.403;16031.008; -789.036; -705.936
751.664; 7948.310;-1034.035; -999.936
751.925;  502.662; -175.035; -262.937
752.186;  262.889; -298.035; -278.937
752.447;  128.015; -590.035; -445.937
752.708;   51.242; -532.035; -648.938
752.969;   14.069; -566.034; -576.938
753.230;   -1.979; -777.034; -672.939
753.491;    3.673; -650.034; -631.939
753.751;   67.700;  109.966;   19.061
754.012;   82.402;  258.967;  181.060
754.273;   65.053; -174.033;  -71.940
754.534;   -1.370; -487.033; -580.940
754.794;  -87.843; -926.033; -911.941
755.055;  131.409; 1051.967;  881.059
755.316;  -30.289; -700.032; -566.942
755.576;  -44.412; -606.032; -576.942
755.837;  -33.360; -527.032; -695.942
756.097;  -44.309; -530.032; -564.943
756.358;  -74.357; -725.032; -770.943
756.618;  -57.530; -705.031; -641.943
756.879;   -3.303; -254.031; -349.944
757.139; -123.376;-1098.031;-1116.944
757.400;  -63.124; -538.031; -553.945
757.660;  -39.197; -365.031; -401.945
757.920;   12.354; -266.030; -228.945
758.181;  -22.419; -468.030; -351.946
758.441;  -77.342; -870.030; -809.946
758.701;  -38.090; -308.030; -215.946
758.961;  -16.163; -220.030; -278.947
759.222;  -63.686; -574.029; -502.947
759.482;  -76.734; -683.029; -723.948
759.742;  -87.683; -706.029; -547.948
760.002;   20.719;  -83.029; -143.948
760.262;   20.621;   50.972;  182.051
760.522;  -45.252; -498.028; -574.949
760.782;  -64.050; -738.028; -612.949
761.042;  -26.823; -618.028; -573.950
761.302;   45.078;   55.972;  -18.950
761.562;   42.930; -164.027; -154.951
761.822;   69.482; -710.027; -551.951
762.082;  -23.391;-1104.027;-1093.951
762.342;   67.186; -328.027; -403.952
762.601;   85.313; -567.027; -506.952
762.861;  335.840; -281.026; -207.952
763.121;  395.866; -406.026; -411.953
763.381; 7072.568; -499.026; -485.953
763.640; 8877.945; -139.026; -307.954
763.900;  371.622; -242.026; -203.954
764.160;   98.874; -458.025; -491.954
764.419;   -2.624; -726.025; -782.955
764.679;  -53.672; -795.025; -726.955
764.939;  -16.321; -124.025; -210.955
765.198;  -74.269; -608.025; -563.956
765.458;  -60.842; -710.024; -612.956
765.717;  -72.965; -454.024; -590.957
765.976;  -62.913; -428.024; -411.957
766.236;  -67.086; -475.024; -610.957
766.495;   17.566;  260.977;   73.042
766.755;  -90.458;-1090.023; -987.958
767.014;   -9.881; -594.023; -665.958
767.273;  -38.829; -373.023; -397.959
767.533;  -53.602; -228.023; -307.959
767.792;  -29.575; -151.022; -188.960
768.051;  -61.198; -228.022; -276.960
768.310;  -82.671; -546.022; -650.960
768.569;   -7.670; -161.022;    4.039
768.828;  -33.668; -285.022; -363.961
769.088; -113.091;-1050.021; -942.961
769.347;  -73.889; -755.021; -599.962
769.606;  -95.287; -876.021; -857.962
769.865; -110.635;-1016.021;-1033.963
770.124;   -4.259; -411.021; -336.963
770.383;  -47.682; -778.020; -910.963
770.641;    7.770; -398.020; -400.964
770.900;  -60.728; -953.020; -846.964
771.159;  -61.601; -851.020; -951.964
771.418;    0.876; -917.020; -779.965
771.677;  127.728; -224.019; -293.965
771.936;  170.029; -794.019; -865.966
772.194; 2051.806; -465.019; -437.966
772.453;11873.433; -213.019; -391.966
772.712;  859.085;  416.982;  329.033
772.970;  139.237;   32.982;   63.033
773.229;   70.289;  -22.018;  102.033
773.488;  -62.209; -814.018; -770.968
773.746;   42.517;  296.982;  335.032
774.005;   11.019;  190.983;  -22.969
774.263;    5.696;  243.983;  177.031
774.522;  -43.277; -422.017; -548.969
774.780;  -85.525; -484.017; -417.970
775.039;  -84.723; -551.017; -531.970
775.297;  -45.121; -135.016; -351.970
775.555;  -98.295; -489.016; -612.971
775.814; -117.818; -618.016; -570.971
776.072; -107.041; -749.016; -740.971
776.330;  -97.439; -630.016; -520.972
776.589; -112.362; -703.015; -721.972
776.847; -127.110; -645.015; -624.973
777.105; -150.183;-1016.015;-1032.973
777.363;  -92.282; -459.015; -454.973
777.621; -131.605; -660.015; -717.974
777.879;  -24.753;  -42.014;   32.026
778.138;  -94.276; -554.014; -717.974
778.396; -101.174; -585.014; -526.975
778.654; -161.347;-1015.014; -970.975
778.912;  -87.420; -269.014; -371.976
779.170; -121.969; -880.013; -803.976
779.427; -151.192; -922.013; -897.976
779.685; -126.640; -880.013; -832.977
779.943;  -79.513; -654.013; -593.977
780.201; -143.461; -964.012; -883.978
780.459; -121.009; -651.012; -610.978
780.717;  -74.533; -440.012; -390.978
780.974; -109.956; -449.012; -490.979
781.232;  -76.829; -358.012; -338.979
781.490;  -89.352; -551.011; -472.979
781.747; -102.875; -555.011; -476.980
782.005;    2.602;  462.989;  254.020
782.263; -168.246; -542.011;-1004.981
782.520;  -81.520; -326.011; -501.981
782.778; -161.793;-1013.010;-1051.981
783.035; -176.866; -962.010; -938.982
783.293;  -53.789; -248.010; -206.982
783.550;  -58.412; -134.010; -198.982
783.808; -122.485; -764.010; -776.983
784.065; -149.558; -745.009; -874.983
784.322;  -45.982;   25.991;  -86.984
784.580; -144.830; -915.009; -771.984
784.837;  -94.578; -392.009; -466.984
785.094; -138.376; -783.009; -762.985
785.352;  -62.949; -304.008; -404.985
785.609; -116.672; -934.008; -839.985
785.866;  -82.845; -345.008; -401.986
786.123;  -93.044; -639.008; -583.986
786.380;  -92.642; -665.008; -604.987
786.637;  -46.965; -225.007; -380.987
786.895;  -22.788; -456.007; -543.987
787.152;  -58.986; -135.007; -267.988
787.409;  -47.034; -123.007; -225.988
787.666;  -92.382; -299.006; -378.988
787.923; -107.106; -616.006; -695.989
788.179; -107.504; -551.006; -584.989
788.436;  -97.702; -585.006; -585.990
788.693;  -43.575;  -92.006;  -87.990
788.950;  111.727; -125.005; -112.990
789.207;  205.979; -381.005; -372.991
789.464;  -49.769; -161.005; -301.991
789.720;  -30.968;  150.995;  110.009
789.977; -157.016;-1003.005; -671.992
790.234;  -33.089;   44.996;  -66.992
790.490; -141.562; -884.004;-1031.993
790.747;  -24.285;  -85.004;   22.007
791.004;  -19.758; -426.004; -348.993
791.260;  -93.282; -430.004; -560.994
791.517;  -93.355; -843.003; -788.994
791.773;  -62.578; -379.003; -342.994
792.030; -104.551; -596.003; -660.995
792.286; -100.399; -686.003; -636.995
792.543;  -13.772;  -74.002; -159.995
792.799;  -61.620; -584.002; -382.996
793.055; -157.494;-1179.002;-1210.996
793.312;  -91.667; -827.002; -816.997
793.568;  -69.690; -746.002; -599.997
793.824;   20.562; -226.001; -284.997
794.081;   21.414; -447.001; -508.998
794.337;   57.516; -664.001; -561.998
794.593; 1131.718; -319.001; -271.999
794.849; 6851.619; -746.001; -772.999
795.105;  412.196; -270.000; -261.999
795.361;   20.598; -490.000; -457.000
795.617;  -49.450; -875.000; -945.000
795.873;  -48.425; -360.000; -407.000
796.129;  -37.000; -368.000; -306.000
796.385;  -26.625; -124.000; -156.000
796.641;   66.275;  412.000;  550.000
796.897;  -80.275; -666.000; -635.000
797.153;   68.675;  453.000;  357.000
797.409; -105.925; -785.000; -868.000
797.665;  -67.975; -625.000; -732.000
797.921;  -74.500; -775.000; -762.000
798.176;  -55.150; -744.000; -747.000
798.432;  -68.275; -824.000; -596.000
798.688;  -59.300;-1174.000;-1078.000
798.943;   71.700; -165.000; -147.000
799.199;   19.425;-1005.000; -959.000
799.455;  243.200;  369.000;  316.000
799.710;  141.175; -813.000; -380.000
799.966;  297.650; -162.000; -160.000
800.221;  485.050; -638.000; -721.000
800.477; 9846.550; -743.000; -710.000
800.732;10359.525; -773.000; -800.000
800.988;  668.375;  205.000;  -19.000
801.243; 1720.175; -454.000; -344.000
801.498; 8869.075; -814.000; -739.000
801.754;  550.600; -289.000; -163.000
802.009;  109.625; -257.000; -335.000
802.264;  -20.350; -967.000;-1033.000
802.520;   18.275;  222.000;   -3.000
802.775;  -32.150; -524.000; -359.000
803.030;   54.350;  395.000;  356.000
803.285; -103.800; -840.000; -903.000
803.540;  -50.175; -686.000; -699.000
803.795;  -45.475; -648.000; -583.000
804.051;  -35.900; -279.000; -346.000
804.306;   31.250;  168.000;  128.000
804.561;  133.650;  451.000;  362.000
804.816;  131.700;  714.000;  861.000
805.071;  -16.450; -185.000; -280.000
805.325;  210.025; -257.000; -427.000
805.580;  -95.775; -841.000; -877.000
805.835;   -7.200; -204.000; -297.000
806.090;  -71.325; -760.000; -676.000
806.345;  -19.275; -344.000; -264.000
806.600;  -31.175; -549.000; -632.000
806.854;  -19.525; -408.000; -538.000
807.109;  -11.450; -493.000; -577.000
807.364;   28.175; -407.000; -328.000
807.618;   -4.600; -415.000; -381.000
807.873;   56.375; -470.000; -494.000
808.128;  109.425; -257.000; -518.000
808.382;  121.375; -224.000; -332.000
808.637;   77.100; -440.000; -511.000
808.891;  192.275; -257.000; -180.000
809.146;   97.525; -902.000; -794.000
809.400;  264.725; -848.000; -923.000
809.654;  315.750; -779.000; -551.000
809.909;  476.775; -841.000; -927.000
810.163; 5630.175; -813.000; -651.000
810.418;17414.300; -940.000; -861.000
810.672; 1129.700; -685.000; -690.000
810.926;  742.475; -993.000; -973.000
811.180; 1410.875; -439.000; -372.000
811.434;31673.000;  240.000;  135.000
811.689;15342.650; -231.000; -365.000
811.943;  718.600; -936.000; -953.000
812.197;  371.975; -893.000; -671.000
812.451;  138.150; -379.000; -514.000
812.705;  -15.825; -809.000; -619.000
812.959;   16.650; -263.000; -388.000
813.213;    9.775; -283.000; -209.000
813.467;   68.575;  470.000;  253.000
813.721; -100.850; -764.000; -792.000
813.975; -103.625; -826.000; -877.000
814.229;   25.175;  430.000;  353.000
814.482;  -56.750; -517.000; -566.000
814.736; -120.500; -766.000; -744.000
814.990; -117.225; -779.000; -872.000
815.244;  -51.975; -228.000; -285.000
815.497;  -87.150; -636.000; -601.000
815.751;  -30.050; -141.000;   82.000
816.005;  -78.950; -470.000; -586.000
816.258;  -55.625; -510.000; -363.000
816.512; -103.200; -693.000; -610.000
816.766;    1.375;  121.000;  157.000
817.019;   17.200;  148.000;  149.000
817.273; -133.225;-1000.000; -802.000
817.526;  -40.225; -206.000; -173.000
817.779;  -50.675;-1049.000; -960.000
818.033;  -62.400; -693.000; -807.000
818.286; -126.275; -725.000; -792.000
818.540;  -86.725; -403.000; -403.000
818.793;  -74.975; -402.000; -489.000
819.046; -100.100; -582.000; -520.000
819.299;  -37.750; -157.000; -166.000
819.553; -116.950; -552.000; -592.000
819.806; -163.050;-1016.000; -838.000
820.059;  -63.400; -334.000; -354.000
820.312;   -5.375;  152.000;  185.000
820.565;  -14.950;  110.000;  -27.000
820.818;  -60.975;  -59.000; -173.000
821.071; -156.850;-1041.000; -957.000
821.324; -139.075; -536.000; -540.000
821.577; -100.825; -457.000; -483.000
821.830;  -67.475; -270.000; -172.000
822.083; -125.150; -733.000; -288.000
822.336;  -51.475; -261.000; -167.000
822.589; -130.575; -805.000; -688.000
822.842; -149.575; -875.000; -770.000
823.094; -172.350;-1076.000;-1114.000
823.347; -131.625; -925.000; -729.000
823.600;    8.825;  402.000;  187.000
823.853;  -55.050; -311.000; -267.000
824.105;  -66.300; -331.000; -575.000
824.358; -117.975; -617.000; -716.000
824.611;   20.325;  234.000;   40.000
824.863;  -35.525; -612.000; -591.000
825.116;   55.875;  -33.000;   27.000
825.368;   53.750; -366.000; -372.000
825.621;  165.550; -186.000; -240.000
825.873;   73.875; -704.000; -737.000
826.126;  521.500; -669.000; -641.000
826.378;11193.325; -389.000; -505.000
826.630; 3393.075; -890.000; -898.000
826.883;   52.525; -754.000; -693.000
827.135;   49.000; -279.000; -270.000
827.387; -112.625; -893.000; -839.000
827.639;  -37.025;  -86.000;   32.000
827.892; -129.750; -742.000; -582.000
828.144; -121.950; -848.000; -804.000
828.396;  -46.125;  104.000;  -80.000
828.648; -102.175; -440.000; -333.000
828.900; -152.750; -702.000; -795.000
829.152; -123.300; -684.000; -683.000
829.404;  -79.200; -215.000; -267.000
829.656;   -3.825;  321.000;  214.000
829.908;  -29.300;  393.000;  229.000
830.160; -159.075;-1064.000;-1047.000
830.412;  -99.875; -481.000; -430.000
830.664; -119.250; -557.000; -665.000
830.916;  -81.825; -268.000; -206.000
831.167; -165.875;-1073.000; -951.000
831.419; -112.000; -623.000; -566.000
831.671; -138.750; -764.000; -809.000
831.923;  -91.375; -311.000; -447.000
832.174;  -69.850; -273.000; -331.000
832.426; -126.925; -493.000; -582.000
832.678; -182.275;-1043.000;-1091.000
832.929; -163.550; -947.000; -935.000
833.181;  -64.900; -575.000; -677.000
833.432;  -54.350;  -59.000; -186.000
833.684;  -37.075;  112.000;  -27.000
833.935; -118.250; -610.000; -566.000
834.187; -131.225; -829.000; -823.000
834.438;  -55.600;  -58.000;  -25.000
834.689;  -60.375; -255.000; -123.000
834.941;  -72.625; -343.000; -244.000
835.192;  -95.125; -590.000; -533.000
835.443; -108.950; -419.000; -506.000
835.695;   -7.475;  138.000;  -16.000
835.946;  -99.850; -608.000; -378.000
836.197;  -99.600; -599.000; -622.000
836.448;  -89.950; -528.000; -395.000
836.699;  -50.900; -253.000; -341.000
836.950;  -13.550;   72.000;    7.000
837.201; -144.225;-1003.000; -987.000
837.452;  -62.150; -356.000; -170.000
837.703; -111.500; -791.000; -737.000
837.954;  -44.225; -205.000; -365.000
838.205;  -78.300;-1029.000;-1008.000
838.456;  147.750; -196.000; -282.000
838.707;    6.675; -423.000; -519.000
838.958;   -6.575; -634.000; -647.000
839.209;  286.475;   18.000;   40.000
839.460;  105.950; -439.000; -201.000
839.710;  163.875; -135.000; -297.000
839.961;  415.425;  730.000;  612.000
840.212;  352.875; -382.000; -497.000
840.462; 1027.500; -328.000; -277.000
840.713;16966.525; -571.000; -536.000
840.964; 8349.825;  -62.000; -143.000
841.214;  531.450; -384.000; -624.000
841.465;  554.825; -214.000; -141.000
841.715;  490.100; -417.000; -380.000
841.966;  616.225; -746.000; -685.000
842.216; 7465.800; -330.000; -431.000
842.466;33909.250; -169.000; -313.000
842.717; 2356.425; -964.000; -952.000
842.967;  280.550; -635.000; -641.000
843.217;  260.800;   20.000;   28.000
843.468;   57.500; -104.000; -132.000
843.718;  -37.350; -718.000; -726.000
843.968;  -96.000; -837.000; -765.000
844.218;   11.250; -315.000; -262.000
844.469;  -56.775; -577.000; -561.000
844.719;  -87.175; -537.000; -682.000
844.969;  -94.475; -550.000; -580.000
845.219; -144.100; -814.000; -862.000
845.469;  -95.950; -392.000; -342.000
845.719; -130.175; -792.000; -884.000
845.969;  -19.975;  119.000;  174.000
846.219; -106.050; -738.000; -720.000
846.469;    2.600;  464.000;  432.000
846.718;  -48.800; -115.000;   31.000
846.968; -149.350; -827.000; -827.000
847.218;  -41.575; -224.000; -371.000
847.468;  -12.025; -586.000; -555.000
847.718; -140.225; -827.000; -798.000
847.967; -153.400; -826.000; -915.000
848.217;  -75.550; -449.000; -569.000
848.467;  -79.700; -405.000; -376.000
848.716; -102.750; -708.000; -725.000
848.966;   -9.275; -372.000; -358.000
849.215;  -51.100; -428.000; -419.000
849.465; -104.000; -785.000; -615.000
849.714; -135.750;-1132.000;-1150.000
849.964;  -71.925; -551.000; -613.000
850.213;   -9.425; -393.000; -355.000
850.463;   71.375;  137.000;  340.000
850.712;  -12.875; -542.000; -567.000
850.961;    7.275; -739.000; -678.000
851.211;  104.700; -513.000; -504.000
851.460;  163.775; -635.000; -650.000
851.709;  553.450;  -25.000;   18.000
851.958; 9456.225; -912.000; -750.000
852.208;14173.575; -859.000; -879.000
852.457;  547.400; -181.000;  -13.000
852.706;   84.675; -791.000; -823.000
852.955;   39.325; -507.000; -528.000
853.204;  -65.775; -521.000; -461.000
853.453;  -81.175; -418.000; -458.000
853.702; -129.225; -660.000; -750.000
853.951; -114.575; -532.000; -520.000
854.200; -110.550; -613.000; -562.000
854.449; -144.675; -695.000; -661.000
854.698;  -95.800; -340.000; -279.000
854.946;  -68.550; -181.000; -284.000
855.195; -150.025; -843.000; -868.000
855.444;  -97.675; -395.000; -420.000
855.693; -113.125; -345.000; -432.000
855.941; -105.075; -387.000; -516.000
856.190;  -50.050; -256.000; -382.000
856.439; -137.100; -652.000; -703.000
856.687;  -48.575;  -99.000;  -72.000
856.936; -129.000; -621.000; -323.000
857.184; -187.125;-1067.000;-1020.000
857.433; -104.675; -423.000; -512.000
857.681; -152.800; -989.000; -953.000
857.930;  -83.850; -282.000; -433.000
858.178; -154.850; -856.000; -929.000
858.427; -146.700; -802.000; -781.000
858.675; -134.075; -377.000; -544.000
858.923; -118.400; -527.000; -819.000
859.172; -168.900;-1094.000;-1070.000
859.420;  -94.750; -339.000; -239.000
859.668; -133.125; -624.000; -628.000
859.916;  -30.300;  109.000;  115.000
860.164; -113.425; -699.000; -603.000
860.413;  232.000; -878.000; -696.000
860.661;  242.050; -709.000; -577.000
860.909;  -83.875; -339.000; -325.000
861.157;  -83.675; -277.000; -444.000
861.405; -139.800; -534.000; -670.000
861.653;   14.525;  310.000;  310.000
861.901;  110.825; -543.000; -613.000
862.149;   -1.100; -801.000; -824.000
862.396;  -85.550; -297.000; -187.000
862.644;  -95.675; -368.000; -347.000
862.892;  -53.300;   98.000;  138.000
863.140; -110.800; -549.000; -530.000
863.388; -158.375; -815.000; -759.000
863.635; -137.475; -642.000; -601.000
863.883;  -18.550;  231.000;  190.000
864.131;  -90.475; -288.000; -357.000
864.378; -146.400; -675.000; -540.000
864.626;  -90.550; -347.000; -415.000
864.873; -130.625; -556.000; -505.000
865.121; -137.975; -714.000; -799.000
865.368;  -56.900; -173.000;   75.000
865.616;  -43.025;  -33.000;  -40.000
865.863;  -84.775; -462.000; -506.000
866.111; -106.650; -795.000; -824.000
866.358;   31.500; -426.000; -420.000
866.605; 2274.075;  -64.000; -804.000
866.853; 2826.550; -621.000; -537.000
867.100;  -11.500; -728.000; -775.000
867.347; -109.750; -672.000; -611.000
867.594;  -94.900; -740.000; -714.000
867.841;   75.825;   97.000;   17.000
868.089; -138.250; -746.000; -698.000
868.336; -114.200; -477.000; -420.000
868.583; -133.450; -637.000; -741.000
868.830;  -62.800; -131.000; -170.000
869.077; -158.525; -859.000; -787.000
869.324; -133.450; -502.000; -458.000
869.571; -124.050; -398.000; -430.000
869.818; -135.425; -485.000; -439.000
870.065;  -96.700; -439.000; -513.000
870.311; -104.050; -456.000; -542.000
870.558;  -93.225; -332.000; -311.000
870.805;  -92.950; -320.000; -384.000
871.052; -103.800; -494.000; -369.000
871.298;  -73.600; -204.000; -131.000
871.545;  -69.150; -151.000; -185.000
871.792;  -82.425; -173.000; -222.000
872.038;  -62.200;   43.000; -126.000
872.285; -142.800; -496.000; -387.000
872.532;  -89.300; -357.000; -387.000
872.778;   -8.375;  556.000;  403.000
873.025; -102.850; -384.000; -359.000
873.271;   12.225;  501.000;  578.000
873.517;  -36.550; -133.000; -209.000
873.764;  -30.850; -193.000;  -80.000
874.010;  -88.075; -143.000; -230.000
874.257;  -49.950;  123.000;   90.000
874.503; -128.775; -579.000; -479.000
874.749;  -78.500;   31.000;  275.000
874.995;  -55.550;  -80.000;  -20.000
875.242; -130.100; -540.000; -478.000
875.488; -104.350; -414.000; -439.000
875.734;  -78.350; -106.000; -234.000
875.980;  139.650; -872.000;-1032.000
876.226;  358.300; -157.000; -255.000
876.472;    1.300;  343.000;  237.000
876.718;  -55.275;  184.000;  158.000
876.964;  -27.800;   56.000;   55.000
877.210; -158.325; -547.000; -677.000
877.456; -134.500; -630.000; -557.000
877.702; -169.250; -821.000; -832.000
877.948; -107.875; -377.000; -497.000
878.193;    3.025;  361.000;  255.000
878.439; -101.400; -487.000; -472.000
878.685; -101.675; -272.000; -343.000
878.931; -134.125; -618.000; -676.000
879.176;  -74.700; -201.000; -201.000
879.422; -176.950; -933.000; -820.000
879.668;   34.600;   10.000;   79.000
879.913;  138.075;   53.000;  137.000
880.159;  -61.725; -112.000;  -17.000
880.404;  -64.200; -152.000; -162.000
880.650;  -41.175;   91.000;  141.000
880.895; -151.500; -670.000; -710.000
881.141; -136.550; -454.000; -428.000
881.386; -135.950; -503.000; -658.000
881.631; -116.950; -311.000; -166.000
881.877;  -28.950;  112.000;  -13.000
882.122; -149.475; -684.000; -600.000
882.367;  -79.500; -136.000; -186.000
882.612;  -85.475;  -80.000; -176.000
882.858; -155.875; -877.000; -823.000
883.103; -115.850; -297.000; -267.000
883.348; -141.300; -759.000; -852.000
883.593; -145.975; -677.000; -602.000
883.838;  -63.150; -311.000;  -24.000
884.083;   -1.800;  353.000;  288.000
884.328;  -87.950; -564.000; -545.000
884.573;  -79.250; -196.000; -143.000
884.818;  152.775; -694.000; -531.000
885.063;  177.975; -348.000; -315.000
885.308;  -90.075; -475.000; -398.000
885.553;  -23.325;  245.000;  325.000
885.797; -135.550; -545.000; -615.000
886.042;  -61.750;    8.000;   58.000
886.287;  -82.225; -253.000; -211.000
886.532;  -59.500;   26.000;  204.000
886.776; -103.875; -407.000; -525.000
887.021; -156.000; -621.000; -574.000
887.265; -142.200; -685.000; -689.000
887.510; -133.875; -557.000; -496.000
887.755;  -92.500; -194.000; -164.000
887.999; -166.125; -552.000; -575.000
888.244;  -48.450;  -58.000;  161.000
888.488;  -12.000;  371.000;  393.000
888.732; -117.325; -368.000; -520.000
888.977; -128.300; -622.000; -567.000
889.221; -158.600; -683.000; -659.000
889.465; -130.550; -422.000; -566.000
889.710;  -82.625;  -56.000; -299.000
889.954;   -7.550;  579.000;  467.000
890.198; -135.175; -584.000; -707.000
890.442; -166.375; -716.000; -712.000
890.687; -168.325; -800.000; -753.000
890.931;  -97.750; -273.000; -210.000
891.175; -130.825; -502.000; -500.000
891.419;  -94.725; -105.000; -110.000
891.663;  -86.100; -239.000; -112.000
891.907; -167.950; -801.000; -545.000
892.151; -178.125; -920.000; -815.000
892.395; -114.575; -274.000; -387.000
892.638;  -32.850;  408.000;  291.000
892.882; -196.400; -780.000; -867.000
893.126;   13.000;  758.000;  558.000
893.370;  -84.575; -167.000; -168.000
893.614; -147.175; -714.000; -715.000
893.857; -106.250; -183.000; -197.000
894.101; -123.550; -527.000; -631.000
894.345;  -59.700;  300.000;  150.000
894.588;    3.750;  569.000;  380.000
894.832;  -78.075; -178.000;  -84.000
895.075;  -76.925;   15.000;  -92.000
895.319; -137.350; -552.000; -420.000
895.563; -115.775; -413.000; -353.000
895.806; -148.150; -628.000; -741.000
896.049;  -71.375; -576.000; -368.000
896.293;   67.825;  527.000;  405.000
896.536;  -82.550; -465.000; -468.000
896.779;  -65.550; -149.000;   -1.000
897.023; -134.400; -751.000; -714.000
897.266;  -44.975;  325.000;  269.000
897.509; -170.600; -900.000; -901.000
897.752;  -49.075;  149.000;  171.000
897.996; -188.700; -972.000; -864.000
898.239;  -59.125;  168.000;  102.000
898.482; -120.875; -431.000; -453.000
898.725;  -45.825;  101.000;   53.000
898.968; -143.625; -609.000; -744.000
899.211; -119.450; -513.000; -361.000
899.454; -112.325; -633.000; -539.000
899.697;  -78.525;   90.000;  -43.000
899.940; -156.600; -761.000; -757.000
900.182; -105.475; -335.000; -405.000
900.425;  -97.625; -150.000; -298.000
900.668;  -30.100;  491.000;  350.000
900.911; -111.550; -292.000; -345.000
901.154;  -54.725;  141.000;   -3.000
901.396; -134.575; -407.000; -412.000
901.639; -135.950; -430.000; -496.000
901.882; -172.900; -790.000; -809.000
902.124;  -88.125;  -29.000; -143.000
902.367; -110.075; -315.000; -361.000
902.609; -136.375; -476.000; -453.000
902.852;  -87.300; -108.000; -260.000
903.094; -135.575; -458.000; -337.000
903.337;  -53.025;  -26.000;   53.000
903.579; -105.025; -228.000; -441.000
903.821; -145.850; -597.000; -744.000
904.064;  -80.375;   85.000;  127.000
904.306;  -86.950; -126.000; -166.000
904.548; -107.825; -152.000; -366.000
904.790; -101.700; -195.000; -340.000
905.033; -129.850; -625.000; -577.000
905.275; -116.350; -513.000; -524.000
905.517;   26.300;  468.000;  256.000
905.759;  -76.750; -667.000; -761.000
906.001;  -98.850; -322.000; -369.000
906.243;  -46.125; -162.000; -224.000
906.485;   84.000; -265.000; -207.000
906.727;  122.325; -499.000; -542.000
906.969;  -39.950;  -30.000; -135.000
907.211;   95.775; -316.000; -382.000
907.453;  247.950; -188.000; -237.000
907.695;    3.725; -158.000; -385.000
907.936;   37.225;  818.000;  706.000
908.178;  -80.625;   92.000; -135.000
908.420;  -66.300; -111.000; -162.000
908.662; -133.850; -633.000; -682.000
908.903;  -93.125; -208.000; -123.000
909.145;  -62.925; -240.000; -305.000
909.386;    2.150;  315.000;  280.000
909.628;   49.875;  363.000;  397.000
909.870;   -1.575;   29.000;  264.000
910.111;  -84.225; -809.000; -949.000
910.353;    3.550; -123.000; -161.000
910.594;    7.375; -574.000; -606.000
910.835;   86.500; -265.000; -326.000
911.077;  157.600; -503.000; -604.000
911.318;  288.750; -505.000; -471.000
911.559;  467.575; -577.000; -880.000
911.801; 1311.650; -284.000; -280.000
912.042; 9670.175;  -50.000; -159.000
912.283;28288.475;  404.000;  371.000
912.524; 5176.825; -396.000; -457.000
912.765;  557.525; -193.000;   79.000
913.006;  251.525; -307.000; -338.000
913.247;   49.750; -270.000; -290.000
913.488;   11.125;  -43.000;   30.000
913.729;  -91.875; -373.000; -373.000
913.970;  -60.725;  -96.000; -292.000
914.211;  -69.600; -160.000; -198.000
914.452;  -57.975; -118.000;  -11.000
914.693;    0.550;  510.000;  592.000
914.934;    9.000;  510.000;  440.000
915.175;  -65.900;   53.000;  -95.000
915.415;  -59.425; -137.000;   27.000
915.656;  -75.375;  -28.000;  192.000
915.897;  -84.300; -252.000;  -82.000
916.137;  -75.675;   74.000;   -9.000
916.378; -118.050; -573.000; -517.000
916.619; -101.025; -159.000;  -63.000
916.859;  -39.575;  303.000;  330.000
917.100;  117.550; 1655.000; 1070.000
917.340;   51.375;  930.000;  728.000
917.581;   30.850;  965.000;  789.000
917.821;  -30.425; -171.000;  143.000
918.061;   13.750; -199.000;  -72.000
918.302;  -34.400; -152.000; -211.000
918.542;  -43.225;  -22.000;    3.000
918.782;   41.100;  369.000;  377.000
919.023;  113.200;  360.000;  427.000
919.263; 1642.675; 8131.000;  202.000
919.503; 1138.875; -137.000;  -54.000
919.743;  583.700;  390.000;  266.000
919.983;  277.125; -134.000;  -26.000
920.223;   92.900;  135.000;   14.000
920.463;  140.475;  631.000;  554.000
920.703;  125.875;   84.000;   39.000
920.943;  168.275; -110.000;   90.000
921.183;  258.250; -414.000; -405.000
921.423;  527.300;  307.000;  546.000
921.663;  736.025; -174.000; -257.000
921.903; 1552.975;  237.000;  173.000
922.143; 8374.300;  372.000;  389.000
922.383;34432.800;  158.000;  115.000
922.622;13879.050; -120.000;  -15.000
922.862; 1434.825;  796.000;  785.000
923.102;  525.025;  -51.000;   33.000
923.341;  228.975;   59.000;   74.000
923.581;  106.350;  450.000;  360.000
923.821;   32.900;  301.000;  398.000
924.060;    5.700;  351.000;  193.000
924.300;  -56.150;  -16.000; -128.000
924.539;    7.850;  584.000;  473.000
924.779;   11.825;  812.000;  597.000
925.018;  -41.500;  247.000;  353.000
925.257;   -1.500;  595.000;  666.000
925.497;  -28.975;  447.000;  412.000
925.736;  -81.775;  -35.000;  102.000
925.975;    7.350;  687.000;  669.000
926.214;   25.725;  907.000;  850.000
926.454;   24.975;  706.000;  757.000
926.693;  -40.225;  419.000;  543.000
926.932;   36.750; 1021.000;  825.000
927.171;   59.025; 1107.000; 1044.000
927.410;   55.700; 1144.000;  967.000
927.649;   15.625;  924.000;  742.000
927.888;  -18.425;  590.000;  564.000
928.127;  -19.325;  680.000;  678.000
928.366;   22.925;  842.000;  826.000
928.605;   37.275;  831.000;  737.000
928.844;  232.725; 1451.000; 1393.000
929.083;  572.025;  770.000;  613.000
929.321;  365.875; 1335.000; 1359.000
929.560;   77.000; 1158.000; 1122.000
929.799;  -32.350;  574.000;  475.000
930.038;   82.475; 1025.000; 1394.000
930.276;  -59.450;  334.000;  397.000
930.515;  -15.400;  827.000;  681.000
930.753;  -16.550;  614.000;  589.000
930.992;  -32.475;  664.000;  717.000
931.230;   13.000;  847.000;  847.000
931.469;  174.950; 2162.000;  892.000
931.707;   66.900;  840.000;  751.000
931.946;   59.425; 1278.000; 1344.000
932.184;   54.575; 1437.000; 1175.000
932.423;   43.200; 1265.000;  963.000
932.661;   98.775; 1296.000; 1428.000
932.899;   26.725;  987.000;  821.000
933.137;   20.950;  754.000;  564.000
933.376;  133.325; 1664.000; 1335.000
933.614;  161.150; 1759.000; 1196.000
933.852;   48.550; 1357.000; 1171.000
934.090;  123.700; 1722.000; 1747.000
934.328;  108.350; 1252.000; 1457.000
934.566;  112.400; 1431.000; 1110.000
934.804;  136.175; 1263.000; 1309.000
935.042;  485.025; 1861.000; 1850.000
935.280; 1890.550; 2088.000; 2063.000
935.518; 2030.300; 2113.000; 2007.000
935.756;  428.350; 2481.000; 2316.000
935.994;  181.375; 1808.000; 1751.000
936.231;  337.275; 2890.000; 2950.000
936.469;  195.150; 2367.000; 2378.000
936.707;  153.850; 2220.000; 2167.000
936.945;  225.075; 2825.000; 2882.000
937.182;  199.425; 2679.000; 2741.000
937.420;  286.725; 3602.000; 3031.000
937.657;  394.050; 3365.000; 3478.000
937.895;  353.550; 3331.000; 3488.000
938.133;  297.700; 3540.000; 3528.000
938.370;  349.900; 3896.000; 4191.000
938.607;  373.950; 4488.000; 4205.000
938.845;  562.025; 5587.000; 5549.000
939.082;  472.400; 5387.000; 5177.000
939.320;  558.675; 5799.000; 5728.000
939.557;  633.400; 6549.000; 6491.000
939.794;  720.350; 7285.000; 7097.000
940.031;  871.375; 8421.000; 8368.000
940.269; 1112.425; 9552.000; 9107.000
940.506; 1109.800;10901.000;10507.000

