
Integration time [ms]: 100.000
Averaging Nr. [scans]: 40
Smoothing Nr. [pixels]: 0
Data measured with spectrometer [name]: 2101013U2
Wave   ;Sample   ;Dark     ;Reference
[nm]   ;[counts] ;[counts] ;[counts] 

394.013;   31.768; -450.257; -315.536
394.305;  179.716; -461.258; -419.536
394.596; 1098.688; -676.269; -527.514
394.887; 2777.380; -796.268; -654.518
395.178; 1079.485;  145.736;   11.476
395.470;   62.297; -210.263; -356.526
395.761;  168.970;  305.734;  394.479
396.052;  222.063; -545.284; -306.489
396.343;  209.558; -557.276; -454.503
396.634;   88.052; -200.279; -290.497
396.926;   84.752; -618.268; -565.517
397.217;  102.187;   11.725;  -17.504
397.508;   44.878; -366.273; -154.507
397.799;   40.952; -555.279; -571.497
398.090;   -1.354; -973.280; -902.495
398.381;   94.313;   11.708;  -11.473
398.672;  -12.761; -585.292; -742.473
398.963;   43.983; -348.279; -373.498
399.254;   79.948;   54.709; -209.475
399.545;  -41.109;-1017.266; -883.520
399.836;   56.422; -407.277; -343.501
400.127;   53.764; -205.295; -209.468
400.418;   52.473; -423.274; -392.506
400.709;   41.183; -359.281; -333.493
401.000;   30.427; -268.291; -309.476
401.290;   97.826;  225.698;  115.545
401.581;   60.246; -166.286; -228.485
401.872;   12.011; -542.298; -486.462
402.163;   51.507; -313.296; -252.467
402.454;   88.774; -123.291; -163.475
402.744;   49.748; -844.297; -813.465
403.035;  407.054; -226.293;  -86.471
403.326;  528.917; -366.292; -384.474
403.617;  374.230;  204.701;  165.539
403.907;  251.469; -593.283; -679.490
404.198; 2479.230; -545.307; -599.446
404.489; 6342.199; -618.283; -588.491
404.779; 2083.779; -618.302; -660.456
405.070;  228.758;  -67.304; -174.451
405.360;  326.481; -259.293; -238.472
405.651;  367.565;  125.699;   98.542
405.942;  196.241;  209.714;  127.516
406.232;  220.005; -432.285; -413.487
406.523;  435.299;  641.706;  758.530
406.813;   67.718; -579.286; -644.484
407.104;  310.012;  261.708;  144.527
407.394;  150.382; -604.299; -591.462
407.685;  140.380;  336.715;  222.513
407.975;   70.797; -400.283; -382.490
408.265;  107.588; -134.289; -190.478
408.556;   44.246; -472.291; -459.475
408.846;  168.175;  474.706;  429.530
409.137;   90.822;   -1.288; -216.480
409.427;   58.405; -193.285; -271.487
409.717;   33.331; -776.273; -692.508
410.007;  129.474;    4.715; -170.486
410.298;   71.867; -360.295; -342.469
410.588;   50.078; -495.285; -510.486
410.878;   19.433; -792.287; -873.482
411.168;  109.239; -481.298; -478.463
411.459;  101.242; -295.283; -242.489
411.749;   53.844; -609.292; -507.474
412.039;   46.870; -755.289; -386.480
412.329;  198.365;   40.722;  132.501
412.619;  190.718;  -62.286; -148.485
412.909;  362.766;  639.711;  594.521
413.199;  312.446; -130.280; -251.495
413.490;  376.456;  521.710;  352.523
413.780;  134.100;-1013.279; -913.496
414.070;  323.259;  -46.276;  235.497
414.360;  348.986; -729.278; -666.498
414.650;  417.929; -726.288; -688.482
414.940;  530.499; -538.280; -441.496
415.230;  921.326;   50.712;   74.519
415.520; 6153.937;  155.730;   66.486
415.809;24221.658; -305.281; -125.493
416.099;19056.924; -388.277; -229.501
416.389; 5329.495;  435.726;  236.494
416.679; 3153.025;   91.738;   85.473
416.969;  536.112; -527.287; -503.483
417.259;  599.052;  341.721;  171.503
417.549;  720.606;  522.718;  318.508
417.838; 1677.229; -205.268; -147.518
418.128; 5626.237;  650.710;  492.522
418.418; 4709.538; -491.272; -579.509
418.708; 3199.546;    9.726;  -48.506
418.997;11980.541; -474.275; -480.505
419.287;12499.977; -733.273; -790.507
419.577;11907.341; -160.283; -123.489
419.866;39232.322; -588.277; -498.501
420.156;40024.908; -242.270;  -55.513
420.446; 7275.443; -112.263;  -26.526
420.735;  830.327; -376.271; -446.512
421.025;  850.785; 1830.722;  315.502
421.314;  621.725; -203.271; -226.512
421.604; 1243.297;   89.732;  233.484
421.893;  730.447; -705.271; -602.511
422.183;  223.543; -487.263; -461.526
422.472;  382.848;  -36.271; -107.511
422.762;  437.697; -416.266; -379.521
423.051;  230.359; -916.276; -916.503
423.341;  301.304; -491.273; -439.507
423.630;  385.603; -121.265;   15.477
423.919;  379.166;   58.725;   49.495
424.209;  385.473;  -31.263;   56.473
424.498;  503.952;   68.732;  161.483
424.787; 1100.133; -535.267; -601.518
425.077; 3352.077;   34.735;   29.478
425.366; 4642.804; -734.262; -744.528
425.655;10178.880;  639.727;  259.493
425.945;22596.533; -313.247; -268.554
426.234;12692.652;  117.741;  300.467
426.523; 5132.807;  -86.259; -350.534
426.812; 7075.468;  107.734;  159.480
427.101;10406.768; -127.269; -323.515
427.390;13148.712;  -55.270;  -86.514
427.680; 2900.027; -624.257; -411.538
427.969;  454.387; -330.255; -301.540
428.258;  292.318; -385.257; -477.536
428.547;  529.992;  449.728;  397.490
428.836; 1159.229; -421.253; -398.543
429.125; 1669.609; -199.259;  -72.534
429.414;  772.701; -330.251; -294.548
429.703; 3196.601; -231.251; -213.548
429.992; 9498.180; -938.250; -828.549
430.281; 6311.861; -397.264; -331.524
430.570;  583.742;  -21.252;   32.454
430.859;  518.681;  279.741;  352.466
431.148;  420.404;  636.752;  631.446
431.437;  265.891;  391.748;  367.454
431.725;  140.770; -544.257; -481.536
432.014;  124.561; -845.253; -756.545
432.303;  365.280; -149.239; -105.569
432.592;  557.742; -460.263; -178.525
432.881; 1043.255; -601.248; -437.554
433.169; 6380.388; -343.255;  -61.540
433.458;13009.363;  445.765;  540.424
433.747; 5424.135; -397.261; -289.529
434.036;  843.130; -275.242; -280.564
434.324; 2083.842; -395.249; -379.551
434.613; 3732.499;   40.757;  159.437
434.902; 1221.020;  333.760;  439.433
435.190;  486.403;   75.761;  295.431
435.479;  281.431;  -52.245;   83.441
435.767;   91.464; -411.244; -427.561
436.056;  196.551; -340.242; -294.563
436.345;  348.822; -372.240; -223.568
436.633;  379.213;   60.750;  383.450
436.922;  239.424;  208.760;  414.432
437.210;  503.578; -194.236;    1.426
437.499; 1594.461; -583.235; -432.576
437.787; 1796.553; -339.236;  -10.574
438.075;  444.959;   56.761;  162.430
438.364;  631.437;  -44.238;  250.429
438.652;  372.416; -286.226; -138.592
438.941;  131.480;    3.770;  269.415
439.229;    0.514; -665.252; -466.545
439.517;   22.420; -160.234;  -85.577
439.806;   -9.768; -501.225; -290.595
440.094;  155.678;  377.766;  650.421
440.382;  135.606; -653.233; -302.580
440.670;  159.561; -361.235; -285.576
440.959;   21.474; -347.223; -170.599
441.247;   63.542; -151.229; -109.587
441.535;   84.493; -266.235;   31.423
441.823;   18.775; -497.234; -305.578
442.111;  164.596;  173.771;  327.412
442.400;  455.455; -628.245; -335.559
442.688; 1204.827; -111.234; -620.579
442.976;  851.362; -786.213; -450.617
443.264;   72.964; -324.224; -364.597
443.552;   69.817; -258.226;   51.408
443.840;  163.042;  602.765;  876.423
444.128;  103.530;  265.767;  269.420
444.416;  -11.826; -694.228; -312.588
444.704;   14.854; -465.219;  -92.605
444.992;   63.670;   -0.226;  240.407
445.280;   41.706; -517.230;  -94.585
445.568;   27.066; -694.212; -396.618
445.856;  320.663; -174.221;  357.398
446.143;  652.250;  -54.220;   -7.604
446.431;  550.727;  -25.228;  625.411
446.719;  229.648;  489.783;  675.391
447.007;  174.625;  481.769;  705.416
447.295;  177.071;  597.777;  871.402
447.583;   78.164; -464.229;  -34.587
447.870;  130.660; -434.221; -202.601
448.158;  369.955; -104.230;  129.415
448.446;  300.251; -800.219; -338.604
448.733;  176.065;   13.776;  269.403
449.021;  217.765;   60.788;  341.382
449.309;  168.905; -296.210;  208.379
449.596;  202.994;  128.783;   59.392
449.884;  154.103; -571.222; -325.600
450.172;  148.358; -756.227; -406.590
450.459;  460.745;  645.786;  780.387
450.747; 2482.993; -411.218; -147.608
451.034; 7909.303;  493.772;  889.411
451.322; 6601.123; -413.214; -170.614
451.609;  566.017;  292.777;  508.403
451.897;  604.093; -550.203; -183.634
452.184; 1817.072; -622.223; -400.598
452.472; 1754.152;   97.792;  269.375
452.759;  350.402;  512.781;  864.395
453.047;   95.063; -407.212; -125.617
453.334;   50.735; -732.219; -216.606
453.621;   58.551; -438.214; -161.615
453.909;  109.010;   13.796;  384.368
454.196;   87.780; -299.199; -123.641
454.483;  193.056;  317.798;  540.364
454.771;  115.805; -215.208;  196.374
455.058;   30.183; -316.207;  102.374
455.345;  105.136;   71.807;  344.347
455.632;   75.236; -128.207;  235.373
455.919;   34.328;  -82.196;  182.354
456.207;  -67.740; -774.198; -450.642
456.494;  -16.782; -475.200;  -66.639
456.781;    8.627; -399.202; -198.635
457.068;   56.518; -253.206;  -29.628
457.355;  -25.781; -698.206; -401.629
457.642;  -23.201; -552.205; -290.630
457.929;   -7.898; -778.194; -417.651
458.216;   56.038; -575.212; -354.617
458.503;  253.206; -173.193;  -19.652
458.790;  246.852; -864.208; -630.625
459.077;  273.207;  -77.202;  110.364
459.364;  802.270; -350.195; -210.649
459.651; 1728.941;  -46.206;  220.372
459.938;  809.143; -864.209; -665.623
460.225;  141.485;  132.799;  276.363
460.512;  -45.225; -836.197; -688.645
460.799;  100.867;  -32.218;  320.392
461.086;   55.098; -370.200; -251.640
461.372;   17.460; -509.198; -279.642
461.659;   84.554; -165.196;  108.354
461.946;   39.805; -445.193;  -54.651
462.233;  239.870;  842.800;  888.361
462.519;  347.892; -814.201; -464.639
462.806; 1033.876; -768.197; -497.645
463.093;  896.851; -445.191;  -66.656
463.380;  -27.033; -920.186; -824.664
463.666;   36.802; -259.197;  -18.646
463.953;   86.865; -406.195; -243.648
464.239;  195.589; -173.195;  -77.648
464.526;  395.400;  413.806;  743.350
464.813;  314.262; -565.190; -304.658
465.099;  330.056;  606.807;  607.348
465.386;  331.210;  903.807;  921.348
465.672;    7.326; -694.197; -522.645
465.959;   12.755; -598.188; -520.662
466.245;    1.585; -468.193; -359.652
466.532;   84.437; -109.195;   63.352
466.818;   65.442; -357.186; -216.664
467.104;  -12.218; -488.182; -415.672
467.391;  -21.336; -628.189; -459.658
467.677;   13.795; -289.186;    9.335
467.964;    1.271; -682.189; -471.660
468.250;   36.998; -331.186; -160.665
468.536;   78.490;   90.811;  180.341
468.822;  -57.365; -821.184; -574.668
469.109;  130.612;  351.827;  471.311
469.395;  185.995;  729.808;  787.346
469.681;  201.918;   46.811;  156.341
469.967; 1262.048; -699.188; -382.660
470.254; 2739.981; -494.188; -306.662
470.540; 1828.053; -601.196; -476.646
470.826;  253.768; -488.181; -397.675
471.112;  311.363;  288.816;  113.331
471.398;   90.668; -253.183;  -58.670
471.684;   22.771; -626.177; -447.680
471.970;   -5.078; -918.180; -981.675
472.256;   19.644; -521.192; -441.654
472.542;   -6.752; -499.171; -434.691
472.828;    9.228; -743.182; -607.672
473.114;   27.292; -380.166; -283.700
473.400;   18.938; -504.175; -293.684
473.686;    7.498; -452.166; -400.701
473.972;   43.302; -230.174; -131.687
474.258;  -36.288; -925.173; -843.689
474.544;  221.313; -183.178;   -2.679
474.830;  326.214;  -65.175;   45.316
475.116;  517.589; -123.190; -196.658
475.401;  680.899; -558.180; -467.676
475.687;  204.723; -725.180; -718.676
475.973;   -0.739; -673.181; -770.673
476.259;  257.466;  736.825;  764.315
476.544;  361.279; -539.176; -437.682
476.830;  872.769; -398.172; -322.690
477.116;  787.928; -430.177; -336.682
477.401;  162.798;  346.820;  358.324
477.687;  -29.512; -289.175; -405.684
477.973;   22.714;   21.819;   28.326
478.258;   -5.332; -448.163; -348.706
478.544;   51.803;   21.815;   61.334
478.829;  -71.546; -818.171; -738.692
479.115;  -51.706; -749.172; -651.690
479.401;   -7.927; -444.174; -449.686
479.686;   28.522; -253.180;  -74.676
479.972;  -29.457; -886.178; -776.680
480.257;   33.743; -258.166;  -65.700
480.542;   -6.767; -614.170; -469.693
480.828;  233.111; 1288.824; 1392.317
481.113;  -42.791; -464.176; -426.683
481.399;   -0.008; -236.161; -202.711
481.684;  -57.782; -620.166; -462.700
481.969;   20.331; -158.159;  -73.713
482.255;  -13.207; -439.169; -285.695
482.540;   -8.457; -569.178; -441.680
482.825;   -2.488; -395.187; -404.663
483.110;   97.922;  -85.169; -105.696
483.396;  187.427; -840.157; -652.718
483.681;  516.852;  543.826;  730.313
483.966;  166.025; -696.160; -700.712
484.251;   -2.674; -404.174; -310.687
484.536;  -11.047; -356.165; -378.703
484.822;    9.254; -205.173; -218.687
485.107;  -33.760; -599.152; -502.726
485.392;  108.734;  662.836;  541.296
485.677;   77.981;  354.832;  163.302
485.962;  109.350;  160.843;  270.283
486.247;   81.251;  -14.162;   -8.707
486.532;   36.569; -178.166; -325.701
486.817;  147.837;  381.839;  431.291
487.102;  117.573; -453.154; -514.722
487.387;  697.204; -637.156; -652.718
487.672; 1229.164; -154.164;  -38.705
487.957;  779.844; -394.160; -286.711
488.241;  200.132; -290.150; -314.729
488.526;  781.017; -280.152; -148.726
488.811; 1235.045; -881.177; -818.680
489.096;  943.401; -666.154; -702.723
489.381;  497.713;    3.847;  162.275
489.666;  406.017; -428.161; -510.710
489.950;  178.504;  558.846;  627.277
490.235;  -34.623; -480.151; -458.728
490.520;  -35.884; -756.161; -723.710
490.804;  -57.569; -827.156; -736.719
491.089;   -9.477; -469.149; -299.732
491.374;   27.513; -132.164;  -75.704
491.658;  -15.291; -817.147; -717.735
491.943;  149.971; -657.152; -609.727
492.227;  240.469; -178.155;  -38.721
492.512;   41.399; -294.157; -341.717
492.797;  -64.458; -713.149; -716.731
493.081;  -56.688; -588.147; -598.735
493.366;  -50.232; -751.161; -635.711
493.650;  204.340;  831.859;  917.254
493.935;   20.234; -648.147; -447.734
494.219;  -41.398; -778.142; -687.743
494.503;  -54.613; -585.150; -487.730
494.788;   48.841;   46.842;   74.285
495.072;  105.658;  184.850;  434.271
495.356;  171.026; -463.148; -343.733
495.641;  460.843; -812.146; -736.736
495.925;  424.436; -976.156; -903.719
496.209;   42.322; -599.149; -451.732
496.494;  -49.872; -763.142; -544.744
496.778;    6.373; -364.154; -360.722
497.062;  -64.739; -819.156; -627.719
497.346;  -28.704; -869.160; -640.711
497.631;  138.654;  580.852;  560.266
497.915;   61.904;  -64.145;  175.261
498.199;   39.927; -341.157; -277.718
498.483;   19.515; -562.152; -508.725
498.767;  187.284;  301.850;  300.271
499.051;  171.620; -126.149; -100.732
499.335;   42.593; -693.149; -739.731
499.619;  -21.909; -381.129; -423.767
499.903;   18.643; -272.155;  -65.721
500.187;   23.606; -588.153; -316.724
500.471;    6.970; -796.152; -595.727
500.755;   97.241;   62.839;  -96.710
501.039;   19.368; -270.155; -357.721
501.323;   78.117;  -21.141;  264.254
501.607;   24.369; -447.163; -503.706
501.891;   -7.246; -607.156; -512.718
502.174;  -44.110; -726.144; -585.741
502.458;   71.599;   89.849;  370.273
502.742;   34.866; -180.138; -191.751
503.026;  127.108; -412.147; -254.734
503.310;  178.730; -437.159; -375.713
503.593;  143.560; -464.147; -325.735
503.877;  109.831; -232.133; -156.760
504.161;  174.583;    2.847;  -50.724
504.444;  146.443; -841.158; -710.716
504.728;  487.787; -487.164; -522.704
505.012;  730.331; -257.150;  -76.729
505.295;  568.292; -417.161; -212.711
505.579;  556.660; -256.156; -496.719
505.862;  798.325; -555.145; -333.738
506.146;  786.107; -681.159; -758.714
506.429;  405.232;  568.841;  461.286
506.713;   65.428; -732.151; -667.728
506.996;  339.723;   90.846;  295.278
507.280;  332.607; -633.165; -474.703
507.563;  240.516; -469.155; -261.721
507.847;  112.231; -423.153; -112.724
508.130;   97.668; -665.161; -456.711
508.413;  121.114; -758.167; -577.700
508.697;  269.389; -151.167;   12.300
508.980;  160.033; -422.153; -312.724
509.263;   -2.587; -466.155; -450.720
509.547;   35.506; -124.150;   82.271
509.830;   46.795; -172.160;  140.289
510.113;   80.010;  128.844;  298.281
510.396;   33.638; -530.152; -300.725
510.680;  133.277; -818.145; -812.738
510.963;  540.652;  184.846;  180.277
511.246;  453.089; -493.150; -357.730
511.529;  244.482; -482.145;  -83.739
511.812;  388.802; -250.134;   10.241
512.095;  276.501; -740.151; -396.728
512.378;   66.389; -317.147; -245.736
512.661;   33.723; -703.137; -623.753
512.944;   24.229; -750.142; -637.744
513.227;   76.495; -170.137; -171.752
513.510;   19.240; -479.144; -671.741
513.793;   22.921; -485.140; -435.747
514.076;  129.612;  -43.127;  -39.771
514.359;  106.948; -294.149; -135.732
514.642;   83.932; -442.142; -567.744
514.925;  791.019;  581.860;  561.253
515.208; 1044.399; -498.134; -443.758
515.491;  715.863; -276.133; -182.761
515.773;  402.794; -410.143; -337.742
516.056; 2210.155;  249.864;  409.246
516.339; 2937.233; -754.136; -652.755
516.622; 1897.461; -518.150; -488.730
516.904; 1129.176;  882.857;  975.257
517.187;  502.444; -730.138; -523.752
517.470;  381.850; -568.143; -510.743
517.752;  458.186; -624.136; -470.756
518.035;  348.932; -708.139; -725.749
518.318;  409.759; -799.136; -744.755
518.600; 2595.591; -300.132; -325.762
518.883; 3546.732;  310.858;   88.256
519.165; 1736.412; -585.138; -426.751
519.448;  395.891;  -61.132;  -19.762
519.730;  196.394; -573.126; -415.773
520.013;  301.334;  588.867;  664.240
520.295;  736.579;  -94.134;  -15.759
520.578; 1676.229; -335.131; -305.764
520.860; 1870.141; -254.132;   56.238
521.143; 1007.863; -763.135; -584.756
521.425;  471.957; -251.125; -279.775
521.707;  698.612; -622.127; -380.771
521.990; 1874.213; -199.127;  167.229
522.272; 2119.023; -116.140;   -4.748
522.554;  951.570; -237.143; -157.742
522.836;  352.127;  -24.134;   99.241
523.119;  221.057; -496.148; -189.734
523.401;  149.361; -448.130; -314.766
523.683;  102.899; -865.137; -693.753
523.965;  286.817;  408.862;  260.248
524.247;  290.053;   54.878;  170.220
524.529;  194.304; -451.134; -367.759
524.812;  358.312;   -3.130;  191.234
525.094;  899.091; -773.138; -631.751
525.376; 1448.716; -143.124;   78.223
525.658;  881.831; -441.136; -339.754
525.940;   31.200; -805.131; -671.764
526.222;   27.309; -188.136;  -88.755
526.504;  103.423; -190.131;   32.237
526.786;  159.081; -960.133; -647.760
527.068;  271.197; -124.123;  -67.778
527.349;   92.577; -865.137; -774.754
527.631;  131.291; -137.132;   22.238
527.913;  140.236; -664.127; -450.771
528.195;  173.750; -761.125; -639.774
528.477;  267.099;  -93.134;  -30.758
528.759;  148.737; -648.130; -522.766
529.040;   56.070; -569.123; -293.778
529.322;   54.728; -235.125;  -10.774
529.604;  130.665;  -47.130;   93.233
529.886;  121.469; -546.126; -302.773
530.167;  115.206;  232.870;  192.235
530.449;   37.413;    1.853;   63.265
530.731;   24.477; -572.122; -459.779
531.012;   60.548; -513.120; -216.784
531.294;   71.737; -118.116;  -43.792
531.575;  166.107;  290.875;  538.225
531.857;   62.119; -548.135; -266.757
532.138;  101.740; -113.141;   40.254
532.420;  175.990;  294.865;  403.244
532.701;  195.259; -722.133; -751.760
532.983;  311.462;  232.867;  182.239
533.264;  126.292; -243.126;  175.228
533.546;  -49.066; -491.136; -508.755
533.827;   47.005;  173.867;   -1.759
534.109;   43.219; -352.135;  -80.757
534.390;   78.995; -725.132; -582.762
534.671;  255.115; -270.135;  -82.756
534.953;  141.473; -751.123; -611.779
535.234;   32.097; -426.117; -255.789
535.515;  -81.269; -891.119; -735.785
535.796;  -14.518; -431.128; -193.770
536.078; -115.384;-1050.124; -904.777
536.359;   14.974;  -22.123;    3.221
536.640;  -19.123; -480.125; -197.774
536.921;  161.270;  225.871;  143.232
537.202;  379.263;  -87.138;  -16.751
537.483;  477.978;  251.869;  377.236
537.764;  180.431;   17.870;   98.235
538.045;  -59.052; -543.134; -371.758
538.326;  -47.128; -596.129; -447.768
538.607;   13.988; -686.127; -476.771
538.888;  183.589;   98.879;    5.218
539.169;  178.859; -704.122; -535.781
539.450;  342.319;  236.871;   16.233
539.731;  213.768; -361.121; -182.783
540.012;  134.073;  199.880;  412.216
540.293;   73.035;   82.876;  158.224
540.574;    2.708; -895.113; -717.796
540.855;  447.992;  435.879;  377.218
541.136;  530.856;   47.878;  139.220
541.416;  292.963; -161.130; -220.766
541.697;  199.599; -274.131; -170.763
541.978; 1108.242; -270.135; -315.757
542.259; 1400.838; -211.127; -236.771
542.539;  674.881; -191.116; -186.790
542.820;  194.107;  461.875;  480.225
543.101;  124.203;  -52.145;  -77.738
543.381;   19.737; -638.127; -591.771
543.662;  281.510;  159.873; -254.771
543.942;  594.083; -751.127; -830.770
544.223; 1095.558;  193.878;  161.219
544.504;  737.516; -275.124; -182.777
544.784;  614.394; -592.126; -408.773
545.065; 1705.035;  104.884; -254.791
545.345; 2023.607;  227.881;   14.215
545.626; 1346.182;  -14.113; -108.796
545.906;  944.806;   77.869;   98.235
546.186;  380.323;   92.874;  -95.773
546.467;  200.968;   99.877;  -95.778
546.747;  334.481;  264.884;  327.210
547.027;  397.614;   91.876;  111.223
547.308;  346.658; -376.127; -530.770
547.588;  424.297;  299.871;  371.232
547.868;  198.232;  458.870;  588.235
548.149;  215.767;  609.885;  593.207
548.429;  143.661; -347.127; -299.771
548.709;  203.473; -645.120; -461.784
548.989;  519.016;   84.882;   88.213
549.269; 2258.939;   10.868;  139.239
549.550; 5077.497;  215.877;  117.222
549.830; 4568.925; -758.111; -556.799
550.110;  904.082; -468.110; -320.801
550.390;  859.278; -128.122;  -56.779
550.670; 1191.803; -868.114; -783.795
550.950;  841.816; -509.121; -471.782
551.230;  198.587;  549.879;  460.218
551.510;    5.715; -381.121; -326.782
551.790;   40.940; -173.109; -127.803
552.070;  276.343;  940.877; 1181.223
552.350;  435.311; -492.119; -377.786
552.630;  630.435;   -2.121;   77.219
552.909;  383.260;  181.884;   73.209
553.189;  259.196;  -49.132;   33.237
553.469;  190.810; -703.119; -514.786
553.749;  198.039; -469.127; -357.772
554.029;  181.776;   33.883;  -24.790
554.308;  157.321; -154.115;  -37.794
554.588;   70.056; -196.128; -204.770
554.868;   69.467; -366.121;  -47.782
555.147;  156.993; -114.115;  -46.793
555.427;  653.388; -260.116; -250.792
555.707; 4135.416; -284.115; -200.793
555.986; 4987.203; -719.111; -538.800
556.266; 2673.355;   23.884;   72.210
556.546;  135.140; -888.121; -675.782
556.825;  257.026; -657.114; -556.794
557.105; 1903.979; -125.128;   17.230
557.384; 2211.009;  122.884;  187.209
557.664;  853.137; -717.116; -508.792
557.943;  126.341; -557.121; -411.782
558.222;  183.419; -345.118; -344.788
558.502;  293.995; -116.115;  -76.793
558.781;  527.865;  194.885;  499.208
559.061;  425.644; -232.118; -227.788
559.340;  323.499;  302.883;  353.211
559.619;  765.004;   93.884;  148.210
559.899; 1086.226; -239.117; -266.789
560.178; 1003.219; -778.115; -593.793
560.457; 3344.727; -623.117; -562.790
560.736; 4635.229; -472.111; -482.800
561.015; 3123.827; -500.128; -502.769
561.295;  407.410;  180.893;  215.193
561.574;  344.442;  119.885;  116.207
561.853;  517.669;  274.891;  303.197
562.132;  513.997;  -45.114;  182.206
562.411;  465.936;  396.879;  553.219
562.690;  145.240; -592.115; -458.792
562.969;  155.289;  472.888;  630.203
563.248;  535.783; 2966.878; 2487.219
563.527;  283.829; -290.111; -408.800
563.806;  399.636; -650.127; -521.771
564.085;  450.500; -297.105; -206.810
564.364;  253.529; -594.117; -405.790
564.643;  557.511; -276.121; -223.781
564.922; 2013.588;  221.890;  397.198
565.201; 1996.242; -640.109; -700.803
565.479;  886.989; -297.115; -219.792
565.758;  343.504; -810.128; -712.770
566.037;  502.143; -155.109; -100.803
566.316;  261.809; -286.116;  -28.791
566.595;   51.342;  -17.115;  -12.793
566.873;   98.656; -166.111;  -79.801
567.152;  -58.386; -490.113; -590.797
567.431;   17.705; -113.116;    6.210
567.709;   22.735; -344.107; -212.807
567.988;  272.200; -810.114; -769.794
568.266;  539.316; -160.115;  -68.793
568.545;  401.247; -644.100; -514.819
568.824;  618.838;  160.885;  356.208
569.102;  588.100; -351.114; -235.794
569.381;  247.062; -492.116; -407.792
569.659;  -36.115; -553.113; -553.796
569.938;   28.482; -743.122; -465.780
570.216;  118.796; -225.109; -225.804
570.494;  -21.572; -632.114; -572.795
570.773;   50.990;  202.879;  114.218
571.051;   18.721; -373.123; -357.778
571.330;   70.733; -221.113; -174.796
571.608;   35.990; -181.098; -173.823
571.886;  -68.427; -671.111; -581.799
572.164;  -65.783; -739.121; -621.782
572.443;  -41.921; -562.105; -512.811
572.721;  -37.122; -399.117; -289.790
572.999;  -26.179; -280.117; -168.788
573.277;   88.672;  379.894;  620.191
573.555;  303.624;   94.894;   37.190
573.834; 1457.896;  -86.117; -114.788
574.112; 1656.588;  880.893;  811.193
574.390;  506.555; -143.111;  -96.801
574.668;    8.540;  -91.112;  -61.797
574.946;  -16.200; -165.106; -187.810
575.224;    4.192;   71.891;  -16.803
575.502;  -12.793; -200.116; -204.791
575.780;  -86.984; -767.112; -829.798
576.058;  205.404; 1589.889; 1004.200
576.336;  -20.215; -210.110; -129.801
576.614;  -44.159; -511.112; -340.798
576.891;   62.271; -711.115; -823.794
577.169;  511.629; -158.108; -285.805
577.447;  621.487;  169.893;  202.193
577.725;  292.145;  629.888;  854.201
578.003;    7.393;  -71.112; -371.798
578.280;  115.213; -208.104; -242.812
578.558;   71.170; -450.115; -422.793
578.836;  117.428; -210.114; -145.795
579.114;   44.264; -630.112; -670.797
579.391;   86.148;   -6.117;  -18.789
579.669;  -81.978; -595.114; -704.794
579.947;  182.409; -326.107; -127.806
580.224;  343.909; -692.107; -524.806
580.502;  328.563;  127.893;   76.193
580.779;   25.403;  -42.117;   75.210
581.057;  -79.929; -584.109; -470.804
581.334; -107.147; -726.102; -695.815
581.612;   34.600;   54.895;  511.190
581.889;  -18.684;  -83.101; -129.818
582.167;  -45.120; -298.099; -190.821
582.444; -113.440; -845.102; -814.817
582.721;   98.561;  657.899;  715.183
582.999;   60.852; -326.100; -167.821
583.276;  563.975; -812.123; -713.779
583.553;  752.381; -364.102; -294.816
583.831;  256.459; -607.104; -631.812
584.108;   68.877;  349.892;  174.195
584.385;    8.577; -122.102;  -98.815
584.662;  -59.894; -651.111; -828.801
584.940;   41.955;  204.889;  204.199
585.217;  -30.540;  -73.113; -303.796
585.494;   43.264;   71.890;  118.198
585.771;  204.722; -250.109; -354.804
586.048;  517.184; -196.113;  -76.796
586.325;  313.784; -721.110; -773.801
586.602;   93.838;  230.896;  213.188
586.879;  -16.076; -499.100; -580.820
587.156;   59.626; -156.105; -331.810
587.433;  -37.217; -701.102; -667.817
587.710;   77.392;  152.888;  234.202
587.987;  296.631; -264.105; -236.811
588.264;  810.193;  315.888;  387.202
588.541; 1410.441;  -61.104;   26.187
588.818; 2771.574;   72.892;  171.196
589.095; 2371.536; -163.104; -174.812
589.371;  398.020; -459.109; -414.804
589.648;    8.113; -581.107; -437.807
589.925;   41.279; -517.114; -621.795
590.202;   12.616; -741.112; -607.798
590.478;   93.308; -166.105;  -73.811
590.755;  285.730; -241.108; -132.806
591.032; 2633.611; -741.110; -699.802
591.308; 3566.630; -732.094; -790.831
591.585; 1870.910; -573.110; -560.802
591.862;  162.085;-1056.102; -950.817
592.138;   57.253; -475.108; -474.805
592.415;  161.089; -486.104; -495.813
592.691; 1524.737;  460.896;  518.188
592.968; 1940.242; -208.098; -123.824
593.244;  957.806; -695.116; -595.790
593.521;   84.010; -105.102;  -42.817
593.797;  -24.771; -810.122; -720.780
594.074;  334.479; -611.096; -588.826
594.350;  690.290;  828.905;  729.172
594.626;  319.531; -303.111; -283.801
594.903;  116.761; -643.101; -645.817
595.179;  213.793;  243.896;  418.187
595.455;   17.764; -136.107; -150.807
595.731;   -0.756;  -19.103;  -38.814
596.008;  -26.024; -464.111; -434.800
596.284;   37.626; -187.100; -242.820
596.560;   59.586; -501.093; -493.833
596.836;  209.053; -173.105;  -70.810
597.112;  349.403; -582.108; -437.805
597.388;  308.502;  -49.097;  -48.826
597.665;  110.237;  437.887;  530.203
597.941;  -54.460; -572.089; -658.839
598.217;    5.864; -323.110; -293.802
598.493;  270.598;   61.891; -204.804
598.769;  538.221; -175.100;  -50.819
599.045;  321.631; -490.108; -562.806
599.321;   59.625; -193.100; -261.820
599.597;  159.723; -355.109; -476.804
599.872;  503.366;  409.896;  429.187
600.148;  388.029;  -61.097; -172.826
600.424;  301.961;   91.893;  202.193
600.700;  231.338; -170.107; -280.807
600.976;  125.098; -442.097; -464.825
601.252;  248.144; -226.109; -272.803
601.527;  212.266; -833.104; -840.813
601.803;  157.509; -453.105; -404.812
602.079;  189.846; -124.100; -118.819
602.354;  589.671; -620.092; -531.835
602.630;  856.835; -140.113; -482.796
602.906; 2460.516; -910.101; -863.818
603.181; 6992.135; -627.119; -534.786
603.457; 5999.276;   98.903; -278.826
603.733;  892.969; -605.120; -626.783
604.008; 1034.825; -245.106; -164.810
604.284; 3177.912; -636.101; -580.817
604.559; 2771.620;   -3.112;  -42.799
604.835;  509.528; -163.105; -225.810
605.110;  420.155; -732.099; -892.821
605.385;  716.064;  224.907;  267.167
605.661;  714.868; -625.095; -729.829
605.936; 1226.932; -664.108; -737.806
606.211; 1057.051;  -17.103; -170.815
606.487;  215.449; -329.114; -376.794
606.762;   16.936; -791.119; -745.786
607.037;  -20.072; -501.105; -433.810
607.313;  -48.764; -589.096; -574.828
607.588;  -12.100; -375.106; -137.810
607.863;   55.815;  -28.101; -143.818
608.138;  180.938;  513.890;  516.198
608.413;   26.709; -576.099; -592.822
608.688;   57.578; -203.108; -267.805
608.964;  213.769; -509.106; -218.809
609.239;  250.251; -107.105; -212.810
609.514;  278.958;  281.895;  240.188
609.789;  675.638; -187.104; -716.812
610.064;  907.260; -435.096; -609.827
610.339;  952.645; -855.109; -799.804
610.614; 1210.776; -131.100; -315.820
610.889;  700.559;  215.895;  107.188
611.163;   43.984; -407.104; -591.812
611.438;   77.300;   81.886; -167.794
611.713;   -2.063; -467.101; -499.817
611.988;   53.789; -144.101; -328.818
612.263;  -26.947; -771.102; -717.815
612.538;  237.384;  385.887;  251.204
612.812;  193.302; -832.100; -911.820
613.087;  153.565; -358.098; -338.823
613.362;  -59.636; -497.107; -557.807
613.637;   42.272;  261.897;  138.186
613.911;  -18.778; -256.092; -345.835
614.186;  148.112; -249.107; -292.807
614.460;  719.365; -842.081; -758.854
614.735;  852.539;  -55.087;  -17.843
615.010;  168.554;   43.912;  -82.841
615.284;  250.077;  360.892;  246.195
615.559;  394.670; -792.092; -955.835
615.833;  317.457;  -76.099;  -87.822
616.108;   15.707; -225.090; -390.837
616.382;  145.890;  274.913;  402.156
616.656;  156.083; -241.090; -232.837
616.931;  528.883; -785.099; -700.822
617.205; 1127.417; -973.104; -979.813
617.480; 1043.330;  -91.125;    6.225
617.754;  176.577; -396.125; -128.774
618.028;   17.773; -369.129; -382.768
618.302;   69.426;   73.892;  -25.805
618.577;  -43.727; -371.103; -518.815
618.851;  -60.184; -399.109; -600.803
619.125;  -53.321; -335.134; -378.759
619.399;  -27.608; -244.104; -374.813
619.673;  -60.137; -330.115; -515.792
619.947;  -40.522; -333.114; -448.795
620.222;  -32.393; -198.110; -204.801
620.496;    3.117;  -47.121;  -96.782
620.770;   20.083; -187.122;  -93.781
621.044;  236.476;  323.895;  346.190
621.318;  786.870; -653.120; -614.783
621.592;  666.442; -430.121; -409.783
621.866;  390.696; -476.112; -572.799
622.140;   10.032; -207.116; -356.791
622.413;   60.025;  138.889;  112.200
622.687;  -51.513; -746.101; -492.817
622.961;   15.126; -130.108; -143.805
623.235;  -68.424; -633.111; -661.800
623.509; -104.842; -816.105; -848.811
623.783;   15.460;  -12.107;   48.193
624.056;   -3.804; -254.120; -280.783
624.330;   48.390;   63.888;   -3.797
624.604;   58.504; -271.116; -355.790
624.877;   69.537;  180.890;   26.198
625.151;   50.998; -249.114; -238.794
625.425;  -38.106; -150.103; -283.814
625.698;  -63.920; -367.119; -374.785
625.972;  -96.311; -799.110; -765.802
626.245;   64.931;  685.884;  484.210
626.519;  -60.325; -426.120; -340.784
626.792;  -34.337; -192.107; -380.807
627.066;  -84.824; -485.122; -662.779
627.339; -104.640; -736.110; -663.802
627.613;   38.123;  351.880;  148.216
627.886;  -51.209;  187.891; -612.803
628.160;  -15.206;  312.880; -161.783
628.433;  -99.167; -695.125; -703.775
628.706;  -73.075; -517.120; -615.784
628.979;   21.714;  296.876;  117.223
629.253;  -81.215; -785.119; -833.786
629.526;  400.817; -334.126; -253.772
629.799;  364.771; -641.123; -479.778
630.072;  176.550; -497.128; -516.769
630.346;  -60.544;-1115.116;-1080.790
630.619;  473.564; -467.107; -545.808
630.892;  661.652;  709.889;  593.200
631.165;  347.542;  790.896;  679.187
631.438;  -76.332;-1092.112;-1055.798
631.711;   62.274;  453.877;  257.221
631.984;  -61.149; -523.117; -624.789
632.257;  -80.102; -636.117; -681.789
632.530;  -54.520; -412.119; -433.785
632.803;   23.371; -109.115;    7.207
633.076;  -59.157; -360.123; -422.777
633.349;   17.754;  173.872;  121.231
633.622;  -43.096; -187.119; -240.785
633.895; -132.330; -903.120; -823.783
634.167;  -74.406; -496.126; -525.773
634.440;  -15.688;  -19.116; -137.792
634.713;   -5.791;  -22.119; -120.786
634.986;   94.093;  593.871;  453.233
635.258;  -69.281; -507.115; -597.793
635.531;   82.294;  742.882; -343.788
635.804;  -12.950; -303.117; -318.789
636.077;  -99.542; -830.116; -852.791
636.349;   -3.833; -586.115; -474.793
636.622;  403.367; 1695.874; 1392.228
636.894;  244.475; -474.120; -909.784
637.167;  176.336; -836.127; -789.771
637.439;   34.357; -278.128; -213.770
637.712;  -51.907; -312.126; -293.772
637.984;  -88.666; -635.116; -707.791
638.257;  401.818;  515.877;  488.222
638.529;  565.409; -881.125; -924.776
638.802;  269.399; -508.128; -449.769
639.074; -111.342; -927.122; -952.781
639.346; -132.705; -942.135; -930.757
639.619;    5.756;  -79.142; -319.744
639.891;  -12.899;  -83.122; -168.779
640.163;  -79.272; -689.122; -756.780
640.435;   34.780;  273.878;  103.220
640.708;   13.532;  -72.122; -132.780
640.980;  -18.616; -366.122; -362.781
641.252;  195.161;  -25.121;  -71.781
641.524; 1831.637;  580.879;  573.219
641.796; 1819.264;-1094.121; -907.782
642.068;  333.816; -191.121; -300.782
642.340;  -60.382; -486.121; -566.783
642.613;   35.770;  294.880;  323.217
642.885;  -85.929; -787.120; -878.783
643.157;  -46.752; -810.120; -658.784
643.428;   62.325;  170.880;  218.216
643.700;  -73.198; -498.120; -425.784
643.972;  -39.221;  -16.119; -133.785
644.244;  -94.794; -474.119; -559.785
644.516;  -63.218; -250.119; -114.786
644.788;   57.059;  662.881;  548.214
645.060;  -15.939;  -12.119; -124.786
645.332;  -98.287; -525.118; -535.787
645.603;   41.615;  479.882;  342.213
645.875;  -77.208; -334.118; -369.787
646.147;  163.268; 1487.882; 1242.212
646.418;  -58.155; -931.117; -918.788
646.690;  142.022; -714.117; -715.789
646.962;   50.049; -413.117; -451.789
647.233;   -6.374;   15.883;   11.211
647.505; -104.948; -595.117; -475.790
647.776;    7.229;  328.884;  229.210
648.048;  -21.394; -248.116; -418.790
648.320;  -82.067; -752.116; -679.791
648.591; -160.940;-1055.116; -958.791
648.862;  -85.288; -505.116; -577.792
649.134;   17.638;  115.885;  198.208
649.405;  -54.485; -661.115; -618.792
649.677;  -59.258; -475.115; -598.793
649.948;   10.394; -181.115; -296.793
650.219;   11.796;  -37.115; -147.793
650.491;  -99.453; -431.114; -520.794
650.762; -112.901; -705.114; -731.794
651.033;  -81.174; -437.114; -424.795
651.304; -104.747; -743.114; -728.795
651.576;  -73.170; -680.114; -645.795
651.847;  -37.543; -250.113; -140.796
652.118;  -22.467;  -32.113; -189.796
652.389; -117.390; -639.113; -722.796
652.660;  -40.188; -147.113;  -89.797
652.931; -143.936; -897.112; -871.797
653.202;  -87.034; -382.112; -541.798
653.473;  -74.632; -633.112; -533.798
653.744;  161.119; -595.112; -590.798
654.015;  145.921; -356.112; -303.799
654.286;  -69.027; -642.111; -663.799
654.557;  -60.875; -586.111; -521.799
654.828; -155.748;-1114.111;-1088.800
655.099;  -84.297; -404.111; -291.800
655.370;  -87.495; -427.111; -543.801
655.641; -126.068; -656.110; -714.801
655.911; -105.841; -618.110; -638.801
656.182;   39.386;  437.890;  387.198
656.453;   88.313;  830.890;  746.198
656.724;  -73.086; -466.110; -426.802
656.994;  -90.559; -553.109; -568.803
657.265; -115.182; -862.109; -873.803
657.536;  -79.105; -500.109; -377.804
657.806; -112.503; -561.109; -593.804
658.077; -143.701; -866.109; -950.804
658.347;  -95.200; -523.108; -598.805
658.618; -111.873; -646.108; -694.805
658.888;  -16.996;  -41.108;  112.195
659.159;  -80.019; -432.108; -548.806
659.429;  -14.167; -292.108; -349.806
659.700;   13.684; -435.107; -390.807
659.970;   -6.114; -370.107; -359.807
660.241;   28.488; -754.107; -921.807
660.511;  505.940; -147.107; -174.808
660.781;   86.867; -793.106; -748.808
661.052;  -45.431; -222.106; -381.808
661.322;  -23.280;   21.894;   -9.809
661.592;    4.222;  257.894;  148.191
661.862;  -78.751; -369.106; -382.810
662.133;  -99.474; -551.105; -502.810
662.403; -115.622; -770.105; -676.810
662.673;  -49.845; -256.105; -213.811
662.943; -105.694; -612.105; -551.811
663.213;   -4.092;  -85.105;  -81.811
663.483;  -76.315; -593.104; -568.812
663.753;  -54.238; -194.104; -152.812
664.023;  -27.061;   68.896;  -32.813
664.293;  -61.385; -319.104; -126.813
664.563;  -99.408; -694.104; -648.813
664.833; -118.531; -743.103; -608.814
665.103; -130.854; -730.103; -793.814
665.373; -127.877; -766.103; -806.814
665.643;  -95.800; -863.103; -918.815
665.913;   39.926; -534.103; -714.815
666.182;  154.728; -685.102; -719.816
666.452;  278.080;  -22.102;  -89.816
666.722;  -30.943; -724.102; -784.816
666.992; -136.441; -948.102; -921.817
667.261;  -91.539; -824.102; -808.817
667.531;  217.137;  134.899;   45.183
667.801;  508.664; -440.101; -412.818
668.070;  233.391;  714.899;  697.182
668.340; -103.657; -883.101; -840.819
668.609;   98.345;  588.900;  301.181
668.879;  -88.379; -490.100; -558.819
669.149;  -71.377; -539.100; -516.820
669.418; -109.775; -698.100; -726.820
669.688;  -24.748; -482.100; -666.820
669.957;   78.229; -423.099; -546.821
670.226;  -28.019; -268.099; -331.821
670.496;  -97.018; -431.099; -635.822
670.765;  -76.766; -418.099; -501.822
671.034; -135.514; -872.099; -828.822
671.304;   -6.812;   55.902; -111.823
671.573; -162.010;-1085.098; -957.823
671.842;   90.541; -380.098; -294.823
672.112;   22.168; -692.098; -586.824
672.381;    3.995; -239.098; -214.824
672.650; -134.753;-1005.097;-1021.825
672.919;  -88.001; -631.097; -507.825
673.188;  -90.099; -681.097; -878.825
673.457; -150.698;-1101.097;-1143.826
673.726;  -78.971; -579.096; -646.826
673.995;  -38.394; -533.096; -479.826
674.265;  -13.667; -263.096; -333.827
674.534;   12.160; -183.096; -235.827
674.802;   18.262; -618.096; -703.828
675.071; 1093.263; -886.095; -801.828
675.340; 4061.765; -464.095; -339.828
675.609; 1386.717;  103.905;   82.171
675.878;   78.094; -949.095; -893.829
676.147;   31.496;  -26.095;   -8.829
676.416;   90.222; -210.094; -294.830
676.685;  737.649; 1000.906; -622.830
676.953;  131.251; -603.094; -452.831
677.222;  -29.997; -193.094; -273.831
677.491;  -28.395;  -24.094; -127.831
677.759;  -12.693;   11.907;  172.168
678.028;  -22.567; -279.093; -222.832
678.297;   -2.840;   71.907;  197.168
678.565; -146.788; -898.093; -944.833
678.834;  -62.861; -311.093; -268.833
679.102;  -87.934; -411.092; -391.834
679.371; -150.482; -898.092; -727.834
679.639; -151.856; -797.092; -786.834
679.908; -124.029; -794.092; -724.835
680.176; -157.402; -895.091; -941.835
680.445;  -79.350; -346.091; -352.835
680.713;  -21.573;  -58.091;  -23.836
680.982;  -95.497; -523.091; -525.836
681.250; -114.320; -578.091; -507.837
681.518;  -95.218; -534.090; -751.837
681.787;  -20.941; -204.090; -167.837
682.055;  -73.589; -490.090; -422.838
682.323; -144.262; -993.090; -992.838
682.591;   38.989; -216.090; -538.838
682.859;   94.541;    9.911;  -35.839
683.128;   20.918;  232.911;  497.161
683.396; -174.355;-1102.089;-1122.840
683.664;  -41.953; -241.089;   21.160
683.932;   -1.476;  144.911;  -76.840
684.200;  -92.650; -576.088; -320.841
684.468;  -26.148;  -73.088; -124.841
684.736;  -39.146; -214.088; -175.841
685.004; -117.244;-1024.088; -982.842
685.272;  -57.692; -880.088; -774.842
685.540;  -68.441; -499.087; -557.843
685.808;  -85.839; -651.087; -682.843
686.076;  -99.012; -894.087; -969.843
686.343;  -58.985; -601.087; -815.844
686.611;   48.517; -195.087; -224.844
686.879;  514.569; -530.086; -553.844
687.147; 3431.145; -483.086; -480.845
687.414;  996.122;  -12.086; -169.845
687.682;   14.624; -658.086; -757.846
687.950;  312.601;  259.915;  263.154
688.217;    9.678; -792.085; -760.846
688.485;   -2.145; -632.085; -636.847
688.753;  559.806;  -11.085; -102.847
689.020;  177.208; -820.085; -851.847
689.288; -102.715; -853.084; -787.848
689.555;  -35.163; -195.084; -148.848
689.823;  -38.561; -241.084; -345.849
690.090;  -89.760; -546.084; -651.849
690.358; -154.458; -877.084; -897.849
690.625;   -0.481;  120.917;   45.150
690.892;  -83.604; -403.083; -369.850
691.160;  -19.052;   72.917;  -35.850
691.427;    6.950;  141.917;  130.149
691.694; -140.949; -855.083; -929.851
691.962; -146.722;-1177.082;-1060.852
692.229;   20.105;  127.918;   56.148
692.496;   72.607;  130.918;  -49.852
692.763;   12.834; -164.082; -201.853
693.031;  -73.215; -739.082; -716.853
693.298;  -52.088; -509.081; -368.853
693.565;  336.114; -155.081; -163.854
693.832; 1336.766;   -5.081;   -9.854
694.099;  145.068; -643.081; -642.855
694.366;  -59.055; -882.081; -896.855
694.633;  -62.129; -920.080; -633.855
694.900;  757.548; 4367.920; -114.856
695.167;  445.650; -214.080; -380.856
695.434;  102.402; -646.080; -623.856
695.701;  198.254;  121.921;  -61.857
695.968;  456.431; -365.079; -361.857
696.234; 1053.032; -415.079; -646.858
696.501;10325.659; -776.079; -614.858
696.768; 5099.886; -554.079; -617.858
697.035;  307.638; -632.078; -667.859
697.302;   41.715; -448.078; -552.859
697.568;   12.141; -458.078; -497.859
697.835;  -42.982; -683.078; -624.860
698.102;  -24.605; -498.078; -407.860
698.368;   68.197;  384.923;  396.139
698.635;  -48.201;  -47.077; -424.861
698.901;  -21.174; -240.077; -348.861
699.168;   75.952; -534.077; -456.862
699.435;   80.179;  -72.077;  -13.862
699.701; -112.119; -868.076; -764.862
699.968;  -46.142;  144.924; -441.863
700.234; -110.615; -783.076; -822.863
700.500;  -70.738; -448.076; -539.864
700.767;  -11.312;   -1.075;   26.136
701.033; -138.985;-1015.075; -963.864
701.299;  -64.358; -450.075; -483.865
701.566;  129.619;  950.925;  763.135
701.832;   25.396;  -31.075;  -76.865
702.098; -115.603;-1054.074;-1034.866
702.365;  -85.376;-1098.074;-1030.866
702.631;  -32.024;-1038.074;-1063.867
702.897; 1434.378; -765.074; -676.867
703.163; 2264.330;  348.926;  254.133
703.429;  153.432; -256.073; -273.868
703.695;  -38.742; -796.073; -792.868
703.961;   24.710; -214.073; -210.868
704.227;  -68.313; -630.073; -725.869
704.493;  140.014;  613.927;  510.131
704.759;  -24.384; -565.072; -540.870
705.025;   38.743; -203.072; -194.870
705.291;   -5.731; -666.072; -562.870
705.557;  182.046;  719.928;   34.129
705.823;   22.598; -742.072; -694.871
706.089;  135.550; -307.071; -326.871
706.355;  340.777; -315.071; -244.872
706.620; 5482.728; -776.071; -729.872
706.886; 7524.130; -309.071; -362.873
707.152;  710.482; -818.070; -973.873
707.418;  -34.216;-1153.070;-1186.873
707.683;    0.886; -550.070; -530.874
707.949;  -42.537; -547.070; -578.874
708.215;    5.064; -129.070; -207.874
708.480;  -35.859; -520.069; -420.875
708.746;   92.943;   68.931;   28.125
709.011;  -55.080; -578.069; -612.876
709.277;  -79.028; -538.069; -543.876
709.542;  -55.202; -428.069; -387.876
709.808;    0.300;  -59.068;   89.123
710.073;  -93.623; -577.068; -695.877
710.339;  -23.021; -242.068; -228.877
710.604;   94.081; -780.068; -845.878
710.869;  316.633; -277.068; -366.878
711.135;  -67.616; -715.067; -628.879
711.400;  -88.239; -507.067; -608.879
711.665;  -83.762; -404.067; -479.879
711.931; -103.435; -661.067; -677.880
712.196; -119.333; -876.067; -954.880
712.461;  120.669; -402.066; -490.880
712.726;  133.970; -727.066; -771.881
712.991;  -95.353; -647.066; -664.881
713.256;  -43.001; -350.066; -332.882
713.521;  -57.699; -417.065; -381.882
713.787;  -63.722; -454.065; -472.882
714.052;  -37.671; -214.065; -400.883
714.317;  -93.794;-1045.065; -981.883
714.581; 1011.033; -374.065; -268.883
714.846; 1316.660; -822.064; -888.884
715.111;  122.887;  261.936;  257.116
715.376;  -35.836;  -86.064; -223.885
715.641;  -22.010; -365.064; -367.885
715.906;  301.667;   15.936; -551.885
716.171;  132.744;  221.937;  209.114
716.436;   26.096;  -78.063; -104.886
716.700;  -99.227; -818.063; -692.886
716.965; -129.275; -794.063; -807.887
717.230;  -72.899; -339.063; -392.887
717.494;  -23.172;  -40.062; -134.888
717.759;  -86.095; -784.062; -640.888
718.024;   -1.068;  269.938;  250.112
718.288;   67.159;  685.938;  395.111
718.553; -142.465; -803.062; -977.889
718.817; -132.838; -883.061; -899.889
719.082;  -38.686; -115.061; -125.890
719.346; -144.384;-1000.061; -947.890
719.611;  -49.282; -300.061; -255.891
719.875;  -89.930; -568.060; -537.891
720.140;  -68.954; -453.060; -603.891
720.404;   36.698; -136.060; -249.892
720.668;  895.275; -475.060; -411.892
720.933;  337.077;  146.940;  137.108
721.197; -103.821; -667.059; -600.893
721.461; -140.869; -851.059; -826.893
721.725;  -18.618;  -21.059; -250.894
721.990;  -60.416; -284.059; -204.894
722.254;  -29.339;  -26.059; -108.894
722.518;  -67.887; -286.058; -442.895
722.782;  -92.560; -743.058; -594.895
723.046;  130.016;  614.942;  570.105
723.310;   19.168;  374.942;  210.104
723.574; -100.205; -654.058; -614.896
723.838; -115.553; -576.057; -642.897
724.102;  -42.551; -226.057; -239.897
724.366; -153.149;-1032.057; -978.897
724.630; -107.398; -749.057; -571.898
724.894;  -88.221; -722.057; -514.898
725.158;   -6.444;   38.944; -295.898
725.422;  -51.067; -394.056; -327.899
725.685;  -62.715; -441.056; -349.899
725.949;  -82.888; -566.056; -519.900
726.213;  -70.687; -732.056; -811.900
726.477;  181.790;-1020.055; -933.900
726.740;  138.217; -274.055; -104.901
727.004;  342.469; -384.055; -510.901
727.268; 3289.846; -442.055; -400.901
727.531;  865.847; -961.055; -775.902
727.795;  -42.351; -713.054; -673.902
728.059;  -62.324; -552.054; -557.903
728.322;  -92.922; -841.054; -669.903
728.586;   20.005; -692.054; -701.903
728.849;  -84.893; -695.053; -756.904
729.112; -119.892; -812.053; -912.904
729.376; -129.040; -959.053; -905.904
729.639;  -72.663; -536.053; -536.905
729.903; -110.611; -733.053; -699.905
730.166;  -50.434; -437.052; -399.906
730.429;  -32.133; -317.052; -468.906
730.693;  -75.806; -355.052; -894.906
730.956;  221.521;  810.948;  651.093
731.219;  711.048; -310.052; -103.907
731.482;  120.725;-1003.051; -894.907
731.745;   80.877; -794.051; -935.908
732.009;   19.903;  -30.051;   50.092
732.272;  -97.870; -904.051; -771.909
732.535;  -49.268; -300.051; -310.909
732.798; -158.616;-1083.050;-1166.909
733.061;  -63.764; -430.050; -456.910
733.324;    2.863;   31.950; -180.910
733.587;   71.314;  290.950;  365.090
733.850;  -64.384; -973.049;-1050.911
734.113;   33.668;   33.951;   32.089
734.376;   10.545; -328.049; -447.912
734.639;  230.372; 1188.951; 1011.088
734.901;   76.523; -180.049; -402.912
735.164;  560.700; -883.048; -837.913
735.427; 1339.927; -166.048; -355.913
735.690;  119.729; -205.048; -234.913
735.952;  -41.294; -923.048; -925.914
736.215;  -21.167;-1113.048;-1009.914
736.478;   37.809; -771.047; -774.915
736.740;  214.961;   33.953;  129.085
737.003;  752.288; -658.047; -672.915
737.266; 4196.790;  -94.047;   46.084
737.528;  448.517; -682.047; -660.916
737.791;  307.169; -316.046; -327.916
738.053;  824.520;  465.954;  649.083
738.316;11077.472; -162.046; -136.917
738.578; 7358.649; -770.046; -736.918
738.841;  442.276; -382.046; -446.918
739.103;  184.003; -875.045; -777.918
739.365;  507.604;   79.955;  -69.919
739.628;  -11.294; -884.045; -805.919
739.890;  -28.967; -758.045; -710.919
740.152;  -45.440; -692.044; -754.920
740.414;   -5.613; -408.044; -359.920
740.677;  -40.611; -785.044; -634.921
740.939;  -42.110; -587.044; -487.921
741.201;  285.492; -432.044; -572.921
741.463;   40.844; -689.043; -745.922
741.725;   11.496;  -21.043; -199.922
741.987;   57.948;  220.957;  116.078
742.249;   12.375; -751.043; -859.923
742.511;  219.001; -703.043; -794.923
742.773;   13.253; -546.042; -546.924
743.035;  132.130;  796.958;  533.076
743.297;  -38.493; -963.042;-1013.924
743.559;  756.734; -278.042; -262.925
743.821;   69.435; -735.042; -744.925
744.083;   -1.638;  -44.041; -149.925
744.345; -103.061; -869.041; -892.926
744.607;   29.366;   75.959;  122.074
744.868;  -49.807; -490.041; -554.927
745.130; -124.230; -994.041;-1008.927
745.392;   41.746;   -1.040;  -44.927
745.653;  -12.252; -411.040; -378.928
745.915;  155.525;  896.960;  631.072
746.177;   55.852;   35.960;  -43.928
746.438;    3.479; -428.040; -543.929
746.700;  -46.444; -947.039; -988.929
746.961;   -4.218; -659.039; -740.930
747.223;  127.584; -190.039;  -74.930
747.484;   81.636; -391.039; -471.930
747.746;  153.238;  -23.038; -106.931
748.007;  115.515; -647.038; -689.931
748.269;  305.991; -468.038; -440.931
748.530;  497.343; -852.038; -638.932
748.791;  260.695; -354.038; -420.932
749.053;  455.047;  286.963;  163.067
749.314;  474.224; -236.037; -169.933
749.575;  509.101; -945.037; -905.933
749.836;  869.702; -217.037;   86.066
750.098; 2641.754;  -60.037;  -21.934
750.359;37945.831;  414.964;  555.066
750.620; 9046.083; -121.036; -220.935
750.881; 1052.485; -585.036; -513.935
751.142; 1422.636; -950.036; -938.936
751.403;17354.913; -789.036; -705.936
751.664; 7137.765;-1034.035; -999.936
751.925;  489.667; -175.035; -262.937
752.186;  277.694; -298.035; -278.937
752.447;  136.396; -590.035; -445.937
752.708;   34.797; -532.035; -648.938
752.969;    4.324; -566.034; -576.938
753.230;  -11.699; -777.034; -672.939
753.491;  -14.822; -650.034; -631.939
753.751;   63.155;  109.966;   19.061
754.012;   99.832;  258.967;  181.060
754.273;   48.183; -174.033;  -71.940
754.534;    0.460; -487.033; -580.940
754.794; -101.363; -926.033; -911.941
755.055;  147.614; 1051.967;  881.059
755.316;  -50.809; -700.032; -566.942
755.576;  -23.408; -606.032; -576.942
755.837;  -51.481; -527.032; -695.942
756.097;  -37.879; -530.032; -564.943
756.358;  -74.827; -725.032; -770.943
756.618;  -57.525; -705.031; -641.943
756.879;    0.702; -254.031; -349.944
757.139; -110.322;-1098.031;-1116.944
757.400;  -53.470; -538.031; -553.945
757.660;  -14.018; -365.031; -401.945
757.920;    1.534; -266.030; -228.945
758.181;  -17.514; -468.030; -351.946
758.441; -101.912; -870.030; -809.946
758.701;  -27.011; -308.030; -215.946
758.961;  -20.884; -220.030; -278.947
759.222;  -53.807; -574.029; -502.947
759.482;  -81.955; -683.029; -723.948
759.742;  -77.003; -706.029; -547.948
760.002;   -4.127;  -83.029; -143.948
760.262;   32.675;   50.972;  182.051
760.522;  -45.023; -498.028; -574.949
760.782;  -50.346; -738.028; -612.949
761.042;  -39.644; -618.028; -573.950
761.302;   57.383;   55.972;  -18.950
761.562;   40.834; -164.027; -154.951
761.822;   89.261; -710.027; -551.951
762.082;  -44.337;-1104.027;-1093.951
762.342;   58.590; -328.027; -403.952
762.601;   78.767; -567.027; -506.952
762.861;  387.944; -281.026; -207.952
763.121;  412.645; -406.026; -411.953
763.381; 7665.072; -499.026; -485.953
763.640; 7839.849; -139.026; -307.954
763.900;  353.251; -242.026; -203.954
764.160;   84.503; -458.025; -491.954
764.419;  -16.796; -726.025; -782.955
764.679;  -75.719; -795.025; -726.955
764.939;  -13.392; -124.025; -210.955
765.198;  -77.390; -608.025; -563.956
765.458;  -87.663; -710.024; -612.956
765.717;  -77.861; -454.024; -590.957
765.976;  -59.560; -428.024; -411.957
766.236;  -72.558; -475.024; -610.957
766.495;   17.844;  260.977;   73.042
766.755;  -91.354;-1090.023; -987.958
767.014;    2.573; -594.023; -665.958
767.273;  -51.451; -373.023; -397.959
767.533;  -53.074; -228.023; -307.959
767.792;  -25.747; -151.022; -188.960
768.051;  -49.120; -228.022; -276.960
768.310;  -97.018; -546.022; -650.960
768.569;   -8.441; -161.022;    4.039
768.828;  -35.815; -285.022; -363.961
769.088; -128.363;-1050.021; -942.961
769.347;  -87.961; -755.021; -599.962
769.606; -108.609; -876.021; -857.962
769.865; -126.332;-1016.021;-1033.963
770.124;   -8.405; -411.021; -336.963
770.383;  -51.179; -778.020; -910.963
770.641;   -1.202; -398.020; -400.964
770.900;  -81.900; -953.020; -846.964
771.159;  -60.798; -851.020; -951.964
771.418;  -33.371; -917.020; -779.965
771.677;  116.830; -224.019; -293.965
771.936;  134.157; -794.019; -865.966
772.194; 2291.859; -465.019; -437.966
772.453;10633.661; -213.019; -391.966
772.712;  735.338;  416.982;  329.033
772.970;  124.815;   32.982;   63.033
773.229;   79.941;  -22.018;  102.033
773.488;  -95.307; -814.018; -770.968
773.746;   52.395;  296.982;  335.032
774.005;   -7.328;  190.983;  -22.969
774.263;   19.474;  243.983;  177.031
774.522;  -99.674; -422.017; -548.969
774.780;  -74.473; -484.017; -417.970
775.039;  -97.446; -551.017; -531.970
775.297;  -39.119; -135.016; -351.970
775.555; -111.542; -489.016; -612.971
775.814; -120.415; -618.016; -570.971
776.072; -124.639; -749.016; -740.971
776.330; -116.387; -630.016; -520.972
776.589; -124.860; -703.015; -721.972
776.847; -130.733; -645.015; -624.973
777.105; -176.231;-1016.015;-1032.973
777.363;  -83.829; -459.015; -454.973
777.621; -134.153; -660.015; -717.974
777.879;  -19.676;  -42.014;   32.026
778.138; -120.824; -554.014; -717.974
778.396; -104.622; -585.014; -526.975
778.654; -167.045;-1015.014; -970.975
778.912;  -60.368; -269.014; -371.976
779.170; -137.842; -880.013; -803.976
779.427; -154.065; -922.013; -897.976
779.685; -136.463; -880.013; -832.977
779.943;  -85.661; -654.013; -593.977
780.201; -160.159; -964.012; -883.978
780.459; -126.283; -651.012; -610.978
780.717;  -86.806; -440.012; -390.978
780.974; -110.629; -449.012; -490.979
781.232;  -78.452; -358.012; -338.979
781.490;  -74.150; -551.011; -472.979
781.747; -101.548; -555.011; -476.980
782.005;   35.228;  462.989;  254.020
782.263; -168.220; -542.011;-1004.981
782.520; -106.218; -326.011; -501.981
782.778; -172.616;-1013.010;-1051.981
783.035; -173.089; -962.010; -938.982
783.293;  -80.587; -248.010; -206.982
783.550;  -60.811; -134.010; -198.982
783.808; -128.109; -764.010; -776.983
784.065; -176.782; -745.009; -874.983
784.322;  -44.380;   25.991;  -86.984
784.580; -149.053; -915.009; -771.984
784.837;  -96.677; -392.009; -466.984
785.094; -144.125; -783.009; -762.985
785.352;  -70.048; -304.008; -404.985
785.609; -102.221; -934.008; -839.985
785.866;  -89.694; -345.008; -401.986
786.123;  -89.517; -639.008; -583.986
786.380; -110.141; -665.008; -604.987
786.637;  -40.264; -225.007; -380.987
786.895;  -25.012; -456.007; -543.987
787.152;  -39.385; -135.007; -267.988
787.409;  -55.408; -123.007; -225.988
787.666; -100.057; -299.006; -378.988
787.923; -114.355; -616.006; -695.989
788.179; -100.303; -551.006; -584.989
788.436; -118.526; -585.006; -585.990
788.693;  -38.049;  -92.006;  -87.990
788.950;  161.853; -125.005; -112.990
789.207;  208.329; -381.005; -372.991
789.464;  -52.294; -161.005; -301.991
789.720;   -1.667;  150.995;  110.009
789.977; -163.390;-1003.005; -671.992
790.234;  -18.563;   44.996;  -66.992
790.490; -159.261; -884.004;-1031.993
790.747;  -31.860;  -85.004;   22.007
791.004;  -36.658; -426.004; -348.993
791.260;  -74.806; -430.004; -560.994
791.517; -103.579; -843.003; -788.994
791.773;  -50.727; -379.003; -342.994
792.030; -111.676; -596.003; -660.995
792.286; -105.974; -686.003; -636.995
792.543;  -16.697;  -74.002; -159.995
792.799;  -64.295; -584.002; -382.996
793.055; -175.243;-1179.002;-1210.996
793.312;  -99.241; -827.002; -816.997
793.568;  -68.365; -746.002; -599.997
793.824;   10.412; -226.001; -284.997
794.081;   19.739; -447.001; -508.998
794.337;   63.766; -664.001; -561.998
794.593; 1439.818; -319.001; -271.999
794.849; 6507.470; -746.001; -772.999
795.105;  299.921; -270.000; -261.999
795.361;    1.398; -490.000; -457.000
795.617;  -62.800; -875.000; -945.000
795.873;  -54.800; -360.000; -407.000
796.129;  -46.925; -368.000; -306.000
796.385;  -29.250; -124.000; -156.000
796.641;   61.975;  412.000;  550.000
796.897;  -94.225; -666.000; -635.000
797.153;   63.450;  453.000;  357.000
797.409; -119.050; -785.000; -868.000
797.665;  -85.750; -625.000; -732.000
797.921;  -83.475; -775.000; -762.000
798.176;  -81.750; -744.000; -747.000
798.432;  -64.600; -824.000; -596.000
798.688;  -99.400;-1174.000;-1078.000
798.943;   95.625; -165.000; -147.000
799.199;   -4.900;-1005.000; -959.000
799.455;  227.575;  369.000;  316.000
799.710;  104.850; -813.000; -380.000
799.966;  290.750; -162.000; -160.000
800.221;  469.975; -638.000; -721.000
800.477;10893.000; -743.000; -710.000
800.732; 8783.225; -773.000; -800.000
800.988;  603.450;  205.000;  -19.000
801.243; 1831.050; -454.000; -344.000
801.498; 7224.850; -814.000; -739.000
801.754;  375.150; -289.000; -163.000
802.009;   82.925; -257.000; -335.000
802.264;  -58.750; -967.000;-1033.000
802.520;   23.625;  222.000;   -3.000
802.775;  -57.125; -524.000; -359.000
803.030;   50.450;  395.000;  356.000
803.285; -118.200; -840.000; -903.000
803.540;  -63.500; -686.000; -699.000
803.795;  -56.825; -648.000; -583.000
804.051;  -57.475; -279.000; -346.000
804.306;   15.450;  168.000;  128.000
804.561;  145.000;  451.000;  362.000
804.816;  144.425;  714.000;  861.000
805.071;   14.950; -185.000; -280.000
805.325;  217.950; -257.000; -427.000
805.580; -115.375; -841.000; -877.000
805.835;  -21.025; -204.000; -297.000
806.090;  -72.075; -760.000; -676.000
806.345;  -19.450; -344.000; -264.000
806.600;  -30.650; -549.000; -632.000
806.854;  -26.225; -408.000; -538.000
807.109;  -17.400; -493.000; -577.000
807.364;    8.375; -407.000; -328.000
807.618;  -11.100; -415.000; -381.000
807.873;   66.925; -470.000; -494.000
808.128;   82.450; -257.000; -518.000
808.382;   93.225; -224.000; -332.000
808.637;   68.625; -440.000; -511.000
808.891;  160.000; -257.000; -180.000
809.146;   93.000; -902.000; -794.000
809.400;  277.050; -848.000; -923.000
809.654;  336.950; -779.000; -551.000
809.909;  487.475; -841.000; -927.000
810.163; 7255.350; -813.000; -651.000
810.418;17222.675; -940.000; -861.000
810.672; 1028.875; -685.000; -690.000
810.926;  723.325; -993.000; -973.000
811.180; 1456.825; -439.000; -372.000
811.434;32052.950;  240.000;  135.000
811.689;11671.050; -231.000; -365.000
811.943;  582.300; -936.000; -953.000
812.197;  302.300; -893.000; -671.000
812.451;  119.825; -379.000; -514.000
812.705;  -26.875; -809.000; -619.000
812.959;  -17.000; -263.000; -388.000
813.213;    4.100; -283.000; -209.000
813.467;   41.100;  470.000;  253.000
813.721; -105.750; -764.000; -792.000
813.975; -121.650; -826.000; -877.000
814.229;   34.825;  430.000;  353.000
814.482;  -78.625; -517.000; -566.000
814.736; -121.650; -766.000; -744.000
814.990; -132.800; -779.000; -872.000
815.244;  -51.325; -228.000; -285.000
815.497;  -98.600; -636.000; -601.000
815.751;  -23.375; -141.000;   82.000
816.005;  -88.400; -470.000; -586.000
816.258;  -66.275; -510.000; -363.000
816.512; -119.450; -693.000; -610.000
816.766;    3.825;  121.000;  157.000
817.019;   20.200;  148.000;  149.000
817.273; -133.050;-1000.000; -802.000
817.526;  -37.400; -206.000; -173.000
817.779;  -44.625;-1049.000; -960.000
818.033;  -72.800; -693.000; -807.000
818.286; -123.900; -725.000; -792.000
818.540;  -79.325; -403.000; -403.000
818.793;  -71.650; -402.000; -489.000
819.046;  -95.400; -582.000; -520.000
819.299;  -47.075; -157.000; -166.000
819.553; -122.675; -552.000; -592.000
819.806; -164.200;-1016.000; -838.000
820.059;  -58.300; -334.000; -354.000
820.312;   15.725;  152.000;  185.000
820.565;  -15.550;  110.000;  -27.000
820.818;  -59.575;  -59.000; -173.000
821.071; -178.425;-1041.000; -957.000
821.324; -122.350; -536.000; -540.000
821.577; -113.150; -457.000; -483.000
821.830;  -61.300; -270.000; -172.000
822.083; -136.400; -733.000; -288.000
822.336;  -50.300; -261.000; -167.000
822.589; -144.450; -805.000; -688.000
822.842; -150.425; -875.000; -770.000
823.094; -186.250;-1076.000;-1114.000
823.347; -138.900; -925.000; -729.000
823.600;    8.325;  402.000;  187.000
823.853;  -52.725; -311.000; -267.000
824.105;  -83.925; -331.000; -575.000
824.358;  -97.725; -617.000; -716.000
824.611;   22.775;  234.000;   40.000
824.863;  -47.025; -612.000; -591.000
825.116;   44.350;  -33.000;   27.000
825.368;   94.025; -366.000; -372.000
825.621;  149.000; -186.000; -240.000
825.873;   70.125; -704.000; -737.000
826.126;  636.625; -669.000; -641.000
826.378;11831.950; -389.000; -505.000
826.630; 2609.475; -890.000; -898.000
826.883;   35.675; -754.000; -693.000
827.135;   40.400; -279.000; -270.000
827.387; -120.500; -893.000; -839.000
827.639;  -33.075;  -86.000;   32.000
827.892; -133.125; -742.000; -582.000
828.144; -154.225; -848.000; -804.000
828.396;  -47.200;  104.000;  -80.000
828.648; -106.025; -440.000; -333.000
828.900; -158.575; -702.000; -795.000
829.152; -118.275; -684.000; -683.000
829.404;  -81.100; -215.000; -267.000
829.656;  -54.700;  321.000;  214.000
829.908;   -6.025;  393.000;  229.000
830.160; -172.075;-1064.000;-1047.000
830.412;  -88.325; -481.000; -430.000
830.664; -140.650; -557.000; -665.000
830.916;  -77.175; -268.000; -206.000
831.167; -179.300;-1073.000; -951.000
831.419; -122.000; -623.000; -566.000
831.671; -160.725; -764.000; -809.000
831.923;  -93.025; -311.000; -447.000
832.174;  -89.475; -273.000; -331.000
832.426; -135.975; -493.000; -582.000
832.678; -185.525;-1043.000;-1091.000
832.929; -158.350; -947.000; -935.000
833.181;  -73.125; -575.000; -677.000
833.432;  -52.150;  -59.000; -186.000
833.684;  -35.400;  112.000;  -27.000
833.935; -126.900; -610.000; -566.000
834.187; -132.625; -829.000; -823.000
834.438;  -37.925;  -58.000;  -25.000
834.689;  -59.200; -255.000; -123.000
834.941;  -52.850; -343.000; -244.000
835.192;  -94.000; -590.000; -533.000
835.443; -113.425; -419.000; -506.000
835.695;  -31.700;  138.000;  -16.000
835.946; -107.450; -608.000; -378.000
836.197; -108.400; -599.000; -622.000
836.448; -101.425; -528.000; -395.000
836.699;  -56.800; -253.000; -341.000
836.950;   -7.975;   72.000;    7.000
837.201; -149.975;-1003.000; -987.000
837.452;  -54.300; -356.000; -170.000
837.703; -129.900; -791.000; -737.000
837.954;  -41.975; -205.000; -365.000
838.205;  -95.475;-1029.000;-1008.000
838.456;  169.050; -196.000; -282.000
838.707;   -7.825; -423.000; -519.000
838.958;   -0.300; -634.000; -647.000
839.209;  273.275;   18.000;   40.000
839.460;  118.200; -439.000; -201.000
839.710;  156.550; -135.000; -297.000
839.961;  418.350;  730.000;  612.000
840.212;  349.175; -382.000; -497.000
840.462; 1180.800; -328.000; -277.000
840.713;18580.000; -571.000; -536.000
840.964; 6782.250;  -62.000; -143.000
841.214;  499.075; -384.000; -624.000
841.465;  571.875; -214.000; -141.000
841.715;  514.300; -417.000; -380.000
841.966;  687.450; -746.000; -685.000
842.216;10260.475; -330.000; -431.000
842.466;35321.450; -169.000; -313.000
842.717; 1740.725; -964.000; -952.000
842.967;  327.075; -635.000; -641.000
843.217;  271.750;   20.000;   28.000
843.468;   72.625; -104.000; -132.000
843.718;  -38.850; -718.000; -726.000
843.968;  -96.275; -837.000; -765.000
844.218;   12.925; -315.000; -262.000
844.469;  -48.700; -577.000; -561.000
844.719; -107.000; -537.000; -682.000
844.969;  -97.000; -550.000; -580.000
845.219; -154.125; -814.000; -862.000
845.469;  -79.000; -392.000; -342.000
845.719; -144.650; -792.000; -884.000
845.969;  -29.925;  119.000;  174.000
846.219; -135.475; -738.000; -720.000
846.469;    2.400;  464.000;  432.000
846.718;  -45.100; -115.000;   31.000
846.968; -137.100; -827.000; -827.000
847.218;  -61.625; -224.000; -371.000
847.468;   -3.900; -586.000; -555.000
847.718; -156.275; -827.000; -798.000
847.967; -136.175; -826.000; -915.000
848.217;  -97.150; -449.000; -569.000
848.467;  -72.425; -405.000; -376.000
848.716; -108.025; -708.000; -725.000
848.966;   -4.525; -372.000; -358.000
849.215;  -67.350; -428.000; -419.000
849.465; -104.050; -785.000; -615.000
849.714; -147.625;-1132.000;-1150.000
849.964;  -70.375; -551.000; -613.000
850.213;  -39.550; -393.000; -355.000
850.463;   73.450;  137.000;  340.000
850.712;  -11.700; -542.000; -567.000
850.961;    9.225; -739.000; -678.000
851.211;   91.125; -513.000; -504.000
851.460;  167.025; -635.000; -650.000
851.709;  569.400;  -25.000;   18.000
851.958;10934.475; -912.000; -750.000
852.208;12149.800; -859.000; -879.000
852.457;  448.450; -181.000;  -13.000
852.706;   52.450; -791.000; -823.000
852.955;    0.225; -507.000; -528.000
853.204;  -77.500; -521.000; -461.000
853.453;  -90.875; -418.000; -458.000
853.702; -157.625; -660.000; -750.000
853.951; -116.925; -532.000; -520.000
854.200; -126.675; -613.000; -562.000
854.449; -135.850; -695.000; -661.000
854.698; -107.650; -340.000; -279.000
854.946;  -78.900; -181.000; -284.000
855.195; -159.275; -843.000; -868.000
855.444;  -96.350; -395.000; -420.000
855.693; -140.375; -345.000; -432.000
855.941; -104.600; -387.000; -516.000
856.190;  -61.900; -256.000; -382.000
856.439; -130.800; -652.000; -703.000
856.687;  -65.150;  -99.000;  -72.000
856.936; -119.550; -621.000; -323.000
857.184; -195.650;-1067.000;-1020.000
857.433; -111.825; -423.000; -512.000
857.681; -173.700; -989.000; -953.000
857.930;  -78.325; -282.000; -433.000
858.178; -175.200; -856.000; -929.000
858.427; -161.200; -802.000; -781.000
858.675; -124.825; -377.000; -544.000
858.923; -112.550; -527.000; -819.000
859.172; -194.125;-1094.000;-1070.000
859.420;  -94.700; -339.000; -239.000
859.668; -151.525; -624.000; -628.000
859.916;  -35.500;  109.000;  115.000
860.164; -135.050; -699.000; -603.000
860.413;  313.100; -878.000; -696.000
860.661;  205.600; -709.000; -577.000
860.909;  -83.625; -339.000; -325.000
861.157;  -95.750; -277.000; -444.000
861.405; -136.600; -534.000; -670.000
861.653;    8.275;  310.000;  310.000
861.901;  191.100; -543.000; -613.000
862.149;  -19.675; -801.000; -824.000
862.396;  -91.375; -297.000; -187.000
862.644;  -78.675; -368.000; -347.000
862.892;  -37.700;   98.000;  138.000
863.140; -130.675; -549.000; -530.000
863.388; -164.650; -815.000; -759.000
863.635; -136.100; -642.000; -601.000
863.883;  -22.875;  231.000;  190.000
864.131;  -97.275; -288.000; -357.000
864.378; -142.775; -675.000; -540.000
864.626; -108.850; -347.000; -415.000
864.873; -132.850; -556.000; -505.000
865.121; -159.100; -714.000; -799.000
865.368;  -46.250; -173.000;   75.000
865.616;  -47.975;  -33.000;  -40.000
865.863;  -85.600; -462.000; -506.000
866.111; -126.325; -795.000; -824.000
866.358;   20.550; -426.000; -420.000
866.605; 2250.975;  -64.000; -804.000
866.853; 2067.175; -621.000; -537.000
867.100;  -53.225; -728.000; -775.000
867.347; -114.975; -672.000; -611.000
867.594;  -88.150; -740.000; -714.000
867.841;   89.875;   97.000;   17.000
868.089; -162.400; -746.000; -698.000
868.336; -114.250; -477.000; -420.000
868.583; -148.825; -637.000; -741.000
868.830;  -56.500; -131.000; -170.000
869.077; -187.725; -859.000; -787.000
869.324; -126.975; -502.000; -458.000
869.571; -137.050; -398.000; -430.000
869.818; -128.300; -485.000; -439.000
870.065; -104.000; -439.000; -513.000
870.311; -123.400; -456.000; -542.000
870.558; -118.450; -332.000; -311.000
870.805;  -95.175; -320.000; -384.000
871.052; -110.400; -494.000; -369.000
871.298;  -61.875; -204.000; -131.000
871.545;  -69.750; -151.000; -185.000
871.792; -109.650; -173.000; -222.000
872.038;  -72.900;   43.000; -126.000
872.285; -128.475; -496.000; -387.000
872.532;  -98.600; -357.000; -387.000
872.778;   -6.625;  556.000;  403.000
873.025; -111.150; -384.000; -359.000
873.271;   15.525;  501.000;  578.000
873.517;  -44.050; -133.000; -209.000
873.764;  -33.025; -193.000;  -80.000
874.010;  -66.875; -143.000; -230.000
874.257;  -57.425;  123.000;   90.000
874.503; -143.400; -579.000; -479.000
874.749;  -88.125;   31.000;  275.000
874.995;  -83.025;  -80.000;  -20.000
875.242; -140.850; -540.000; -478.000
875.488; -122.100; -414.000; -439.000
875.734;  -47.325; -106.000; -234.000
875.980;  215.325; -872.000;-1032.000
876.226;  366.200; -157.000; -255.000
876.472;   -1.825;  343.000;  237.000
876.718;  -45.000;  184.000;  158.000
876.964;  -53.150;   56.000;   55.000
877.210; -174.775; -547.000; -677.000
877.456; -155.500; -630.000; -557.000
877.702; -188.200; -821.000; -832.000
877.948; -118.525; -377.000; -497.000
878.193;   20.700;  361.000;  255.000
878.439;  -99.300; -487.000; -472.000
878.685; -113.500; -272.000; -343.000
878.931; -136.450; -618.000; -676.000
879.176;  -85.500; -201.000; -201.000
879.422; -194.825; -933.000; -820.000
879.668;   66.600;   10.000;   79.000
879.913;  139.750;   53.000;  137.000
880.159;  -56.375; -112.000;  -17.000
880.404;  -67.575; -152.000; -162.000
880.650;  -49.675;   91.000;  141.000
880.895; -165.850; -670.000; -710.000
881.141; -133.225; -454.000; -428.000
881.386; -157.550; -503.000; -658.000
881.631;  -97.825; -311.000; -166.000
881.877;  -34.125;  112.000;  -13.000
882.122; -158.150; -684.000; -600.000
882.367; -106.425; -136.000; -186.000
882.612;  -78.725;  -80.000; -176.000
882.858; -176.175; -877.000; -823.000
883.103;  -98.375; -297.000; -267.000
883.348; -163.775; -759.000; -852.000
883.593; -161.775; -677.000; -602.000
883.838;  -59.125; -311.000;  -24.000
884.083;   23.450;  353.000;  288.000
884.328;  -95.075; -564.000; -545.000
884.573;  -64.325; -196.000; -143.000
884.818;  203.350; -694.000; -531.000
885.063;  177.475; -348.000; -315.000
885.308; -111.125; -475.000; -398.000
885.553;  -19.975;  245.000;  325.000
885.797; -135.800; -545.000; -615.000
886.042;  -61.250;    8.000;   58.000
886.287;  -95.650; -253.000; -211.000
886.532;  -44.875;   26.000;  204.000
886.776; -103.300; -407.000; -525.000
887.021; -147.850; -621.000; -574.000
887.265; -169.575; -685.000; -689.000
887.510; -153.225; -557.000; -496.000
887.755;  -91.675; -194.000; -164.000
887.999; -151.125; -552.000; -575.000
888.244;  -65.800;  -58.000;  161.000
888.488;   -6.325;  371.000;  393.000
888.732; -149.075; -368.000; -520.000
888.977; -130.475; -622.000; -567.000
889.221; -179.175; -683.000; -659.000
889.465; -134.700; -422.000; -566.000
889.710; -100.775;  -56.000; -299.000
889.954;   -0.225;  579.000;  467.000
890.198; -150.525; -584.000; -707.000
890.442; -165.525; -716.000; -712.000
890.687; -177.025; -800.000; -753.000
890.931; -101.950; -273.000; -210.000
891.175; -140.700; -502.000; -500.000
891.419;  -79.350; -105.000; -110.000
891.663;  -97.200; -239.000; -112.000
891.907; -176.500; -801.000; -545.000
892.151; -180.125; -920.000; -815.000
892.395; -118.975; -274.000; -387.000
892.638;  -20.525;  408.000;  291.000
892.882; -179.350; -780.000; -867.000
893.126;   13.000;  758.000;  558.000
893.370;  -96.575; -167.000; -168.000
893.614; -153.350; -714.000; -715.000
893.857; -107.525; -183.000; -197.000
894.101; -147.975; -527.000; -631.000
894.345;  -78.100;  300.000;  150.000
894.588;    5.425;  569.000;  380.000
894.832;  -89.850; -178.000;  -84.000
895.075;  -82.675;   15.000;  -92.000
895.319; -139.475; -552.000; -420.000
895.563; -125.800; -413.000; -353.000
895.806; -152.675; -628.000; -741.000
896.049;  -72.125; -576.000; -368.000
896.293;  100.300;  527.000;  405.000
896.536;  -87.950; -465.000; -468.000
896.779;  -77.600; -149.000;   -1.000
897.023; -148.625; -751.000; -714.000
897.266;  -26.825;  325.000;  269.000
897.509; -193.600; -900.000; -901.000
897.752;  -55.600;  149.000;  171.000
897.996; -218.450; -972.000; -864.000
898.239;  -46.800;  168.000;  102.000
898.482; -126.700; -431.000; -453.000
898.725;  -40.575;  101.000;   53.000
898.968; -167.275; -609.000; -744.000
899.211; -119.850; -513.000; -361.000
899.454; -132.325; -633.000; -539.000
899.697;  -81.325;   90.000;  -43.000
899.940; -166.275; -761.000; -757.000
900.182; -118.200; -335.000; -405.000
900.425;  -98.650; -150.000; -298.000
900.668;  -30.525;  491.000;  350.000
900.911; -105.125; -292.000; -345.000
901.154;  -52.425;  141.000;   -3.000
901.396; -141.675; -407.000; -412.000
901.639; -158.325; -430.000; -496.000
901.882; -197.000; -790.000; -809.000
902.124;  -78.950;  -29.000; -143.000
902.367; -134.000; -315.000; -361.000
902.609; -140.700; -476.000; -453.000
902.852;  -99.025; -108.000; -260.000
903.094; -140.350; -458.000; -337.000
903.337;  -73.250;  -26.000;   53.000
903.579; -116.425; -228.000; -441.000
903.821; -161.725; -597.000; -744.000
904.064;  -75.400;   85.000;  127.000
904.306;  -95.050; -126.000; -166.000
904.548; -123.975; -152.000; -366.000
904.790; -108.525; -195.000; -340.000
905.033; -150.325; -625.000; -577.000
905.275; -138.750; -513.000; -524.000
905.517;   39.600;  468.000;  256.000
905.759;  -70.600; -667.000; -761.000
906.001; -105.875; -322.000; -369.000
906.243;  -81.100; -162.000; -224.000
906.485;  133.250; -265.000; -207.000
906.727;   99.325; -499.000; -542.000
906.969;  -33.075;  -30.000; -135.000
907.211;  122.850; -316.000; -382.000
907.453;  287.000; -188.000; -237.000
907.695;   -3.200; -158.000; -385.000
907.936;   30.725;  818.000;  706.000
908.178;  -66.700;   92.000; -135.000
908.420;  -75.075; -111.000; -162.000
908.662; -156.825; -633.000; -682.000
908.903; -103.225; -208.000; -123.000
909.145;  -78.000; -240.000; -305.000
909.386;   -1.675;  315.000;  280.000
909.628;   25.250;  363.000;  397.000
909.870;   -2.025;   29.000;  264.000
910.111; -117.900; -809.000; -949.000
910.353;   -1.300; -123.000; -161.000
910.594;  -20.800; -574.000; -606.000
910.835;   76.250; -265.000; -326.000
911.077;  140.350; -503.000; -604.000
911.318;  273.250; -505.000; -471.000
911.559;  457.625; -577.000; -880.000
911.801; 1375.025; -284.000; -280.000
912.042;10970.425;  -50.000; -159.000
912.283;26508.150;  404.000;  371.000
912.524; 3640.925; -396.000; -457.000
912.765;  451.150; -193.000;   79.000
913.006;  236.300; -307.000; -338.000
913.247;   29.700; -270.000; -290.000
913.488;  -17.875;  -43.000;   30.000
913.729;  -88.350; -373.000; -373.000
913.970;  -66.075;  -96.000; -292.000
914.211;  -90.250; -160.000; -198.000
914.452;  -70.650; -118.000;  -11.000
914.693;   -0.775;  510.000;  592.000
914.934;   -3.000;  510.000;  440.000
915.175;  -81.000;   53.000;  -95.000
915.415;  -89.150; -137.000;   27.000
915.656;  -70.975;  -28.000;  192.000
915.897; -108.950; -252.000;  -82.000
916.137;  -86.225;   74.000;   -9.000
916.378; -136.225; -573.000; -517.000
916.619; -100.625; -159.000;  -63.000
916.859;  -31.450;  303.000;  330.000
917.100;  128.700; 1655.000; 1070.000
917.340;   41.900;  930.000;  728.000
917.581;   37.500;  965.000;  789.000
917.821;  -33.525; -171.000;  143.000
918.061;    3.250; -199.000;  -72.000
918.302;  -60.425; -152.000; -211.000
918.542;  -33.800;  -22.000;    3.000
918.782;   26.900;  369.000;  377.000
919.023;  134.575;  360.000;  427.000
919.263; 1376.000; 8131.000;  202.000
919.503; 1116.400; -137.000;  -54.000
919.743;  668.975;  390.000;  266.000
919.983;  248.325; -134.000;  -26.000
920.223;   63.675;  135.000;   14.000
920.463;  133.525;  631.000;  554.000
920.703;  142.000;   84.000;   39.000
920.943;  149.350; -110.000;   90.000
921.183;  216.675; -414.000; -405.000
921.423;  491.550;  307.000;  546.000
921.663;  694.725; -174.000; -257.000
921.903; 1578.850;  237.000;  173.000
922.143; 8935.550;  372.000;  389.000
922.383;33321.150;  158.000;  115.000
922.622;10203.550; -120.000;  -15.000
922.862; 1099.825;  796.000;  785.000
923.102;  409.800;  -51.000;   33.000
923.341;  154.875;   59.000;   74.000
923.581;   68.150;  450.000;  360.000
923.821;    7.750;  301.000;  398.000
924.060;   -0.575;  351.000;  193.000
924.300;  -69.275;  -16.000; -128.000
924.539;  -15.525;  584.000;  473.000
924.779;    8.675;  812.000;  597.000
925.018;  -47.075;  247.000;  353.000
925.257;   -2.950;  595.000;  666.000
925.497;  -36.250;  447.000;  412.000
925.736;  -66.125;  -35.000;  102.000
925.975;   -7.000;  687.000;  669.000
926.214;   13.750;  907.000;  850.000
926.454;   13.925;  706.000;  757.000
926.693;  -52.475;  419.000;  543.000
926.932;   38.850; 1021.000;  825.000
927.171;   62.300; 1107.000; 1044.000
927.410;   67.575; 1144.000;  967.000
927.649;   17.950;  924.000;  742.000
927.888;  -14.625;  590.000;  564.000
928.127;  -24.650;  680.000;  678.000
928.366;   13.975;  842.000;  826.000
928.605;   38.400;  831.000;  737.000
928.844;  235.650; 1451.000; 1393.000
929.083;  613.225;  770.000;  613.000
929.321;  306.625; 1335.000; 1359.000
929.560;   78.250; 1158.000; 1122.000
929.799;  -30.050;  574.000;  475.000
930.038;   77.225; 1025.000; 1394.000
930.276;  -50.475;  334.000;  397.000
930.515;  -13.350;  827.000;  681.000
930.753;  -17.750;  614.000;  589.000
930.992;  -36.925;  664.000;  717.000
931.230;   -1.975;  847.000;  847.000
931.469;  154.925; 2162.000;  892.000
931.707;   66.925;  840.000;  751.000
931.946;   61.800; 1278.000; 1344.000
932.184;   52.325; 1437.000; 1175.000
932.423;   59.800; 1265.000;  963.000
932.661;   90.325; 1296.000; 1428.000
932.899;   21.425;  987.000;  821.000
933.137;    2.500;  754.000;  564.000
933.376;  146.000; 1664.000; 1335.000
933.614;  143.250; 1759.000; 1196.000
933.852;   38.500; 1357.000; 1171.000
934.090;  143.625; 1722.000; 1747.000
934.328;   97.825; 1252.000; 1457.000
934.566;   74.650; 1431.000; 1110.000
934.804;  123.575; 1263.000; 1309.000
935.042;  437.050; 1861.000; 1850.000
935.280; 1754.525; 2088.000; 2063.000
935.518; 1546.750; 2113.000; 2007.000
935.756;  330.075; 2481.000; 2316.000
935.994;  156.150; 1808.000; 1751.000
936.231;  341.425; 2890.000; 2950.000
936.469;  202.650; 2367.000; 2378.000
936.707;  168.450; 2220.000; 2167.000
936.945;  236.375; 2825.000; 2882.000
937.182;  209.550; 2679.000; 2741.000
937.420;  282.525; 3602.000; 3031.000
937.657;  422.800; 3365.000; 3478.000
937.895;  353.250; 3331.000; 3488.000
938.133;  311.475; 3540.000; 3528.000
938.370;  325.875; 3896.000; 4191.000
938.607;  399.400; 4488.000; 4205.000
938.845;  546.750; 5587.000; 5549.000
939.082;  472.175; 5387.000; 5177.000
939.320;  541.600; 5799.000; 5728.000
939.557;  614.750; 6549.000; 6491.000
939.794;  724.875; 7285.000; 7097.000
940.031;  910.325; 8421.000; 8368.000
940.269; 1132.100; 9552.000; 9107.000
940.506; 1145.300;10901.000;10507.000

