
Integration time [ms]: 100.000
Averaging Nr. [scans]: 40
Smoothing Nr. [pixels]: 0
Data measured with spectrometer [name]: 2101013U2
Wave   ;Sample   ;Dark     ;Reference
[nm]   ;[counts] ;[counts] ;[counts] 

394.013;   58.550; -450.257; -315.536
394.305;  185.123; -461.258; -419.536
394.596; 1089.045; -676.269; -527.514
394.887; 2777.362; -796.268; -654.518
395.178; 1073.867;  145.736;   11.476
395.470;   60.753; -210.263; -356.526
395.761;  182.751;  305.734;  394.479
396.052;  234.895; -545.284; -306.489
396.343;  246.340; -557.276; -454.503
396.634;   89.008; -200.279; -290.497
396.926;   92.984; -618.268; -565.517
397.217;   97.044;   11.725;  -17.504
397.508;   58.210; -366.273; -154.507
397.799;   47.308; -555.279; -571.497
398.090;   -8.972; -973.280; -902.495
398.381;  110.945;   11.708;  -11.473
398.672;  -14.379; -585.292; -742.473
398.963;   37.589; -348.279; -373.498
399.254;   97.655;   54.709; -209.475
399.545;  -49.127;-1017.266; -883.520
399.836;   46.554; -407.277; -343.501
400.127;   42.771; -205.295; -209.468
400.418;   32.729; -423.274; -392.506
400.709;   40.740; -359.281; -333.493
401.000;   34.009; -268.291; -309.476
401.290;   91.383;  225.698;  115.545
401.581;   64.278; -166.286; -228.485
401.872;    4.468; -542.298; -486.462
402.163;   49.264; -313.296; -252.467
402.454;   74.881; -123.291; -163.475
402.744;   64.880; -844.297; -813.465
403.035;  393.186; -226.293;  -86.471
403.326;  529.424; -366.292; -384.474
403.617;  352.163;  204.701;  165.539
403.907;  234.551; -593.283; -679.490
404.198; 2413.912; -545.307; -599.446
404.489; 6325.131; -618.283; -588.491
404.779; 2079.537; -618.302; -660.456
405.070;  228.290;  -67.304; -174.451
405.360;  344.963; -259.293; -238.472
405.651;  367.098;  125.699;   98.542
405.942;  152.948;  209.714;  127.516
406.232;  217.787; -432.285; -413.487
406.523;  429.656;  641.706;  758.530
406.813;   80.700; -579.286; -644.484
407.104;  320.594;  261.708;  144.527
407.394;  148.764; -604.299; -591.462
407.685;  136.137;  336.715;  222.513
407.975;   68.629; -400.283; -382.490
408.265;   94.020; -134.289; -190.478
408.556;   53.603; -472.291; -459.475
408.846;  171.207;  474.706;  429.530
409.137;   73.104;   -1.288; -216.480
409.427;   40.987; -193.285; -271.487
409.717;   29.338; -776.273; -692.508
410.007;  122.631;    4.715; -170.486
410.298;   90.974; -360.295; -342.469
410.588;   61.460; -495.285; -510.486
410.878;   21.640; -792.287; -873.482
411.168;  105.671; -481.298; -478.463
411.459;  117.999; -295.283; -242.489
411.749;   52.251; -609.292; -507.474
412.039;   48.002; -755.289; -386.480
412.329;  198.097;   40.722;  132.501
412.619;  191.726;  -62.286; -148.485
412.909;  350.098;  639.711;  594.521
413.199;  299.828; -130.280; -251.495
413.490;  385.614;  521.710;  352.523
413.780;  138.082;-1013.279; -913.496
414.070;  321.741;  -46.276;  235.497
414.360;  356.643; -729.278; -666.498
414.650;  413.936; -726.288; -688.482
414.940;  538.006; -538.280; -441.496
415.230;  915.033;   50.712;   74.519
415.520; 6161.944;  155.730;   66.486
415.809;24266.139; -305.281; -125.493
416.099;18994.706; -388.277; -229.501
416.389; 5302.577;  435.726;  236.494
416.679; 3153.107;   91.738;   85.473
416.969;  534.694; -527.287; -503.483
417.259;  580.609;  341.721;  171.503
417.549;  688.938;  522.718;  318.508
417.838; 1701.311; -205.268; -147.518
418.128; 5587.594;  650.710;  492.522
418.418; 4739.394; -491.272; -579.509
418.708; 3150.977;    9.726;  -48.506
418.997;11840.998; -474.275; -480.505
419.287;12501.384; -733.273; -790.507
419.577;11859.648; -160.283; -123.489
419.866;39033.479; -588.277; -498.501
420.156;39968.615; -242.270;  -55.513
420.446; 7211.249; -112.263;  -26.526
420.735;  860.534; -376.271; -446.512
421.025;  811.767; 1830.722;  315.502
421.314;  604.957; -203.271; -226.512
421.604; 1235.354;   89.732;  233.484
421.893;  734.903; -705.271; -602.511
422.183;  218.974; -487.263; -461.526
422.472;  366.230;  -36.271; -107.511
422.762;  415.779; -416.266; -379.521
423.051;  231.316; -916.276; -916.503
423.341;  273.511; -491.273; -439.507
423.630;  405.535; -121.265;   15.477
423.919;  379.072;   58.725;   49.495
424.209;  369.480;  -31.263;   56.473
424.498;  488.608;   68.732;  161.483
424.787; 1107.165; -535.267; -601.518
425.077; 3347.833;   34.735;   29.478
425.366; 4616.060; -734.262; -744.528
425.655;10074.187;  639.727;  259.493
425.945;22540.764; -313.247; -268.554
426.234;12534.758;  117.741;  300.467
426.523; 5131.263;  -86.259; -350.534
426.812; 7056.475;  107.734;  159.480
427.101;10469.325; -127.269; -323.515
427.390;13093.194;  -55.270;  -86.514
427.680; 2823.258; -624.257; -411.538
427.969;  457.294; -330.255; -301.540
428.258;  305.250; -385.257; -477.536
428.547;  525.599;  449.728;  397.490
428.836; 1122.460; -421.253; -398.543
429.125; 1640.490; -199.259;  -72.534
429.414;  786.932; -330.251; -294.548
429.703; 3118.782; -231.251; -213.548
429.992; 9534.836; -938.250; -828.549
430.281; 6249.267; -397.264; -331.524
430.570;  556.898;  -21.252;   32.454
430.859;  522.163;  279.741;  352.466
431.148;  425.435;  636.752;  631.446
431.437;  282.647;  391.748;  367.454
431.725;  159.576; -544.257; -481.536
432.014;  114.642; -845.253; -756.545
432.303;  366.610; -149.239; -105.569
432.592;  575.999; -460.263; -178.525
432.881; 1051.961; -601.248; -437.554
433.169; 6348.820; -343.255;  -61.540
433.458;12901.669;  445.765;  540.424
433.747; 5400.316; -397.261; -289.529
434.036;  853.611; -275.242; -280.564
434.324; 2090.548; -395.249; -379.551
434.613; 3718.755;   40.757;  159.437
434.902; 1210.801;  333.760;  439.433
435.190;  480.134;   75.761;  295.431
435.479;  277.537;  -52.245;   83.441
435.767;   85.095; -411.244; -427.561
436.056;  195.957; -340.242; -294.563
436.345;  360.003; -372.240; -223.568
436.633;  366.244;   60.750;  383.450
436.922;  242.505;  208.760;  414.432
437.210;  495.759; -194.236;    1.426
437.499; 1562.642; -583.235; -432.576
437.787; 1779.509; -339.236;  -10.574
438.075;  450.090;   56.761;  162.430
438.364;  620.892;  -44.238;  250.429
438.652;  373.047; -286.226; -138.592
438.941;  117.286;    3.770;  269.415
439.229;   -6.555; -665.252; -466.545
439.517;   27.726; -160.234;  -85.577
439.806;  -22.312; -501.225; -290.595
440.094;  173.208;  377.766;  650.421
440.382;  133.262; -653.233; -302.580
440.670;  157.117; -361.235; -285.576
440.959;   26.305; -347.223; -170.599
441.247;   63.297; -151.229; -109.587
441.535;   96.324; -266.235;   31.423
441.823;   35.381; -497.234; -305.578
442.111;  170.602;  173.771;  327.412
442.400;  432.036; -628.245; -335.559
442.688; 1189.908; -111.234; -620.579
442.976;  829.617; -786.213; -450.617
443.264;   84.594; -324.224; -364.597
443.552;   86.773; -258.226;   51.408
443.840;  164.098;  602.765;  876.423
444.128;  100.011;  265.767;  269.420
444.416;   -0.171; -694.228; -312.588
444.704;   15.684; -465.219;  -92.605
444.992;   74.451;   -0.226;  240.407
445.280;   35.437; -517.230;  -94.585
445.568;   29.546; -694.212; -396.618
445.856;  301.644; -174.221;  357.398
446.143;  636.106;  -54.220;   -7.604
446.431;  533.233;  -25.228;  625.411
446.719;  229.354;  489.783;  675.391
447.007;  178.731;  481.769;  705.416
447.295;  183.777;  597.777;  871.402
447.583;   73.870; -464.229;  -34.587
447.870;  144.790; -434.221; -202.601
448.158;  367.935; -104.230;  129.415
448.446;  272.857; -800.219; -338.604
448.733;  175.371;   13.776;  269.403
449.021;  240.795;   60.788;  341.382
449.309;  159.260; -296.210;  208.379
449.596;  207.500;  128.783;   59.392
449.884;  137.784; -571.222; -325.600
450.172;  164.213; -756.227; -406.590
450.459;  449.251;  645.786;  780.387
450.747; 2509.598; -411.218; -147.608
451.034; 7903.834;  493.772;  889.411
451.322; 6533.579; -413.214; -170.614
451.609;  543.647;  292.777;  508.403
451.897;  604.248; -550.203; -183.634
452.184; 1857.377; -622.223; -400.598
452.472; 1713.632;   97.792;  269.375
452.759;  336.132;  512.781;  864.395
453.047;   85.043; -407.212; -125.617
453.334;   51.690; -732.219; -216.606
453.621;   56.956; -438.214; -161.615
453.909;   99.265;   13.796;  384.368
454.196;  100.160; -299.199; -123.641
454.483;  198.136;  317.798;  540.364
454.771;  117.160; -215.208;  196.374
455.058;   34.163; -316.207;  102.374
455.345;  107.590;   71.807;  344.347
455.632;   94.041; -128.207;  235.373
455.919;   42.383;  -82.196;  182.354
456.207;  -59.385; -774.198; -450.642
456.494;  -12.677; -475.200;  -66.639
456.781;    0.082; -399.202; -198.635
457.068;   49.748; -253.206;  -29.628
457.355;  -16.601; -698.206; -401.629
457.642;   -8.596; -552.205; -290.630
457.929;   -1.319; -778.194; -417.651
458.216;   55.418; -575.212; -354.617
458.503;  236.611; -173.193;  -19.652
458.790;  249.358; -864.208; -630.625
459.077;  263.787;  -77.202;  110.364
459.364;  819.799; -350.195; -210.649
459.651; 1751.721;  -46.206;  220.372
459.938;  818.623; -864.209; -665.623
460.225;  133.365;  132.799;  276.363
460.512;  -45.595; -836.197; -688.645
460.799;   97.647;  -32.218;  320.392
461.086;   60.603; -370.200; -251.640
461.372;   36.615; -509.198; -279.642
461.659;  112.084; -165.196;  108.354
461.946;   42.010; -445.193;  -54.651
462.233;  239.300;  842.800;  888.361
462.519;  336.747; -814.201; -464.639
462.806; 1037.281; -768.197; -497.645
463.093;  903.305; -445.191;  -66.656
463.380;  -25.104; -920.186; -824.664
463.666;   39.082; -259.197;  -18.646
463.953;   95.869; -406.195; -243.648
464.239;  206.894; -173.195;  -77.648
464.526;  372.655;  413.806;  743.350
464.813;  305.717; -565.190; -304.658
465.099;  341.886;  606.807;  607.348
465.386;  304.815;  903.807;  921.348
465.672;   12.156; -694.197; -522.645
465.959;    2.535; -598.188; -520.662
466.245;   14.890; -468.193; -359.652
466.532;   82.492; -109.195;   63.352
466.818;   52.046; -357.186; -216.664
467.104;   -8.314; -488.182; -415.672
467.391;  -31.556; -628.189; -459.658
467.677;   25.625; -289.186;    9.335
467.964;    7.025; -682.189; -471.660
468.250;   49.052; -331.186; -160.665
468.536;   80.170;   90.811;  180.341
468.822;  -27.686; -821.184; -574.668
469.109;  138.267;  351.827;  471.311
469.395;  184.324;  729.808;  787.346
469.681;  183.248;   46.811;  156.341
469.967; 1264.828; -699.188; -382.660
470.254; 2768.486; -494.188; -306.662
470.540; 1787.783; -601.196; -476.646
470.826;  241.247; -488.181; -397.675
471.112;  297.368;  288.816;  113.331
471.398;   85.547; -253.183;  -58.670
471.684;   23.125; -626.177; -447.680
471.970;  -15.099; -918.180; -981.675
472.256;   17.848; -521.192; -441.654
472.542;   13.752; -499.171; -434.691
472.828;   -3.193; -743.182; -607.672
473.114;   18.671; -380.166; -283.700
473.400;  -10.308; -504.175; -293.684
473.686;   32.877; -452.166; -400.701
473.972;   60.731; -230.174; -131.687
474.258;  -46.283; -925.173; -843.689
474.544;  209.892; -183.178;   -2.679
474.830;  347.069;  -65.175;   45.316
475.116;  506.918; -123.190; -196.658
475.401;  690.003; -558.180; -467.676
475.687;  187.177; -725.180; -718.676
475.973;   -3.335; -673.181; -770.673
476.259;  245.396;  736.825;  764.315
476.544;  364.458; -539.176; -437.682
476.830;  851.824; -398.172; -322.690
477.116;  770.232; -430.177; -336.682
477.401;  144.453;  346.820;  358.324
477.687;  -23.658; -289.175; -405.684
477.973;   40.444;   21.819;   28.326
478.258;   -7.303; -448.163; -348.706
478.544;   32.883;   21.815;   61.334
478.829;  -60.342; -818.171; -738.692
479.115;  -56.802; -749.172; -651.690
479.401;  -14.098; -444.174; -449.686
479.686;   13.827; -253.180;  -74.676
479.972;  -42.503; -886.178; -776.680
480.257;   32.147; -258.166;  -65.700
480.542;  -19.313; -614.170; -469.693
480.828;  221.565; 1288.824; 1392.317
481.113;  -35.662; -464.176; -426.683
481.399;  -17.279; -236.161; -202.711
481.684;  -56.953; -620.166; -462.700
481.969;   18.685; -158.159;  -73.713
482.255;    1.773; -439.169; -285.695
482.540;   -6.327; -569.178; -441.680
482.825;    2.291; -395.187; -404.663
483.110;   75.126;  -85.169; -105.696
483.396;  198.006; -840.157; -652.718
483.681;  496.732;  543.826;  730.313
483.966;  184.979; -696.160; -700.712
484.251;  -13.744; -404.174; -310.687
484.536;    3.282; -356.165; -378.703
484.822;   16.634; -205.173; -218.687
485.107;  -35.381; -599.152; -502.726
485.392;  125.263;  662.836;  541.296
485.677;   66.486;  354.832;  163.302
485.962;   89.604;  160.843;  270.283
486.247;   89.055;  -14.162;   -8.707
486.532;   48.598; -178.166; -325.701
486.817;  156.741;  381.839;  431.291
487.102;  123.327; -453.154; -514.722
487.387;  705.333; -637.156; -652.718
487.672; 1219.243; -154.164;  -38.705
487.957;  778.823; -394.160; -286.711
488.241;  205.561; -290.150; -314.729
488.526;  775.520; -280.152; -148.726
488.811; 1245.599; -881.177; -818.680
489.096;  927.830; -666.154; -702.723
489.381;  511.492;    3.847;  162.275
489.666;  409.421; -428.161; -510.710
489.950;  168.108;  558.846;  627.277
490.235;  -31.169; -480.151; -458.728
490.520;  -55.530; -756.161; -723.710
490.804;  -68.815; -827.156; -736.719
491.089;  -12.599; -469.149; -299.732
491.374;   30.117; -132.164;  -75.704
491.658;  -27.287; -817.147; -717.735
491.943;  165.150; -657.152; -609.727
492.227;  243.398; -178.155;  -38.721
492.512;   50.128; -294.157; -341.717
492.797;  -72.030; -713.149; -716.731
493.081;  -47.084; -588.147; -598.735
493.366;  -41.979; -751.161; -635.711
493.650;  206.543;  831.859;  917.254
493.935;   27.912; -648.147; -447.734
494.219;  -44.769; -778.142; -687.743
494.503;  -51.210; -585.150; -487.730
494.788;   50.220;   46.842;   74.285
495.072;  101.237;  184.850;  434.271
495.356;  177.130; -463.148; -343.733
495.641;  445.472; -812.146; -736.736
495.925;  431.290; -976.156; -903.719
496.209;   19.901; -599.149; -451.732
496.494;  -53.044; -763.142; -544.744
496.778;   -3.723; -364.154; -360.722
497.062;  -67.536; -819.156; -627.719
497.346;  -38.576; -869.160; -640.711
497.631;  153.658;  580.852;  560.266
497.915;   69.308;  -64.145;  175.261
498.199;   52.681; -341.157; -277.718
498.483;   30.394; -562.152; -508.725
498.767;  183.463;  301.850;  300.271
499.051;  185.574; -126.149; -100.732
499.335;   40.572; -693.149; -739.731
499.619;  -31.531; -381.129; -423.767
499.903;   13.322; -272.155;  -65.721
500.187;   26.234; -588.153; -316.724
500.471;   19.299; -796.152; -595.727
500.755;  104.945;   62.839;  -96.710
501.039;   14.122; -270.155; -357.721
501.323;   66.520;  -21.141;  264.254
501.607;   31.673; -447.163; -503.706
501.891;    4.308; -607.156; -512.718
502.174;  -39.981; -726.144; -585.741
502.458;   67.578;   89.849;  370.273
502.742;   49.219; -180.138; -191.751
503.026;  113.862; -412.147; -254.734
503.310;  176.908; -437.159; -375.713
503.593;  123.513; -464.147; -325.735
503.877;  114.234; -232.133; -156.760
504.161;  153.187;    2.847;  -50.724
504.444;  120.972; -841.158; -710.716
504.728;  475.066; -487.164; -522.704
505.012;  744.210; -257.150;  -76.729
505.295;  543.046; -417.161; -212.711
505.579;  556.214; -256.156; -496.719
505.862;  796.429; -555.145; -333.738
506.146;  781.436; -681.159; -758.714
506.429;  412.886;  568.841;  461.286
506.713;   67.332; -732.151; -667.728
506.996;  320.952;   90.846;  295.278
507.280;  354.536; -633.165; -474.703
507.563;  238.945; -469.155; -261.721
507.847;   94.285; -423.153; -112.724
508.130;   96.422; -665.161; -456.711
508.413;  110.393; -758.167; -577.700
508.697;  249.718; -151.167;   12.300
508.980;  156.287; -422.153; -312.724
509.263;  -16.208; -466.155; -450.720
509.547;   31.810; -124.150;   82.271
509.830;   29.249; -172.160;  140.289
510.113;   90.614;  128.844;  298.281
510.396;   24.167; -530.152; -300.725
510.680;  120.005; -818.145; -812.738
510.963;  522.581;  184.846;  180.277
511.246;  440.667; -493.150; -357.730
511.529;  254.860; -482.145;  -83.739
511.812;  390.881; -250.134;   10.241
512.095;  273.979; -740.151; -396.728
512.378;   85.867; -317.147; -245.736
512.661;   23.627; -703.137; -623.753
512.944;   33.783; -750.142; -637.744
513.227;   58.499; -170.137; -171.752
513.510;   22.869; -479.144; -671.741
513.793;   18.849; -485.140; -435.747
514.076;  117.540;  -43.127;  -39.771
514.359;   99.327; -294.149; -135.732
514.642;   83.536; -442.142; -567.744
514.925;  788.198;  581.860;  561.253
515.208; 1054.552; -498.134; -443.758
515.491;  671.466; -276.133; -182.761
515.773;  384.872; -410.143; -337.742
516.056; 2206.258;  249.864;  409.246
516.339; 2888.212; -754.136; -652.755
516.622; 1850.690; -518.150; -488.730
516.904; 1092.354;  882.857;  975.257
517.187;  495.822; -730.138; -523.752
517.470;  391.003; -568.143; -510.743
517.752;  448.490; -624.136; -470.756
518.035;  363.635; -708.139; -725.749
518.318;  392.112; -799.136; -744.755
518.600; 2573.844; -300.132; -325.762
518.883; 3525.410;  310.858;   88.256
519.165; 1710.340; -585.138; -426.751
519.448;  386.669;  -61.132;  -19.762
519.730;  194.572; -573.126; -415.773
520.013;  290.712;  588.867;  664.240
520.295;  734.457;  -94.134;  -15.759
520.578; 1613.382; -335.131; -305.764
520.860; 1858.569; -254.132;   56.238
521.143;  998.067; -763.135; -584.756
521.425;  474.635; -251.125; -279.775
521.707;  697.865; -622.127; -380.771
521.990; 1870.516; -199.127;  167.229
522.272; 2102.176; -116.140;   -4.748
522.554;  915.198; -237.143; -157.742
522.836;  338.230;  -24.134;   99.241
523.119;  205.186; -496.148; -189.734
523.401;  133.964; -448.130; -314.766
523.683;   81.327; -865.137; -693.753
523.965;  290.945;  408.862;  260.248
524.247;  287.631;   54.878;  170.220
524.529;  197.307; -451.134; -367.759
524.812;  350.216;   -3.130;  191.234
525.094;  892.770; -773.138; -631.751
525.376; 1426.394; -143.124;   78.223
525.658;  865.909; -441.136; -339.754
525.940;   14.954; -805.131; -671.764
526.222;   18.413; -188.136;  -88.755
526.504;  100.927; -190.131;   32.237
526.786;  151.810; -960.133; -647.760
527.068;  257.300; -124.123;  -67.778
527.349;   98.206; -865.137; -774.754
527.631;  139.469; -137.132;   22.238
527.913;  135.064; -664.127; -450.771
528.195;  178.353; -761.125; -639.774
528.477;  263.577;  -93.134;  -30.758
528.759;  128.216; -648.130; -522.766
529.040;   67.873; -569.123; -293.778
529.322;   53.856; -235.125;  -10.774
529.604;  125.593;  -47.130;   93.233
529.886;  125.097; -546.126; -302.773
530.167;  111.510;  232.870;  192.235
530.449;   55.842;    1.853;   63.265
530.731;   21.005; -572.122; -459.779
531.012;   78.726; -513.120; -216.784
531.294;   83.440; -118.116;  -43.792
531.575;  155.735;  290.875;  538.225
531.857;   64.097; -548.135; -266.757
532.138;   95.619; -113.141;   40.254
532.420;  165.018;  294.865;  403.244
532.701;  198.037; -722.133; -751.760
532.983;  327.040;  232.867;  182.239
533.264;  115.745; -243.126;  175.228
533.546;  -49.788; -491.136; -508.755
533.827;   40.409;  173.867;   -1.759
534.109;   26.697; -352.135;  -80.757
534.390;   81.823; -725.132; -582.762
534.671;  245.318; -270.135;  -82.756
534.953;  140.126; -751.123; -611.779
535.234;   22.050; -426.117; -255.789
535.515;  -68.716; -891.119; -735.785
535.796;  -19.165; -431.128; -193.770
536.078; -120.106;-1050.124; -904.777
536.359;   -0.598;  -22.123;    3.221
536.640;  -19.770; -480.125; -197.774
536.921;  151.723;  225.871;  143.232
537.202;  371.892;  -87.138;  -16.751
537.483;  477.556;  251.869;  377.236
537.764;  176.235;   17.870;   98.235
538.045;  -43.649; -543.134; -371.758
538.326;  -40.450; -596.129; -447.768
538.607;   -0.359; -686.127; -476.771
538.888;  178.842;   98.879;    5.218
539.169;  184.062; -704.122; -535.781
539.450;  362.897;  236.871;   16.233
539.731;  205.871; -361.121; -182.783
540.012;  127.651;  199.880;  412.216
540.293;   74.914;   82.876;  158.224
540.574;   -7.239; -895.113; -717.796
540.855;  427.795;  435.879;  377.218
541.136;  534.534;   47.878;  139.220
541.416;  256.041; -161.130; -220.766
541.697;  197.902; -274.131; -170.763
541.978; 1053.745; -270.135; -315.757
542.259; 1369.066; -211.127; -236.771
542.539;  659.359; -191.116; -186.790
542.820;  187.860;  461.875;  480.225
543.101;  127.582;  -52.145;  -77.738
543.381;   21.891; -638.127; -591.771
543.662;  258.438;  159.873; -254.771
543.942;  604.086; -751.127; -830.770
544.223; 1061.186;  193.878;  161.219
544.504;  720.119; -275.124; -182.777
544.784;  598.697; -592.126; -408.773
545.065; 1671.488;  104.884; -254.791
545.345; 2009.985;  227.881;   14.215
545.626; 1347.960;  -14.113; -108.796
545.906;  937.059;   77.869;   98.235
546.186;  390.052;   92.874;  -95.773
546.467;  190.621;   99.877;  -95.778
546.747;  344.334;  264.884;  327.210
547.027;  395.992;   91.876;  111.223
547.308;  340.961; -376.127; -530.770
547.588;  416.875;  299.871;  371.232
547.868;  218.685;  458.870;  588.235
548.149;  203.045;  609.885;  593.207
548.429;  126.164; -347.127; -299.771
548.709;  192.751; -645.120; -461.784
548.989;  497.019;   84.882;   88.213
549.269; 2233.192;   10.868;  139.239
549.550; 5024.625;  215.877;  117.222
549.830; 4547.603; -758.111; -556.799
550.110;  909.160; -468.110; -320.801
550.390;  864.106; -128.122;  -56.779
550.670; 1166.081; -868.114; -783.795
550.950;  854.019; -509.121; -471.782
551.230;  195.065;  549.879;  460.218
551.510;   -4.207; -381.121; -326.782
551.790;   38.168; -173.109; -127.803
552.070;  280.396;  940.877; 1181.223
552.350;  443.813; -492.119; -377.786
552.630;  627.763;   -2.121;   77.219
552.909;  398.313;  181.884;   73.209
553.189;  235.849;  -49.132;   33.237
553.469;  207.613; -703.119; -514.786
553.749;  190.717; -469.127; -357.772
554.029;  169.504;   33.883;  -24.790
554.308;  142.449; -154.115;  -37.794
554.588;   76.584; -196.128; -204.770
554.868;   61.895; -366.121;  -47.782
555.147;  169.121; -114.115;  -46.793
555.427;  631.540; -260.116; -250.792
555.707; 4061.869; -284.115; -200.793
555.986; 4973.281; -719.111; -538.800
556.266; 2621.282;   23.884;   72.210
556.546;  131.693; -888.121; -675.782
556.825;  261.078; -657.114; -556.794
557.105; 1884.007; -125.128;   17.230
557.384; 2191.862;  122.884;  187.209
557.664;  857.590; -717.116; -508.792
557.943;  136.969; -557.121; -411.782
558.222;  202.297; -345.118; -344.788
558.502;  287.873; -116.115;  -76.793
558.781;  515.818;  194.885;  499.208
559.061;  426.447; -232.118; -227.788
559.340;  286.402;  302.883;  353.211
559.619;  739.132;   93.884;  148.210
559.899; 1061.054; -239.117; -266.789
560.178;  988.847; -778.115; -593.793
560.457; 3335.405; -623.117; -562.790
560.736; 4589.682; -472.111; -482.800
561.015; 3104.330; -500.128; -502.769
561.295;  411.013;  180.893;  215.193
561.574;  353.570;  119.885;  116.207
561.853;  505.747;  274.891;  303.197
562.132;  502.350;  -45.114;  182.206
562.411;  468.864;  396.879;  553.219
562.690;  141.893; -592.115; -458.792
562.969;  151.467;  472.888;  630.203
563.248;  522.936; 2966.878; 2487.219
563.527;  280.081; -290.111; -408.800
563.806;  398.739; -650.127; -521.771
564.085;  448.653; -297.105; -206.810
564.364;  259.107; -594.117; -405.790
564.643;  534.439; -276.121; -223.781
564.922; 1961.666;  221.890;  397.198
565.201; 1983.520; -640.109; -700.803
565.479;  884.167; -297.115; -219.792
565.758;  335.233; -810.128; -712.770
566.037;  494.071; -155.109; -100.803
566.316;  236.287; -286.116;  -28.791
566.595;   45.794;  -17.115;  -12.793
566.873;  111.633; -166.111;  -79.801
567.152;  -57.459; -490.113; -590.797
567.431;   13.933; -113.116;    6.210
567.709;   12.313; -344.107; -212.807
567.988;  267.628; -810.114; -769.794
568.266;  533.369; -160.115;  -68.793
568.545;  418.649; -644.100; -514.819
568.824;  602.916;  160.885;  356.208
569.102;  598.878; -351.114; -235.794
569.381;  236.840; -492.116; -407.792
569.659;  -53.312; -553.113; -553.796
569.938;   27.960; -743.122; -465.780
570.216;  115.448; -225.109; -225.804
570.494;  -17.894; -632.114; -572.795
570.773;   43.218;  202.879;  114.218
571.051;   -1.651; -373.123; -357.778
571.330;   51.885; -221.113; -174.796
571.608;   52.042; -181.098; -173.823
571.886;  -82.774; -671.111; -581.799
572.164;  -70.680; -739.121; -621.782
572.443;  -48.019; -562.105; -512.811
572.721;  -42.145; -399.117; -289.790
572.999;  -19.376; -280.117; -168.788
573.277;   91.375;  379.894;  620.191
573.555;  309.452;   94.894;   37.190
573.834; 1423.999;  -86.117; -114.788
574.112; 1658.790;  880.893;  811.193
574.390;  495.283; -143.111;  -96.801
574.668;    9.068;  -91.112;  -61.797
574.946;  -20.348; -165.106; -187.810
575.224;    4.070;   71.891;  -16.803
575.502;  -22.965; -200.116; -204.791
575.780;  -93.556; -767.112; -829.798
576.058;  203.757; 1589.889; 1004.200
576.336;  -21.388; -210.110; -129.801
576.614;  -62.231; -511.112; -340.798
576.891;   54.674; -711.115; -823.794
577.169;  493.956; -158.108; -285.805
577.447;  590.915;  169.893;  202.193
577.725;  272.323;  629.888;  854.201
578.003;   18.171;  -71.112; -371.798
578.280;   87.465; -208.104; -242.812
578.558;   58.173; -450.115; -422.793
578.836;  120.006; -210.114; -145.795
579.114;   35.717; -630.112; -670.797
579.391;   69.000;   -6.117;  -18.789
579.669;  -82.275; -595.114; -704.794
579.947;  161.111; -326.107; -127.806
580.224;  332.261; -692.107; -524.806
580.502;  324.865;  127.893;   76.193
580.779;   32.681;  -42.117;   75.210
581.057;  -65.176; -584.109; -470.804
581.334; -106.495; -726.102; -695.815
581.612;   22.553;   54.895;  511.190
581.889;  -33.757;  -83.101; -129.818
582.167;  -55.143; -298.099; -190.821
582.444;  -98.987; -845.102; -814.817
582.721;   88.414;  657.899;  715.183
582.999;   46.505; -326.100; -167.821
583.276;  560.128; -812.123; -713.779
583.553;  737.383; -364.102; -294.816
583.831;  244.537; -607.104; -631.812
584.108;   46.879;  349.892;  174.195
584.385;    5.255; -122.102;  -98.815
584.662;  -57.316; -651.111; -828.801
584.940;   23.308;  204.889;  204.199
585.217;  -18.088;  -73.113; -303.796
585.494;   37.017;   71.890;  118.198
585.771;  218.550; -250.109; -354.804
586.048;  500.337; -196.113;  -76.796
586.325;  321.286; -721.110; -773.801
586.602;   83.341;  230.896;  213.188
586.879;  -11.499; -499.100; -580.820
587.156;   42.979; -156.105; -331.810
587.433;  -27.964; -701.102; -667.817
587.710;   51.019;  152.888;  234.202
587.987;  316.259; -264.105; -236.811
588.264;  784.321;  315.888;  387.202
588.541; 1389.543;  -61.104;   26.187
588.818; 2746.852;   72.892;  171.196
589.095; 2334.564; -163.104; -174.812
589.371;  383.673; -459.109; -414.804
589.648;   16.515; -581.107; -437.807
589.925;    6.157; -517.114; -621.795
590.202;   19.919; -741.112; -607.798
590.478;   93.136; -166.105;  -73.811
590.755;  286.833; -241.108; -132.806
591.032; 2584.664; -741.110; -699.802
591.308; 3571.307; -732.094; -790.831
591.585; 1858.188; -573.110; -560.802
591.862;  155.812;-1056.102; -950.817
592.138;   48.055; -475.108; -474.805
592.415;  144.042; -486.104; -495.813
592.691; 1503.514;  460.896;  518.188
592.968; 1922.169; -208.098; -123.824
593.244;  926.559; -695.116; -595.790
593.521;   57.663; -105.102;  -42.817
593.797;  -18.018; -810.122; -720.780
594.074;  349.157; -611.096; -588.826
594.350;  676.318;  828.905;  729.172
594.626;  321.759; -303.111; -283.801
594.903;  115.713; -643.101; -645.817
595.179;  198.895;  243.896;  418.187
595.455;    4.866; -136.107; -150.807
595.731;  -16.178;  -19.103;  -38.814
596.008;  -42.022; -464.111; -434.800
596.284;   24.829; -187.100; -242.820
596.560;   52.713; -501.093; -493.833
596.836;  212.681; -173.105;  -70.810
597.112;  349.556; -582.108; -437.805
597.388;  298.305;  -49.097;  -48.826
597.665;  113.515;  437.887;  530.203
597.941;  -61.682; -572.089; -658.839
598.217;   14.042; -323.110; -293.802
598.493;  250.776;   61.891; -204.804
598.769;  513.923; -175.100;  -50.819
599.045;  298.009; -490.108; -562.806
599.321;   67.428; -193.100; -261.820
599.597;  148.450; -355.109; -476.804
599.872;  482.243;  409.896;  429.187
600.148;  390.356;  -61.097; -172.826
600.424;  305.589;   91.893;  202.193
600.700;  241.416; -170.107; -280.807
600.976;  111.775; -442.097; -464.825
601.252;  257.672; -226.109; -272.803
601.527;  221.894; -833.104; -840.813
601.803;  158.736; -453.105; -404.812
602.079;  187.898; -124.100; -118.819
602.354;  580.173; -620.092; -531.835
602.630;  856.287; -140.113; -482.796
602.906; 2457.543; -910.101; -863.818
603.181; 6966.238; -627.119; -534.786
603.457; 5911.804;   98.903; -278.826
603.733;  859.222; -605.120; -626.783
604.008; 1025.803; -245.106; -164.810
604.284; 3163.640; -636.101; -580.817
604.559; 2770.123;   -3.112;  -42.799
604.835;  495.656; -163.105; -225.810
605.110;  428.658; -732.099; -892.821
605.385;  726.141;  224.907;  267.167
605.661;  683.995; -625.095; -729.829
605.936; 1220.434; -664.108; -737.806
606.211; 1024.078;  -17.103; -170.815
606.487;  224.852; -329.114; -376.794
606.762;   15.039; -791.119; -745.786
607.037;  -26.719; -501.105; -433.810
607.313;  -52.611; -589.096; -574.828
607.588;  -16.848; -375.106; -137.810
607.863;   45.818;  -28.101; -143.818
608.138;  200.965;  513.890;  516.198
608.413;   28.537; -576.099; -592.822
608.688;   42.056; -203.108; -267.805
608.964;  205.397; -509.106; -218.809
609.239;  251.853; -107.105; -212.810
609.514;  250.536;  281.895;  240.188
609.789;  662.565; -187.104; -716.812
610.064;  893.338; -435.096; -609.827
610.339;  931.298; -855.109; -799.804
610.614; 1249.778; -131.100; -315.820
610.889;  694.861;  215.895;  107.188
611.163;   25.912; -407.104; -591.812
611.438;   73.878;   81.886; -167.794
611.713;    6.140; -467.101; -499.817
611.988;   49.942; -144.101; -328.818
612.263;  -28.145; -771.102; -717.815
612.538;  217.862;  385.887;  251.204
612.812;  196.204; -832.100; -911.820
613.087;  130.892; -358.098; -338.823
613.362;  -60.684; -497.107; -557.807
613.637;   32.325;  261.897;  138.186
613.911;  -17.576; -256.092; -345.835
614.186;  120.390; -249.107; -292.807
614.460;  725.242; -842.081; -758.854
614.735;  820.966;  -55.087;  -17.843
615.010;  166.756;   43.912;  -82.841
615.284;  256.205;  360.892;  246.195
615.559;  385.523; -792.092; -955.835
615.833;  299.310;  -76.099;  -87.822
616.108;   -4.866; -225.090; -390.837
616.382;  131.417;  274.913;  402.156
616.656;  161.060; -241.090; -232.837
616.931;  519.760; -785.099; -700.822
617.205; 1107.044; -973.104; -979.813
617.480; 1008.558;  -91.125;    6.225
617.754;  176.481; -396.125; -128.774
618.028;    1.951; -369.129; -382.768
618.302;   62.054;   73.892;  -25.805
618.577;  -59.599; -371.103; -518.815
618.851;  -71.281; -399.109; -600.803
619.125;  -61.443; -335.134; -378.759
619.399;  -40.680; -244.104; -374.813
619.673;  -55.384; -330.115; -515.792
619.947;  -48.094; -333.114; -448.795
620.222;  -34.515; -198.110; -204.801
620.496;   -4.205;  -47.121;  -96.782
620.770;    5.161; -187.122;  -93.781
621.044;  216.804;  323.895;  346.190
621.318;  751.523; -653.120; -614.783
621.592;  691.170; -430.121; -409.783
621.866;  376.799; -476.112; -572.799
622.140;   35.185; -207.116; -356.791
622.413;   46.803;  138.889;  112.200
622.687;  -44.685; -746.101; -492.817
622.961;   -1.271; -130.108; -143.805
623.235;  -60.221; -633.111; -661.800
623.509; -117.739; -816.105; -848.811
623.783;    8.037;  -12.107;   48.193
624.056;  -24.851; -254.120; -280.783
624.330;   47.193;   63.888;   -3.797
624.604;   57.382; -271.116; -355.790
624.877;   64.564;  180.890;   26.198
625.151;   37.450; -249.114; -238.794
625.425;  -29.353; -150.103; -283.814
625.698;  -69.267; -367.119; -374.785
625.972; -106.858; -799.110; -765.802
626.245;   79.834;  685.884;  484.210
626.519;  -42.847; -426.120; -340.784
626.792;  -36.334; -192.107; -380.807
627.066;  -85.671; -485.122; -662.779
627.339; -105.162; -736.110; -663.802
627.613;   39.276;  351.880;  148.216
627.886;   49.519;  187.891; -612.803
628.160;  -20.653;  312.880; -161.783
628.433;  -97.014; -695.125; -703.775
628.706;  -87.247; -517.120; -615.784
628.979;   14.867;  296.876;  117.223
629.253;  -90.137; -785.119; -833.786
629.526;  382.245; -334.126; -253.772
629.799;  351.499; -641.123; -479.778
630.072;  175.803; -497.128; -516.769
630.346;  -53.391;-1115.116;-1080.790
630.619;  466.817; -467.107; -545.808
630.892;  635.730;  709.889;  593.200
631.165;  334.495;  790.896;  679.187
631.438;  -83.804;-1092.112;-1055.798
631.711;   47.902;  453.877;  257.221
631.984;  -70.446; -523.117; -624.789
632.257;  -68.250; -636.117; -681.789
632.530;  -45.442; -412.119; -433.785
632.803;   28.423; -109.115;    7.207
633.076;  -58.404; -360.123; -422.777
633.349;    8.207;  173.872;  121.231
633.622;  -43.043; -187.119; -240.785
633.895; -127.952; -903.120; -823.783
634.167;  -61.578; -496.126; -525.773
634.440;  -12.535;  -19.116; -137.792
634.713;  -12.088;  -22.119; -120.786
634.986;   87.847;  593.871;  453.233
635.258;  -80.903; -507.115; -597.793
635.531;  101.096;  742.882; -343.788
635.804;  -37.422; -303.117; -318.789
636.077; -107.264; -830.116; -852.791
636.349;   -5.005; -586.115; -474.793
636.622;  370.295; 1695.874; 1392.228
636.894;  262.503; -474.120; -909.784
637.167;  166.789; -836.127; -789.771
637.439;   36.135; -278.128; -213.770
637.712;  -46.704; -312.126; -293.772
637.984;  -85.613; -635.116; -707.791
638.257;  384.046;  515.877;  488.222
638.529;  553.312; -881.125; -924.776
638.802;  266.153; -508.128; -449.769
639.074; -123.639; -927.122; -952.781
639.346; -136.326; -942.135; -930.757
639.619;   -7.791;  -79.142; -319.744
639.891;  -12.521;  -83.122; -168.779
640.163;  -81.944; -689.122; -756.780
640.435;   12.583;  273.878;  103.220
640.708;  -14.490;  -72.122; -132.780
640.980;  -27.088; -366.122; -362.781
641.252;  196.689;  -25.121;  -71.781
641.524; 1825.190;  580.879;  573.219
641.796; 1825.742;-1094.121; -907.782
642.068;  333.719; -191.121; -300.782
642.340;  -56.754; -486.121; -566.783
642.613;   31.173;  294.880;  323.217
642.885; -102.226; -787.120; -878.783
643.157;  -50.924; -810.120; -658.784
643.428;   58.478;  170.880;  218.216
643.700;  -74.920; -498.120; -425.784
643.972;  -42.218;  -16.119; -133.785
644.244; -105.791; -474.119; -559.785
644.516;  -47.965; -250.119; -114.786
644.788;   53.012;  662.881;  548.214
645.060;  -22.661;  -12.119; -124.786
645.332; -110.709; -525.118; -535.787
645.603;   21.468;  479.882;  342.213
645.875;  -85.131; -334.118; -369.787
646.147;  171.771; 1487.882; 1242.212
646.418;  -64.902; -931.117; -918.788
646.690;  147.025; -714.117; -715.789
646.962;   27.402; -413.117; -451.789
647.233;  -12.946;   15.883;   11.211
647.505; -101.770; -595.117; -475.790
647.776;   25.832;  328.884;  229.210
648.048;  -22.916; -248.116; -418.790
648.320;  -72.089; -752.116; -679.791
648.591; -161.612;-1055.116; -958.791
648.862; -105.886; -505.116; -577.792
649.134;   12.741;  115.885;  198.208
649.405;  -37.782; -661.115; -618.792
649.677;  -59.980; -475.115; -598.793
649.948;  -13.178; -181.115; -296.793
650.219;    0.549;  -37.115; -147.793
650.491;  -78.425; -431.114; -520.794
650.762; -124.898; -705.114; -731.794
651.033;  -85.546; -437.114; -424.795
651.304; -100.469; -743.114; -728.795
651.576;  -68.117; -680.114; -645.795
651.847;  -44.791; -250.113; -140.796
652.118;  -33.889;  -32.113; -189.796
652.389; -110.737; -639.113; -722.796
652.660;  -30.760; -147.113;  -89.797
652.931; -147.283; -897.112; -871.797
653.202; -104.407; -382.112; -541.798
653.473;  -77.405; -633.112; -533.798
653.744;  153.472; -595.112; -590.798
654.015;  141.074; -356.112; -303.799
654.286;  -68.424; -642.111; -663.799
654.557;  -72.997; -586.111; -521.799
654.828; -160.921;-1114.111;-1088.800
655.099; -101.469; -404.111; -291.800
655.370;  -90.317; -427.111; -543.801
655.641; -128.690; -656.110; -714.801
655.911; -118.763; -618.110; -638.801
656.182;   50.938;  437.890;  387.198
656.453;   99.365;  830.890;  746.198
656.724;  -77.458; -466.110; -426.802
656.994;  -95.281; -553.109; -568.803
657.265; -121.729; -862.109; -873.803
657.536;  -72.652; -500.109; -377.804
657.806; -117.776; -561.109; -593.804
658.077; -137.949; -866.109; -950.804
658.347;  -80.747; -523.108; -598.805
658.618; -112.095; -646.108; -694.805
658.888;  -38.918;  -41.108;  112.195
659.159;  -78.292; -432.108; -548.806
659.429;  -30.015; -292.108; -349.806
659.700;   22.437; -435.107; -390.807
659.970;  -13.936; -370.107; -359.807
660.241;    4.216; -754.107; -921.807
660.511;  510.318; -147.107; -174.808
660.781;   90.594; -793.106; -748.808
661.052;  -61.704; -222.106; -381.808
661.322;  -17.977;   21.894;   -9.809
661.592;   -4.625;  257.894;  148.191
661.862;  -68.798; -369.106; -382.810
662.133; -105.997; -551.105; -502.810
662.403; -117.845; -770.105; -676.810
662.673;  -58.543; -256.105; -213.811
662.943;  -96.816; -612.105; -551.811
663.213;  -11.439;  -85.105;  -81.811
663.483;  -80.387; -593.104; -568.812
663.753;  -48.986; -194.104; -152.812
664.023;  -21.009;   68.896;  -32.813
664.293;  -78.782; -319.104; -126.813
664.563; -107.305; -694.104; -648.813
664.833; -131.953; -743.103; -608.814
665.103; -125.277; -730.103; -793.814
665.373; -133.100; -766.103; -806.814
665.643;  -79.973; -863.103; -918.815
665.913;   32.179; -534.103; -714.815
666.182;  150.356; -685.102; -719.816
666.452;  280.408;  -22.102;  -89.816
666.722;  -35.091; -724.102; -784.816
666.992; -145.389; -948.102; -921.817
667.261; -101.312; -824.102; -808.817
667.531;  201.365;  134.899;   45.183
667.801;  546.342; -440.101; -412.818
668.070;  250.568;  714.899;  697.182
668.340; -104.180; -883.101; -840.819
668.609;   92.197;  588.900;  301.181
668.879;  -68.926; -490.100; -558.819
669.149;  -80.699; -539.100; -516.820
669.418;  -99.397; -698.100; -726.820
669.688;  -42.921; -482.100; -666.820
669.957;   78.931; -423.099; -546.821
670.226;  -16.342; -268.099; -331.821
670.496;  -91.815; -431.099; -635.822
670.765;  -89.038; -418.099; -501.822
671.034; -144.237; -872.099; -828.822
671.304;  -17.735;   55.902; -111.823
671.573; -160.658;-1085.098; -957.823
671.842;   75.119; -380.098; -294.823
672.112;   29.971; -692.098; -586.824
672.381;   -5.102; -239.098; -214.824
672.650; -141.451;-1005.097;-1021.825
672.919;  -95.774; -631.097; -507.825
673.188;  -97.997; -681.097; -878.825
673.457; -166.570;-1101.097;-1143.826
673.726;  -83.743; -579.096; -646.826
673.995;  -53.742; -533.096; -479.826
674.265;  -21.865; -263.096; -333.827
674.534;   -2.063; -183.096; -235.827
674.802;   11.089; -618.096; -703.828
675.071; 1046.866; -886.095; -801.828
675.340; 4043.743; -464.095; -339.828
675.609; 1338.044;  103.905;   82.171
675.878;   76.021; -949.095; -893.829
676.147;   23.348;  -26.095;   -8.829
676.416;   93.000; -210.094; -294.830
676.685;  748.327; 1000.906; -622.830
676.953;   98.453; -603.094; -452.831
677.222;  -26.070; -193.094; -273.831
677.491;  -24.918;  -24.094; -127.831
677.759;  -18.141;   11.907;  172.168
678.028;  -20.039; -279.093; -222.832
678.297;  -14.787;   71.907;  197.168
678.565; -149.911; -898.093; -944.833
678.834;  -68.534; -311.093; -268.833
679.102;  -85.682; -411.092; -391.834
679.371; -142.255; -898.092; -727.834
679.639; -127.653; -797.092; -786.834
679.908; -126.127; -794.092; -724.835
680.176; -162.825; -895.091; -941.835
680.445;  -87.198; -346.091; -352.835
680.713;  -19.796;  -58.091;  -23.836
680.982;  -94.894; -523.091; -525.836
681.250; -119.217; -578.091; -507.837
681.518; -104.066; -534.090; -751.837
681.787;   -1.664; -204.090; -167.837
682.055;  -52.762; -490.090; -422.838
682.323; -164.560; -993.090; -992.838
682.591;   26.492; -216.090; -538.838
682.859;   78.593;    9.911;  -35.839
683.128;    8.620;  232.911;  497.161
683.396; -182.603;-1102.089;-1122.840
683.664;  -50.451; -241.089;   21.160
683.932;   -4.824;  144.911;  -76.840
684.200;  -88.522; -576.088; -320.841
684.468;  -20.621;  -73.088; -124.841
684.736;  -37.944; -214.088; -175.841
685.004; -133.192;-1024.088; -982.842
685.272;  -52.940; -880.088; -774.842
685.540;  -71.963; -499.087; -557.843
685.808;  -85.737; -651.087; -682.843
686.076; -105.060; -894.087; -969.843
686.343;  -76.483; -601.087; -815.844
686.611;   41.694; -195.087; -224.844
686.879;  486.646; -530.086; -553.844
687.147; 3436.898; -483.086; -480.845
687.414;  948.449;  -12.086; -169.845
687.682;    8.551; -658.086; -757.846
687.950;  309.878;  259.915;  263.154
688.217;    9.480; -792.085; -760.846
688.485;  -16.168; -632.085; -636.847
688.753;  545.433;  -11.085; -102.847
689.020;  165.060; -820.085; -851.847
689.288; -111.663; -853.084; -787.848
689.555;  -31.461; -195.084; -148.848
689.823;  -52.109; -241.084; -345.849
690.090;  -92.932; -546.084; -651.849
690.358; -157.831; -877.084; -897.849
690.625;    0.071;  120.917;   45.150
690.892;  -95.527; -403.083; -369.850
691.160;  -22.325;   72.917;  -35.850
691.427;    6.327;  141.917;  130.149
691.694; -132.797; -855.083; -929.851
691.962; -141.120;-1177.082;-1060.852
692.229;    0.732;  127.918;   56.148
692.496;   73.134;  130.918;  -49.852
692.763;    9.261; -164.082; -201.853
693.031;  -69.362; -739.082; -716.853
693.298;  -43.136; -509.081; -368.853
693.565;  311.316; -155.081; -163.854
693.832; 1301.143;   -5.081;   -9.854
694.099;  150.645; -643.081; -642.855
694.366;  -69.353; -882.081; -896.855
694.633;  -45.777; -920.080; -633.855
694.900;  759.300; 4367.920; -114.856
695.167;  430.327; -214.080; -380.856
695.434;   93.879; -646.080; -623.856
695.701;  183.706;  121.921;  -61.857
695.968;  457.157; -365.079; -361.857
696.234; 1013.909; -415.079; -646.858
696.501;10243.611; -776.079; -614.858
696.768; 5174.938; -554.079; -617.858
697.035;  303.390; -632.078; -667.859
697.302;   31.292; -448.078; -552.859
697.568;   -8.832; -458.078; -497.859
697.835;  -54.455; -683.078; -624.860
698.102;  -21.953; -498.078; -407.860
698.368;   80.324;  384.923;  396.139
698.635;  -53.424;  -47.077; -424.861
698.901;  -27.248; -240.077; -348.861
699.168;   73.179; -534.077; -456.862
699.435;   67.506;  -72.077;  -13.862
699.701; -114.442; -868.076; -764.862
699.968;    9.635;  144.924; -441.863
700.234; -111.913; -783.076; -822.863
700.500;  -53.112; -448.076; -539.864
700.767;  -15.585;   -1.075;   26.136
701.033; -125.458;-1015.075; -963.864
701.299;  -59.031; -450.075; -483.865
701.566;  115.671;  950.925;  763.135
701.832;   37.397;  -31.075;  -76.865
702.098;  -93.401;-1054.074;-1034.866
702.365;  -80.474;-1098.074;-1030.866
702.631;  -43.347;-1038.074;-1063.867
702.897; 1413.155; -765.074; -676.867
703.163; 2256.057;  348.926;  254.133
703.429;  154.108; -256.073; -273.868
703.695;  -38.165; -796.073; -792.868
703.961;   10.787; -214.073; -210.868
704.227;  -56.911; -630.073; -725.869
704.493;  120.516;  613.927;  510.131
704.759;  -40.308; -565.072; -540.870
705.025;   22.794; -203.072; -194.870
705.291;  -17.679; -666.072; -562.870
705.557;  193.298;  719.928;   34.129
705.823;   16.600; -742.072; -694.871
706.089;  140.077; -307.071; -326.871
706.355;  358.628; -315.071; -244.872
706.620; 5457.730; -776.071; -729.872
706.886; 7573.957; -309.071; -362.873
707.152;  701.684; -818.070; -973.873
707.418;  -33.139;-1153.070;-1186.873
707.683;   -7.888; -550.070; -530.874
707.949;  -59.361; -547.070; -578.874
708.215;    0.166; -129.070; -207.874
708.480;  -20.132; -520.069; -420.875
708.746;   83.820;   68.931;   28.125
709.011;  -75.153; -578.069; -612.876
709.277;  -93.727; -538.069; -543.876
709.542;  -58.450; -428.069; -387.876
709.808;  -25.598;  -59.068;   89.123
710.073;  -91.996; -577.068; -695.877
710.339;  -43.944; -242.068; -228.877
710.604;   89.332; -780.068; -845.878
710.869;  311.284; -277.068; -366.878
711.135;  -66.414; -715.067; -628.879
711.400;  -87.312; -507.067; -608.879
711.665;  -66.510; -404.067; -479.879
711.931;  -98.608; -661.067; -677.880
712.196; -124.532; -876.067; -954.880
712.461;  110.970; -402.066; -490.880
712.726;  125.122; -727.066; -771.881
712.991;  -85.051; -647.066; -664.881
713.256;  -55.524; -350.066; -332.882
713.521;  -72.198; -417.065; -381.882
713.787;  -60.846; -454.065; -472.882
714.052;  -43.044; -214.065; -400.883
714.317;  -98.242;-1045.065; -981.883
714.581; 1012.985; -374.065; -268.883
714.846; 1313.837; -822.064; -888.884
715.111;  128.963;  261.936;  257.116
715.376;  -38.260;  -86.064; -223.885
715.641;  -12.733; -365.064; -367.885
715.906;  307.894;   15.936; -551.885
716.171;  134.121;  221.937;  209.114
716.436;   24.797;  -78.063; -104.886
716.700; -121.901; -818.063; -692.886
716.965; -128.549; -794.063; -807.887
717.230;  -87.772; -339.063; -392.887
717.494;  -37.720;  -40.062; -134.888
717.759; -111.618; -784.062; -640.888
718.024;   -9.192;  269.938;  250.112
718.288;   72.510;  685.938;  395.111
718.553; -152.488; -803.062; -977.889
718.817; -146.636; -883.061; -899.889
719.082;  -26.209; -115.061; -125.890
719.346; -155.183;-1000.061; -947.890
719.611;  -46.956; -300.061; -255.891
719.875; -105.729; -568.060; -537.891
720.140;  -65.102; -453.060; -603.891
720.404;   38.475; -136.060; -249.892
720.668;  868.327; -475.060; -411.892
720.933;  324.703;  146.940;  137.108
721.197;  -89.045; -667.059; -600.893
721.461; -144.268; -851.059; -826.893
721.725;   -7.716;  -21.059; -250.894
721.990;  -61.714; -284.059; -204.894
722.254;  -30.263;  -26.059; -108.894
722.518;  -78.186; -286.058; -442.895
722.782; -100.559; -743.058; -594.895
723.046;  103.243;  614.942;  570.105
723.310;   26.645;  374.942;  210.104
723.574; -105.353; -654.058; -614.896
723.838;  -96.902; -576.057; -642.897
724.102;  -45.650; -226.057; -239.897
724.366; -150.848;-1032.057; -978.897
724.630; -120.471; -749.057; -571.898
724.894;  -77.144; -722.057; -514.898
725.158;  -21.568;   38.944; -295.898
725.422;  -59.591; -394.056; -327.899
725.685;  -91.089; -441.056; -349.899
725.949;  -73.587; -566.056; -519.900
726.213;  -79.885; -732.056; -811.900
726.477;  179.192;-1020.055; -933.900
726.740;  150.943; -274.055; -104.901
727.004;  330.770; -384.055; -510.901
727.268; 3266.047; -442.055; -400.901
727.531;  873.774; -961.055; -775.902
727.795;  -51.924; -713.054; -673.902
728.059;  -70.448; -552.054; -557.903
728.322;  -87.921; -841.054; -669.903
728.586;   34.306; -692.054; -701.903
728.849;  -85.092; -695.053; -756.904
729.112; -119.365; -812.053; -912.904
729.376; -150.388; -959.053; -905.904
729.639;  -79.037; -536.053; -536.905
729.903; -115.435; -733.053; -699.905
730.166;  -58.133; -437.052; -399.906
730.429;  -29.906; -317.052; -468.906
730.693;  -65.229; -355.052; -894.906
730.956;  205.447;  810.948;  651.093
731.219;  707.299; -310.052; -103.907
731.482;  111.126;-1003.051; -894.907
731.745;   97.103; -794.051; -935.908
732.009;    7.830;  -30.051;   50.092
732.272; -102.893; -904.051; -771.909
732.535;  -60.442; -300.051; -310.909
732.798; -157.965;-1083.050;-1166.909
733.061;  -67.213; -430.050; -456.910
733.324;   -3.086;   31.950; -180.910
733.587;   44.341;  290.950;  365.090
733.850;  -78.958; -973.049;-1050.911
734.113;   32.144;   33.951;   32.089
734.376;   -5.629; -328.049; -447.912
734.639;  207.698; 1188.951; 1011.088
734.901;   66.900; -180.049; -402.912
735.164;  521.151; -883.048; -837.913
735.427; 1322.653; -166.048; -355.913
735.690;  103.280; -205.048; -234.913
735.952;  -30.843; -923.048; -925.914
736.215;  -39.516;-1113.048;-1009.914
736.478;   31.011; -771.047; -774.915
736.740;  218.787;   33.953;  129.085
737.003;  736.714; -658.047; -672.915
737.266; 4181.266;  -94.047;   46.084
737.528;  434.468; -682.047; -660.916
737.791;  310.195; -316.046; -327.916
738.053;  803.646;  465.954;  649.083
738.316;10935.773; -162.046; -136.917
738.578; 7398.325; -770.046; -736.918
738.841;  420.552; -382.046; -446.918
739.103;  176.979; -875.045; -777.918
739.365;  512.331;   79.955;  -69.919
739.628;   -4.418; -884.045; -805.919
739.890;  -43.241; -758.045; -710.919
740.152;  -35.389; -692.044; -754.920
740.414;  -29.412; -408.044; -359.920
740.677;  -53.310; -785.044; -634.921
740.939;  -50.484; -587.044; -487.921
741.201;  273.093; -432.044; -572.921
741.463;   37.470; -689.043; -745.922
741.725;   10.247;  -21.043; -199.922
741.987;   71.474;  220.957;  116.078
742.249;  -10.024; -751.043; -859.923
742.511;  223.777; -703.043; -794.923
742.773;    0.629; -546.042; -546.924
743.035;  127.806;  796.958;  533.076
743.297;  -28.717; -963.042;-1013.924
743.559;  739.835; -278.042; -262.925
743.821;   70.136; -735.042; -744.925
744.083;   14.613;  -44.041; -149.925
744.345;  -88.060; -869.041; -892.926
744.607;   38.617;   75.959;  122.074
744.868;  -51.431; -490.041; -554.927
745.130; -112.779; -994.041;-1008.927
745.392;   36.947;   -1.040;  -44.927
745.653;  -15.401; -411.040; -378.928
745.915;  165.801;  896.960;  631.072
746.177;   54.328;   35.960;  -43.928
746.438;  -12.245; -428.040; -543.929
746.700;  -41.369; -947.039; -988.929
746.961;   11.333; -659.039; -740.930
747.223;  126.210; -190.039;  -74.930
747.484;   78.812; -391.039; -471.930
747.746;  143.264;  -23.038; -106.931
748.007;  110.791; -647.038; -689.931
748.269;  318.267; -468.038; -440.931
748.530;  480.294; -852.038; -638.932
748.791;  247.671; -354.038; -420.932
749.053;  455.148;  286.963;  163.067
749.314;  457.400; -236.037; -169.933
749.575;  512.576; -945.037; -905.933
749.836;  871.478; -217.037;   86.066
750.098; 2586.055;  -60.037;  -21.934
750.359;37500.082;  414.964;  555.066
750.620; 9139.159; -121.036; -220.935
750.881; 1062.836; -585.036; -513.935
751.142; 1380.737; -950.036; -938.936
751.403;17170.139; -789.036; -705.936
751.664; 7212.691;-1034.035; -999.936
751.925;  490.593; -175.035; -262.937
752.186;  283.720; -298.035; -278.937
752.447;  127.546; -590.035; -445.937
752.708;   42.223; -532.035; -648.938
752.969;    3.375; -566.034; -576.938
753.230;  -10.698; -777.034; -672.939
753.491;   -7.146; -650.034; -631.939
753.751;   62.106;  109.966;   19.061
754.012;   94.782;  258.967;  181.060
754.273;   47.609; -174.033;  -71.940
754.534;   11.061; -487.033; -580.940
754.794;  -87.787; -926.033; -911.941
755.055;  144.440; 1051.967;  881.059
755.316;  -43.209; -700.032; -566.942
755.576;  -36.932; -606.032; -576.942
755.837;  -45.605; -527.032; -695.942
756.097;  -53.103; -530.032; -564.943
756.358;  -78.076; -725.032; -770.943
756.618;  -69.274; -705.031; -641.943
756.879;    0.252; -254.031; -349.944
757.139; -124.221;-1098.031;-1116.944
757.400;  -64.294; -538.031; -553.945
757.660;  -11.692; -365.031; -401.945
757.920;   -5.815; -266.030; -228.945
758.181;  -17.139; -468.030; -351.946
758.441; -113.112; -870.030; -809.946
758.701;  -37.885; -308.030; -215.946
758.961;  -15.733; -220.030; -278.947
759.222;  -48.456; -574.029; -502.947
759.482;  -85.304; -683.029; -723.948
759.742;  -95.653; -706.029; -547.948
760.002;    0.174;  -83.029; -143.948
760.262;    8.726;   50.972;  182.051
760.522;  -53.497; -498.028; -574.949
760.782;  -67.145; -738.028; -612.949
761.042;  -25.094; -618.028; -573.950
761.302;   38.083;   55.972;  -18.950
761.562;   66.285; -164.027; -154.951
761.822;   75.637; -710.027; -551.951
762.082;  -58.061;-1104.027;-1093.951
762.342;   59.816; -328.027; -403.952
762.601;   70.292; -567.027; -506.952
762.861;  356.544; -281.026; -207.952
763.121;  414.521; -406.026; -411.953
763.381; 7534.648; -499.026; -485.953
763.640; 7976.000; -139.026; -307.954
763.900;  344.451; -242.026; -203.954
764.160;   83.528; -458.025; -491.954
764.419;  -20.320; -726.025; -782.955
764.679;  -70.643; -795.025; -726.955
764.939;   -8.591; -124.025; -210.955
765.198;  -76.364; -608.025; -563.956
765.458;  -89.863; -710.024; -612.956
765.717;  -83.661; -454.024; -590.957
765.976;  -71.209; -428.024; -411.957
766.236;  -70.382; -475.024; -610.957
766.495;   16.495;  260.977;   73.042
766.755;  -99.754;-1090.023; -987.958
767.014;   -4.002; -594.023; -665.958
767.273;  -55.550; -373.023; -397.959
767.533;  -39.348; -228.023; -307.959
767.792;  -45.371; -151.022; -188.960
768.051;  -75.044; -228.022; -276.960
768.310;  -78.168; -546.022; -650.960
768.569;  -12.616; -161.022;    4.039
768.828;  -44.714; -285.022; -363.961
769.088; -127.512;-1050.021; -942.961
769.347;  -90.960; -755.021; -599.962
769.606; -111.284; -876.021; -857.962
769.865; -118.332;-1016.021;-1033.963
770.124;  -13.580; -411.021; -336.963
770.383;  -62.453; -778.020; -910.963
770.641;  -15.776; -398.020; -400.964
770.900;  -66.999; -953.020; -846.964
771.159;  -51.223; -851.020; -951.964
771.418;  -17.271; -917.020; -779.965
771.677;  103.806; -224.019; -293.965
771.936;  126.933; -794.019; -865.966
772.194; 2211.010; -465.019; -437.966
772.453;10746.561; -213.019; -391.966
772.712;  722.788;  416.982;  329.033
772.970;  116.865;   32.982;   63.033
773.229;   73.767;  -22.018;  102.033
773.488;  -92.556; -814.018; -770.968
773.746;   42.571;  296.982;  335.032
774.005;   -2.853;  190.983;  -22.969
774.263;    4.274;  243.983;  177.031
774.522; -106.899; -422.017; -548.969
774.780;  -93.422; -484.017; -417.970
775.039;  -79.670; -551.017; -531.970
775.297;  -38.294; -135.016; -351.970
775.555; -110.592; -489.016; -612.971
775.814; -127.540; -618.016; -570.971
776.072; -128.488; -749.016; -740.971
776.330; -106.811; -630.016; -520.972
776.589; -128.185; -703.015; -721.972
776.847; -136.933; -645.015; -624.973
777.105; -160.056;-1016.015;-1032.973
777.363;  -97.754; -459.015; -454.973
777.621; -148.852; -660.015; -717.974
777.879;  -36.325;  -42.014;   32.026
778.138; -102.649; -554.014; -717.974
778.396; -108.997; -585.014; -526.975
778.654; -184.545;-1015.014; -970.975
778.912;  -80.643; -269.014; -371.976
779.170; -131.191; -880.013; -803.976
779.427; -163.390; -922.013; -897.976
779.685; -139.863; -880.013; -832.977
779.943;  -95.011; -654.013; -593.977
780.201; -159.609; -964.012; -883.978
780.459; -124.107; -651.012; -610.978
780.717;  -94.730; -440.012; -390.978
780.974;  -97.779; -449.012; -490.979
781.232;  -75.252; -358.012; -338.979
781.490;  -83.000; -551.011; -472.979
781.747;  -98.423; -555.011; -476.980
782.005;   10.004;  462.989;  254.020
782.263; -178.570; -542.011;-1004.981
782.520;  -94.218; -326.011; -501.981
782.778; -173.216;-1013.010;-1051.981
783.035; -172.789; -962.010; -938.982
783.293;  -77.137; -248.010; -206.982
783.550;  -82.035; -134.010; -198.982
783.808; -133.859; -764.010; -776.983
784.065; -175.507; -745.009; -874.983
784.322;  -47.880;   25.991;  -86.984
784.580; -149.703; -915.009; -771.984
784.837; -105.051; -392.009; -466.984
785.094; -139.600; -783.009; -762.985
785.352;  -73.673; -304.008; -404.985
785.609; -102.971; -934.008; -839.985
785.866;  -92.219; -345.008; -401.986
786.123;  -78.692; -639.008; -583.986
786.380; -105.865; -665.008; -604.987
786.637;  -43.114; -225.007; -380.987
786.895;  -35.087; -456.007; -543.987
787.152;  -54.410; -135.007; -267.988
787.409;  -31.133; -123.007; -225.988
787.666; -106.181; -299.006; -378.988
787.923; -115.805; -616.006; -695.989
788.179; -120.728; -551.006; -584.989
788.436; -117.801; -585.006; -585.990
788.693;  -53.149;  -92.006;  -87.990
788.950;  172.203; -125.005; -112.990
789.207;  215.755; -381.005; -372.991
789.464;  -52.394; -161.005; -301.991
789.720;  -11.442;  150.995;  110.009
789.977; -172.365;-1003.005; -671.992
790.234;  -36.113;   44.996;  -66.992
790.490; -167.311; -884.004;-1031.993
790.747;  -29.235;  -85.004;   22.007
791.004;  -19.733; -426.004; -348.993
791.260;  -84.531; -430.004; -560.994
791.517;  -96.579; -843.003; -788.994
791.773;  -52.027; -379.003; -342.994
792.030; -114.450; -596.003; -660.995
792.286; -111.899; -686.003; -636.995
792.543;  -27.047;  -74.002; -159.995
792.799;  -57.745; -584.002; -382.996
793.055; -158.318;-1179.002;-1210.996
793.312; -105.491; -827.002; -816.997
793.568;  -59.290; -746.002; -599.997
793.824;    4.362; -226.001; -284.997
794.081;   26.139; -447.001; -508.998
794.337;   53.966; -664.001; -561.998
794.593; 1395.993; -319.001; -271.999
794.849; 6525.320; -746.001; -772.999
795.105;  301.671; -270.000; -261.999
795.361;   -3.677; -490.000; -457.000
795.617;  -74.150; -875.000; -945.000
795.873;  -51.350; -360.000; -407.000
796.129;  -39.250; -368.000; -306.000
796.385;  -27.400; -124.000; -156.000
796.641;   77.150;  412.000;  550.000
796.897;  -79.250; -666.000; -635.000
797.153;   55.625;  453.000;  357.000
797.409; -103.725; -785.000; -868.000
797.665;  -76.250; -625.000; -732.000
797.921;  -92.200; -775.000; -762.000
798.176;  -61.600; -744.000; -747.000
798.432;  -66.225; -824.000; -596.000
798.688;  -75.400;-1174.000;-1078.000
798.943;   72.775; -165.000; -147.000
799.199;   -9.375;-1005.000; -959.000
799.455;  217.000;  369.000;  316.000
799.710;  112.850; -813.000; -380.000
799.966;  281.225; -162.000; -160.000
800.221;  464.700; -638.000; -721.000
800.477;10694.100; -743.000; -710.000
800.732; 8948.475; -773.000; -800.000
800.988;  608.450;  205.000;  -19.000
801.243; 1765.350; -454.000; -344.000
801.498; 7295.300; -814.000; -739.000
801.754;  416.350; -289.000; -163.000
802.009;   71.375; -257.000; -335.000
802.264;  -55.275; -967.000;-1033.000
802.520;   27.425;  222.000;   -3.000
802.775;  -42.600; -524.000; -359.000
803.030;   53.750;  395.000;  356.000
803.285; -133.825; -840.000; -903.000
803.540;  -71.000; -686.000; -699.000
803.795;  -51.200; -648.000; -583.000
804.051;  -44.000; -279.000; -346.000
804.306;   12.275;  168.000;  128.000
804.561;  132.250;  451.000;  362.000
804.816;  132.025;  714.000;  861.000
805.071;    5.525; -185.000; -280.000
805.325;  227.150; -257.000; -427.000
805.580; -104.575; -841.000; -877.000
805.835;  -25.875; -204.000; -297.000
806.090;  -92.675; -760.000; -676.000
806.345;  -24.575; -344.000; -264.000
806.600;  -24.275; -549.000; -632.000
806.854;  -37.975; -408.000; -538.000
807.109;  -24.450; -493.000; -577.000
807.364;    5.525; -407.000; -328.000
807.618;  -15.800; -415.000; -381.000
807.873;   43.550; -470.000; -494.000
808.128;   87.500; -257.000; -518.000
808.382;   91.050; -224.000; -332.000
808.637;   71.650; -440.000; -511.000
808.891;  188.925; -257.000; -180.000
809.146;   97.275; -902.000; -794.000
809.400;  266.875; -848.000; -923.000
809.654;  322.800; -779.000; -551.000
809.909;  502.350; -841.000; -927.000
810.163; 7004.225; -813.000; -651.000
810.418;17356.100; -940.000; -861.000
810.672; 1037.775; -685.000; -690.000
810.926;  695.875; -993.000; -973.000
811.180; 1376.825; -439.000; -372.000
811.434;31766.175;  240.000;  135.000
811.689;12072.400; -231.000; -365.000
811.943;  603.625; -936.000; -953.000
812.197;  301.775; -893.000; -671.000
812.451;  135.775; -379.000; -514.000
812.705;  -29.750; -809.000; -619.000
812.959;   -7.025; -263.000; -388.000
813.213;  -18.700; -283.000; -209.000
813.467;   70.075;  470.000;  253.000
813.721;  -88.500; -764.000; -792.000
813.975; -113.525; -826.000; -877.000
814.229;   40.575;  430.000;  353.000
814.482;  -72.050; -517.000; -566.000
814.736; -132.500; -766.000; -744.000
814.990; -124.800; -779.000; -872.000
815.244;  -55.300; -228.000; -285.000
815.497; -102.100; -636.000; -601.000
815.751;  -19.325; -141.000;   82.000
816.005;  -86.675; -470.000; -586.000
816.258;  -80.500; -510.000; -363.000
816.512; -118.275; -693.000; -610.000
816.766;   -2.700;  121.000;  157.000
817.019;   21.625;  148.000;  149.000
817.273; -135.300;-1000.000; -802.000
817.526;  -20.325; -206.000; -173.000
817.779;  -37.625;-1049.000; -960.000
818.033;  -70.950; -693.000; -807.000
818.286; -126.800; -725.000; -792.000
818.540;  -93.775; -403.000; -403.000
818.793;  -74.900; -402.000; -489.000
819.046; -122.300; -582.000; -520.000
819.299;  -55.900; -157.000; -166.000
819.553; -106.050; -552.000; -592.000
819.806; -169.075;-1016.000; -838.000
820.059;  -52.475; -334.000; -354.000
820.312;    3.500;  152.000;  185.000
820.565;   -9.100;  110.000;  -27.000
820.818;  -69.525;  -59.000; -173.000
821.071; -158.925;-1041.000; -957.000
821.324; -124.800; -536.000; -540.000
821.577; -109.550; -457.000; -483.000
821.830;  -69.175; -270.000; -172.000
822.083; -143.575; -733.000; -288.000
822.336;  -47.750; -261.000; -167.000
822.589; -134.000; -805.000; -688.000
822.842; -156.400; -875.000; -770.000
823.094; -183.250;-1076.000;-1114.000
823.347; -139.475; -925.000; -729.000
823.600;   21.975;  402.000;  187.000
823.853;  -61.600; -311.000; -267.000
824.105;  -76.025; -331.000; -575.000
824.358; -107.375; -617.000; -716.000
824.611;   24.375;  234.000;   40.000
824.863;  -55.300; -612.000; -591.000
825.116;   37.075;  -33.000;   27.000
825.368;   78.500; -366.000; -372.000
825.621;  159.200; -186.000; -240.000
825.873;   68.775; -704.000; -737.000
826.126;  604.850; -669.000; -641.000
826.378;11810.625; -389.000; -505.000
826.630; 2707.350; -890.000; -898.000
826.883;   36.325; -754.000; -693.000
827.135;   40.500; -279.000; -270.000
827.387; -131.975; -893.000; -839.000
827.639;  -39.250;  -86.000;   32.000
827.892; -132.425; -742.000; -582.000
828.144; -138.500; -848.000; -804.000
828.396;  -48.550;  104.000;  -80.000
828.648; -109.825; -440.000; -333.000
828.900; -149.600; -702.000; -795.000
829.152; -118.400; -684.000; -683.000
829.404;  -75.125; -215.000; -267.000
829.656;  -14.675;  321.000;  214.000
829.908;  -25.475;  393.000;  229.000
830.160; -173.150;-1064.000;-1047.000
830.412; -117.100; -481.000; -430.000
830.664; -133.525; -557.000; -665.000
830.916;  -97.200; -268.000; -206.000
831.167; -175.525;-1073.000; -951.000
831.419; -115.825; -623.000; -566.000
831.671; -154.525; -764.000; -809.000
831.923;  -94.650; -311.000; -447.000
832.174;  -89.450; -273.000; -331.000
832.426; -123.450; -493.000; -582.000
832.678; -187.650;-1043.000;-1091.000
832.929; -157.450; -947.000; -935.000
833.181;  -75.200; -575.000; -677.000
833.432;  -66.000;  -59.000; -186.000
833.684;  -27.100;  112.000;  -27.000
833.935; -125.825; -610.000; -566.000
834.187; -148.675; -829.000; -823.000
834.438;  -52.625;  -58.000;  -25.000
834.689;  -62.725; -255.000; -123.000
834.941;  -63.225; -343.000; -244.000
835.192;  -93.600; -590.000; -533.000
835.443; -115.000; -419.000; -506.000
835.695;  -27.900;  138.000;  -16.000
835.946; -108.250; -608.000; -378.000
836.197; -116.675; -599.000; -622.000
836.448;  -93.975; -528.000; -395.000
836.699;  -52.000; -253.000; -341.000
836.950;  -17.075;   72.000;    7.000
837.201; -152.300;-1003.000; -987.000
837.452;  -68.600; -356.000; -170.000
837.703; -120.300; -791.000; -737.000
837.954;  -54.350; -205.000; -365.000
838.205;  -86.475;-1029.000;-1008.000
838.456;  154.975; -196.000; -282.000
838.707;    1.925; -423.000; -519.000
838.958;   20.025; -634.000; -647.000
839.209;  296.525;   18.000;   40.000
839.460;  117.550; -439.000; -201.000
839.710;  177.300; -135.000; -297.000
839.961;  438.250;  730.000;  612.000
840.212;  334.675; -382.000; -497.000
840.462; 1156.575; -328.000; -277.000
840.713;18371.100; -571.000; -536.000
840.964; 7025.600;  -62.000; -143.000
841.214;  498.600; -384.000; -624.000
841.465;  583.725; -214.000; -141.000
841.715;  518.500; -417.000; -380.000
841.966;  690.050; -746.000; -685.000
842.216; 9805.525; -330.000; -431.000
842.466;35540.425; -169.000; -313.000
842.717; 1857.750; -964.000; -952.000
842.967;  298.975; -635.000; -641.000
843.217;  273.650;   20.000;   28.000
843.468;   74.525; -104.000; -132.000
843.718;  -46.200; -718.000; -726.000
843.968; -102.750; -837.000; -765.000
844.218;   19.850; -315.000; -262.000
844.469;  -58.825; -577.000; -561.000
844.719; -109.725; -537.000; -682.000
844.969;  -98.800; -550.000; -580.000
845.219; -145.950; -814.000; -862.000
845.469;  -96.350; -392.000; -342.000
845.719; -145.500; -792.000; -884.000
845.969;  -34.500;  119.000;  174.000
846.219; -119.425; -738.000; -720.000
846.469;   18.750;  464.000;  432.000
846.718;  -51.450; -115.000;   31.000
846.968; -149.150; -827.000; -827.000
847.218;  -58.125; -224.000; -371.000
847.468;   -5.425; -586.000; -555.000
847.718; -156.675; -827.000; -798.000
847.967; -141.800; -826.000; -915.000
848.217;  -74.025; -449.000; -569.000
848.467;  -80.775; -405.000; -376.000
848.716; -127.300; -708.000; -725.000
848.966;   -8.550; -372.000; -358.000
849.215;  -63.200; -428.000; -419.000
849.465; -106.775; -785.000; -615.000
849.714; -152.500;-1132.000;-1150.000
849.964;  -72.650; -551.000; -613.000
850.213;  -24.100; -393.000; -355.000
850.463;   84.825;  137.000;  340.000
850.712;   -7.100; -542.000; -567.000
850.961;   12.350; -739.000; -678.000
851.211;   91.575; -513.000; -504.000
851.460;  161.525; -635.000; -650.000
851.709;  570.650;  -25.000;   18.000
851.958;10688.725; -912.000; -750.000
852.208;12418.925; -859.000; -879.000
852.457;  440.200; -181.000;  -13.000
852.706;   67.850; -791.000; -823.000
852.955;   -8.650; -507.000; -528.000
853.204;  -75.250; -521.000; -461.000
853.453;  -78.200; -418.000; -458.000
853.702; -138.025; -660.000; -750.000
853.951; -117.425; -532.000; -520.000
854.200; -127.125; -613.000; -562.000
854.449; -142.700; -695.000; -661.000
854.698;  -96.800; -340.000; -279.000
854.946;  -76.950; -181.000; -284.000
855.195; -151.575; -843.000; -868.000
855.444; -111.275; -395.000; -420.000
855.693; -124.550; -345.000; -432.000
855.941; -122.000; -387.000; -516.000
856.190;  -55.525; -256.000; -382.000
856.439; -141.175; -652.000; -703.000
856.687;  -56.675;  -99.000;  -72.000
856.936; -123.650; -621.000; -323.000
857.184; -179.225;-1067.000;-1020.000
857.433; -113.125; -423.000; -512.000
857.681; -175.725; -989.000; -953.000
857.930;  -86.325; -282.000; -433.000
858.178; -187.900; -856.000; -929.000
858.427; -170.750; -802.000; -781.000
858.675; -116.975; -377.000; -544.000
858.923; -123.575; -527.000; -819.000
859.172; -190.250;-1094.000;-1070.000
859.420;  -93.600; -339.000; -239.000
859.668; -140.450; -624.000; -628.000
859.916;  -41.800;  109.000;  115.000
860.164; -121.350; -699.000; -603.000
860.413;  292.400; -878.000; -696.000
860.661;  217.900; -709.000; -577.000
860.909;  -96.550; -339.000; -325.000
861.157;  -91.625; -277.000; -444.000
861.405; -122.150; -534.000; -670.000
861.653;   24.425;  310.000;  310.000
861.901;  172.150; -543.000; -613.000
862.149;   -4.250; -801.000; -824.000
862.396;  -99.200; -297.000; -187.000
862.644; -108.925; -368.000; -347.000
862.892;  -44.725;   98.000;  138.000
863.140; -121.950; -549.000; -530.000
863.388; -173.375; -815.000; -759.000
863.635; -131.550; -642.000; -601.000
863.883;  -19.950;  231.000;  190.000
864.131; -100.825; -288.000; -357.000
864.378; -144.200; -675.000; -540.000
864.626; -121.325; -347.000; -415.000
864.873; -137.600; -556.000; -505.000
865.121; -156.200; -714.000; -799.000
865.368;  -61.525; -173.000;   75.000
865.616;  -52.375;  -33.000;  -40.000
865.863;  -84.975; -462.000; -506.000
866.111; -116.375; -795.000; -824.000
866.358;   13.675; -426.000; -420.000
866.605; 2217.650;  -64.000; -804.000
866.853; 2132.025; -621.000; -537.000
867.100;  -74.200; -728.000; -775.000
867.347; -105.900; -672.000; -611.000
867.594;  -81.725; -740.000; -714.000
867.841;   74.950;   97.000;   17.000
868.089; -156.150; -746.000; -698.000
868.336; -130.900; -477.000; -420.000
868.583; -154.325; -637.000; -741.000
868.830;  -56.525; -131.000; -170.000
869.077; -166.750; -859.000; -787.000
869.324; -143.675; -502.000; -458.000
869.571; -127.375; -398.000; -430.000
869.818; -132.525; -485.000; -439.000
870.065; -124.250; -439.000; -513.000
870.311; -118.250; -456.000; -542.000
870.558; -109.275; -332.000; -311.000
870.805;  -99.625; -320.000; -384.000
871.052; -118.750; -494.000; -369.000
871.298;  -67.050; -204.000; -131.000
871.545;  -69.625; -151.000; -185.000
871.792;  -91.425; -173.000; -222.000
872.038;  -83.550;   43.000; -126.000
872.285; -132.575; -496.000; -387.000
872.532; -105.250; -357.000; -387.000
872.778;   -6.875;  556.000;  403.000
873.025; -104.275; -384.000; -359.000
873.271;   25.175;  501.000;  578.000
873.517;  -32.125; -133.000; -209.000
873.764;  -44.050; -193.000;  -80.000
874.010;  -79.050; -143.000; -230.000
874.257;  -56.450;  123.000;   90.000
874.503; -128.325; -579.000; -479.000
874.749;  -68.325;   31.000;  275.000
874.995;  -70.375;  -80.000;  -20.000
875.242; -142.500; -540.000; -478.000
875.488; -111.750; -414.000; -439.000
875.734;  -58.150; -106.000; -234.000
875.980;  207.175; -872.000;-1032.000
876.226;  347.300; -157.000; -255.000
876.472;  -10.875;  343.000;  237.000
876.718;  -41.750;  184.000;  158.000
876.964;  -41.075;   56.000;   55.000
877.210; -171.150; -547.000; -677.000
877.456; -154.425; -630.000; -557.000
877.702; -184.575; -821.000; -832.000
877.948; -118.850; -377.000; -497.000
878.193;    5.700;  361.000;  255.000
878.439;  -93.725; -487.000; -472.000
878.685; -108.300; -272.000; -343.000
878.931; -138.675; -618.000; -676.000
879.176;  -98.750; -201.000; -201.000
879.422; -185.350; -933.000; -820.000
879.668;   14.200;   10.000;   79.000
879.913;  153.950;   53.000;  137.000
880.159;  -63.350; -112.000;  -17.000
880.404;  -66.000; -152.000; -162.000
880.650;  -49.900;   91.000;  141.000
880.895; -166.100; -670.000; -710.000
881.141; -132.450; -454.000; -428.000
881.386; -150.050; -503.000; -658.000
881.631; -103.575; -311.000; -166.000
881.877;  -50.800;  112.000;  -13.000
882.122; -153.600; -684.000; -600.000
882.367;  -90.200; -136.000; -186.000
882.612;  -77.200;  -80.000; -176.000
882.858; -179.300; -877.000; -823.000
883.103; -105.475; -297.000; -267.000
883.348; -163.975; -759.000; -852.000
883.593; -148.250; -677.000; -602.000
883.838;  -71.075; -311.000;  -24.000
884.083;   11.925;  353.000;  288.000
884.328; -102.150; -564.000; -545.000
884.573;  -62.450; -196.000; -143.000
884.818;  193.525; -694.000; -531.000
885.063;  181.650; -348.000; -315.000
885.308; -108.925; -475.000; -398.000
885.553;  -13.325;  245.000;  325.000
885.797; -138.225; -545.000; -615.000
886.042;  -72.175;    8.000;   58.000
886.287;  -98.625; -253.000; -211.000
886.532;  -66.875;   26.000;  204.000
886.776;  -92.875; -407.000; -525.000
887.021; -152.300; -621.000; -574.000
887.265; -157.775; -685.000; -689.000
887.510; -149.625; -557.000; -496.000
887.755; -109.800; -194.000; -164.000
887.999; -145.475; -552.000; -575.000
888.244;  -55.525;  -58.000;  161.000
888.488;  -19.650;  371.000;  393.000
888.732; -134.200; -368.000; -520.000
888.977; -141.425; -622.000; -567.000
889.221; -164.025; -683.000; -659.000
889.465; -142.225; -422.000; -566.000
889.710; -100.775;  -56.000; -299.000
889.954;    3.250;  579.000;  467.000
890.198; -155.275; -584.000; -707.000
890.442; -164.225; -716.000; -712.000
890.687; -172.300; -800.000; -753.000
890.931; -103.875; -273.000; -210.000
891.175; -137.300; -502.000; -500.000
891.419;  -93.025; -105.000; -110.000
891.663;  -90.875; -239.000; -112.000
891.907; -183.275; -801.000; -545.000
892.151; -183.325; -920.000; -815.000
892.395; -124.300; -274.000; -387.000
892.638;  -18.725;  408.000;  291.000
892.882; -193.975; -780.000; -867.000
893.126;   14.225;  758.000;  558.000
893.370; -100.475; -167.000; -168.000
893.614; -150.775; -714.000; -715.000
893.857; -111.325; -183.000; -197.000
894.101; -138.200; -527.000; -631.000
894.345;  -67.475;  300.000;  150.000
894.588;   -1.850;  569.000;  380.000
894.832;  -94.050; -178.000;  -84.000
895.075;  -93.825;   15.000;  -92.000
895.319; -144.350; -552.000; -420.000
895.563; -119.575; -413.000; -353.000
895.806; -158.675; -628.000; -741.000
896.049;  -69.175; -576.000; -368.000
896.293;   69.875;  527.000;  405.000
896.536;  -80.800; -465.000; -468.000
896.779;  -89.700; -149.000;   -1.000
897.023; -156.825; -751.000; -714.000
897.266;  -35.250;  325.000;  269.000
897.509; -192.525; -900.000; -901.000
897.752;  -54.750;  149.000;  171.000
897.996; -180.075; -972.000; -864.000
898.239;  -59.225;  168.000;  102.000
898.482; -127.100; -431.000; -453.000
898.725;  -48.725;  101.000;   53.000
898.968; -165.225; -609.000; -744.000
899.211; -124.925; -513.000; -361.000
899.454; -132.500; -633.000; -539.000
899.697;  -75.475;   90.000;  -43.000
899.940; -171.850; -761.000; -757.000
900.182; -124.725; -335.000; -405.000
900.425;  -86.125; -150.000; -298.000
900.668;  -28.975;  491.000;  350.000
900.911; -103.250; -292.000; -345.000
901.154;  -59.225;  141.000;   -3.000
901.396; -140.550; -407.000; -412.000
901.639; -155.125; -430.000; -496.000
901.882; -184.950; -790.000; -809.000
902.124;  -91.400;  -29.000; -143.000
902.367; -125.525; -315.000; -361.000
902.609; -144.175; -476.000; -453.000
902.852;  -90.600; -108.000; -260.000
903.094; -128.600; -458.000; -337.000
903.337;  -68.350;  -26.000;   53.000
903.579; -122.825; -228.000; -441.000
903.821; -168.675; -597.000; -744.000
904.064;  -76.875;   85.000;  127.000
904.306; -109.375; -126.000; -166.000
904.548; -116.400; -152.000; -366.000
904.790;  -99.500; -195.000; -340.000
905.033; -148.525; -625.000; -577.000
905.275; -147.600; -513.000; -524.000
905.517;   41.500;  468.000;  256.000
905.759;  -82.225; -667.000; -761.000
906.001; -114.150; -322.000; -369.000
906.243;  -71.150; -162.000; -224.000
906.485;  116.175; -265.000; -207.000
906.727;   95.500; -499.000; -542.000
906.969;  -47.900;  -30.000; -135.000
907.211;  111.450; -316.000; -382.000
907.453;  281.975; -188.000; -237.000
907.695;   -1.425; -158.000; -385.000
907.936;   25.050;  818.000;  706.000
908.178;  -57.925;   92.000; -135.000
908.420;  -80.350; -111.000; -162.000
908.662; -141.600; -633.000; -682.000
908.903; -102.550; -208.000; -123.000
909.145;  -72.250; -240.000; -305.000
909.386;  -10.600;  315.000;  280.000
909.628;   36.875;  363.000;  397.000
909.870;   -8.650;   29.000;  264.000
910.111;  -98.700; -809.000; -949.000
910.353;   -5.275; -123.000; -161.000
910.594;   -0.975; -574.000; -606.000
910.835;   67.525; -265.000; -326.000
911.077;  136.275; -503.000; -604.000
911.318;  294.775; -505.000; -471.000
911.559;  444.275; -577.000; -880.000
911.801; 1379.325; -284.000; -280.000
912.042;10706.475;  -50.000; -159.000
912.283;26623.475;  404.000;  371.000
912.524; 3840.550; -396.000; -457.000
912.765;  471.000; -193.000;   79.000
913.006;  235.400; -307.000; -338.000
913.247;   35.125; -270.000; -290.000
913.488;   -2.125;  -43.000;   30.000
913.729;  -96.150; -373.000; -373.000
913.970;  -75.825;  -96.000; -292.000
914.211;  -75.000; -160.000; -198.000
914.452;  -75.775; -118.000;  -11.000
914.693;    3.325;  510.000;  592.000
914.934;    9.500;  510.000;  440.000
915.175;  -80.075;   53.000;  -95.000
915.415;  -74.625; -137.000;   27.000
915.656;  -66.425;  -28.000;  192.000
915.897;  -99.600; -252.000;  -82.000
916.137;  -67.200;   74.000;   -9.000
916.378; -132.675; -573.000; -517.000
916.619;  -98.175; -159.000;  -63.000
916.859;  -35.925;  303.000;  330.000
917.100;  140.775; 1655.000; 1070.000
917.340;   40.575;  930.000;  728.000
917.581;   47.375;  965.000;  789.000
917.821;  -33.850; -171.000;  143.000
918.061;  -13.250; -199.000;  -72.000
918.302;  -72.000; -152.000; -211.000
918.542;  -41.300;  -22.000;    3.000
918.782;   42.700;  369.000;  377.000
919.023;  129.675;  360.000;  427.000
919.263; 1816.825; 8131.000;  202.000
919.503; 1097.650; -137.000;  -54.000
919.743;  650.000;  390.000;  266.000
919.983;  246.475; -134.000;  -26.000
920.223;   68.625;  135.000;   14.000
920.463;  139.175;  631.000;  554.000
920.703;  131.825;   84.000;   39.000
920.943;  139.000; -110.000;   90.000
921.183;  219.150; -414.000; -405.000
921.423;  477.250;  307.000;  546.000
921.663;  732.725; -174.000; -257.000
921.903; 1563.050;  237.000;  173.000
922.143; 8828.000;  372.000;  389.000
922.383;33291.425;  158.000;  115.000
922.622;10643.075; -120.000;  -15.000
922.862; 1133.575;  796.000;  785.000
923.102;  441.900;  -51.000;   33.000
923.341;  150.500;   59.000;   74.000
923.581;  101.400;  450.000;  360.000
923.821;    4.825;  301.000;  398.000
924.060;    7.675;  351.000;  193.000
924.300;  -68.450;  -16.000; -128.000
924.539;  -23.900;  584.000;  473.000
924.779;    5.725;  812.000;  597.000
925.018;  -51.400;  247.000;  353.000
925.257;  -11.175;  595.000;  666.000
925.497;  -37.850;  447.000;  412.000
925.736;  -76.950;  -35.000;  102.000
925.975;   -5.075;  687.000;  669.000
926.214;   16.000;  907.000;  850.000
926.454;   18.150;  706.000;  757.000
926.693;  -48.350;  419.000;  543.000
926.932;   36.250; 1021.000;  825.000
927.171;   52.975; 1107.000; 1044.000
927.410;   45.675; 1144.000;  967.000
927.649;    7.825;  924.000;  742.000
927.888;  -25.200;  590.000;  564.000
928.127;  -24.050;  680.000;  678.000
928.366;   22.800;  842.000;  826.000
928.605;   35.000;  831.000;  737.000
928.844;  234.750; 1451.000; 1393.000
929.083;  587.500;  770.000;  613.000
929.321;  301.350; 1335.000; 1359.000
929.560;   81.375; 1158.000; 1122.000
929.799;  -30.850;  574.000;  475.000
930.038;   61.225; 1025.000; 1394.000
930.276;  -53.825;  334.000;  397.000
930.515;   -6.050;  827.000;  681.000
930.753;  -17.350;  614.000;  589.000
930.992;  -34.725;  664.000;  717.000
931.230;   -1.475;  847.000;  847.000
931.469;  162.025; 2162.000;  892.000
931.707;   66.475;  840.000;  751.000
931.946;   46.050; 1278.000; 1344.000
932.184;   60.475; 1437.000; 1175.000
932.423;   34.200; 1265.000;  963.000
932.661;   74.800; 1296.000; 1428.000
932.899;   20.000;  987.000;  821.000
933.137;   19.350;  754.000;  564.000
933.376;  144.050; 1664.000; 1335.000
933.614;  157.700; 1759.000; 1196.000
933.852;   52.075; 1357.000; 1171.000
934.090;  145.075; 1722.000; 1747.000
934.328;  110.875; 1252.000; 1457.000
934.566;   92.775; 1431.000; 1110.000
934.804;  113.150; 1263.000; 1309.000
935.042;  439.725; 1861.000; 1850.000
935.280; 1718.550; 2088.000; 2063.000
935.518; 1591.425; 2113.000; 2007.000
935.756;  344.025; 2481.000; 2316.000
935.994;  185.600; 1808.000; 1751.000
936.231;  342.325; 2890.000; 2950.000
936.469;  193.600; 2367.000; 2378.000
936.707;  162.850; 2220.000; 2167.000
936.945;  235.375; 2825.000; 2882.000
937.182;  189.150; 2679.000; 2741.000
937.420;  314.725; 3602.000; 3031.000
937.657;  417.150; 3365.000; 3478.000
937.895;  338.575; 3331.000; 3488.000
938.133;  310.950; 3540.000; 3528.000
938.370;  349.075; 3896.000; 4191.000
938.607;  390.675; 4488.000; 4205.000
938.845;  557.125; 5587.000; 5549.000
939.082;  477.800; 5387.000; 5177.000
939.320;  546.000; 5799.000; 5728.000
939.557;  643.000; 6549.000; 6491.000
939.794;  718.075; 7285.000; 7097.000
940.031;  919.200; 8421.000; 8368.000
940.269; 1112.675; 9552.000; 9107.000
940.506; 1118.550;10901.000;10507.000

