
Integration time [ms]: 100.000
Averaging Nr. [scans]: 40
Smoothing Nr. [pixels]: 0
Data measured with spectrometer [name]: 2101013U2
Wave   ;Sample   ;Dark     ;Reference
[nm]   ;[counts] ;[counts] ;[counts] 

394.013;   62.290; -450.257; -315.536
394.305;  201.263; -461.258; -419.536
394.596; 1049.260; -676.269; -527.514
394.887; 2635.502; -796.268; -654.518
395.178; 1015.932;  145.736;   11.476
395.470;   92.943; -210.263; -356.526
395.761;  199.691;  305.734;  394.479
396.052;  296.559; -545.284; -306.489
396.343;  298.429; -557.276; -454.503
396.634;  126.773; -200.279; -290.497
396.926;  129.299; -618.268; -565.517
397.217;  116.484;   11.725;  -17.504
397.508;   57.200; -366.273; -154.507
397.799;   60.623; -555.279; -571.497
398.090;   -4.208; -973.280; -902.495
398.381;   96.259;   11.708;  -11.473
398.672;    6.460; -585.292; -742.473
398.963;   59.304; -348.279; -373.498
399.254;  132.494;   54.709; -209.475
399.545;  -27.712;-1017.266; -883.520
399.836;   61.643; -407.277; -343.501
400.127;   64.035; -205.295; -209.468
400.418;   75.594; -423.274; -392.506
400.709;   65.454; -359.281; -333.493
401.000;   64.448; -268.291; -309.476
401.290;  121.072;  225.698;  115.545
401.581;   81.342; -166.286; -228.485
401.872;   34.882; -542.298; -486.462
402.163;   72.353; -313.296; -252.467
402.454;  107.520; -123.291; -163.475
402.744;   84.069; -844.297; -813.465
403.035;  475.700; -226.293;  -86.471
403.326;  627.263; -366.292; -384.474
403.617;  409.752;  204.701;  165.539
403.907;  254.915; -593.283; -679.490
404.198; 2336.351; -545.307; -599.446
404.489; 6095.845; -618.283; -588.491
404.779; 2088.600; -618.302; -660.456
405.070;  240.154;  -67.304; -174.451
405.360;  334.952; -259.293; -238.472
405.651;  377.312;  125.699;   98.542
405.942;  199.812;  209.714;  127.516
406.232;  294.402; -432.285; -413.487
406.523;  526.670;  641.706;  758.530
406.813;  106.840; -579.286; -644.484
407.104;  374.358;  261.708;  144.527
407.394;  196.078; -604.299; -591.462
407.685;  168.401;  336.715;  222.513
407.975;   71.319; -400.283; -382.490
408.265;  115.635; -134.289; -190.478
408.556;   85.942; -472.291; -459.475
408.846;  182.521;  474.706;  429.530
409.137;   89.518;   -1.288; -216.480
409.427;   66.602; -193.285; -271.487
409.717;   51.328; -776.273; -692.508
410.007;  154.420;    4.715; -170.486
410.298;   94.063; -360.295; -342.469
410.588;   65.899; -495.285; -510.486
410.878;   28.454; -792.287; -873.482
411.168;  128.460; -481.298; -478.463
411.459;  126.013; -295.283; -242.489
411.749;   69.166; -609.292; -507.474
412.039;   58.041; -755.289; -386.480
412.329;  209.586;   40.722;  132.501
412.619;  202.540;  -62.286; -148.485
412.909;  387.837;  639.711;  594.521
413.199;  346.443; -130.280; -251.495
413.490;  417.353;  521.710;  352.523
413.780;  139.572;-1013.279; -913.496
414.070;  331.105;  -46.276;  235.497
414.360;  374.707; -729.278; -666.498
414.650;  425.925; -726.288; -688.482
414.940;  526.821; -538.280; -441.496
415.230;  924.047;   50.712;   74.519
415.520; 5995.434;  155.730;   66.486
415.809;23390.154; -305.281; -125.493
416.099;18238.271; -388.277; -229.501
416.389; 4984.892;  435.726;  236.494
416.679; 2958.372;   91.738;   85.473
416.969;  514.934; -527.287; -503.483
417.259;  601.173;  341.721;  171.503
417.549;  699.978;  522.718;  318.508
417.838; 1609.176; -205.268; -147.518
418.128; 5319.933;  650.710;  492.522
418.418; 4426.334; -491.272; -579.509
418.708; 3010.742;    9.726;  -48.506
418.997;11191.038; -474.275; -480.505
419.287;11657.924; -733.273; -790.507
419.577;10940.213; -160.283; -123.489
419.866;36250.044; -588.277; -498.501
420.156;37582.005; -242.270;  -55.513
420.446; 6868.789; -112.263;  -26.526
420.735;  899.799; -376.271; -446.512
421.025;  857.157; 1830.722;  315.502
421.314;  711.447; -203.271; -226.512
421.604; 1549.794;   89.732;  233.484
421.893;  935.593; -705.271; -602.511
422.183;  241.565; -487.263; -461.526
422.472;  383.570;  -36.271; -107.511
422.762;  460.144; -416.266; -379.521
423.051;  249.006; -916.276; -916.503
423.341;  334.076; -491.273; -439.507
423.630;  423.625; -121.265;   15.477
423.919;  387.787;   58.725;   49.495
424.209;  368.595;  -31.263;   56.473
424.498;  492.323;   68.732;  161.483
424.787; 1069.155; -535.267; -601.518
425.077; 3297.224;   34.735;   29.478
425.366; 4711.201; -734.262; -744.528
425.655; 9516.127;  639.727;  259.493
425.945;20253.805; -313.247; -268.554
426.234;11349.524;  117.741;  300.467
426.523; 4973.504;  -86.259; -350.534
426.812; 6811.440;  107.734;  159.480
427.101; 9926.465; -127.269; -323.515
427.390;12598.184;  -55.270;  -86.514
427.680; 2974.048; -624.257; -411.538
427.969;  494.209; -330.255; -301.540
428.258;  322.990; -385.257; -477.536
428.547;  553.639;  449.728;  397.490
428.836; 1298.450; -421.253; -398.543
429.125; 1886.606; -199.259;  -72.534
429.414;  837.073; -330.251; -294.548
429.703; 3050.498; -231.251; -213.548
429.992; 9000.102; -938.250; -828.549
430.281; 5957.032; -397.264; -331.524
430.570;  598.939;  -21.252;   32.454
430.859;  608.528;  279.741;  352.466
431.148;  476.751;  636.752;  631.446
431.437;  322.863;  391.748;  367.454
431.725;  153.292; -544.257; -481.536
432.014;  132.483; -845.253; -756.545
432.303;  394.602; -149.239; -105.569
432.592;  644.414; -460.263; -178.525
432.881; 1026.502; -601.248; -437.554
433.169; 5929.735; -343.255;  -61.540
433.458;12142.136;  445.765;  540.424
433.747; 5158.906; -397.261; -289.529
434.036;  918.478; -275.242; -280.564
434.324; 2072.364; -395.249; -379.551
434.613; 3584.696;   40.757;  159.437
434.902; 1225.542;  333.760;  439.433
435.190;  622.850;   75.761;  295.431
435.479;  359.753;  -52.245;   83.441
435.767;  119.436; -411.244; -427.561
436.056;  241.973; -340.242; -294.563
436.345;  383.094; -372.240; -223.568
436.633;  399.259;   60.750;  383.450
436.922;  295.571;  208.760;  414.432
437.210;  683.750; -194.236;    1.426
437.499; 2193.734; -583.235; -432.576
437.787; 2405.625; -339.236;  -10.574
438.075;  598.031;   56.761;  162.430
438.364;  789.559;  -44.238;  250.429
438.652;  499.563; -286.226; -138.592
438.941;  150.527;    3.770;  269.415
439.229;   28.636; -665.252; -466.545
439.517;   40.342; -160.234;  -85.577
439.806;    2.029; -501.225; -290.595
440.094;  182.350;  377.766;  650.421
440.382;  198.153; -653.233; -302.580
440.670;  235.508; -361.235; -285.576
440.959;   31.847; -347.223; -170.599
441.247;   88.914; -151.229; -109.587
441.535;  112.165; -266.235;   31.423
441.823;   49.397; -497.234; -305.578
442.111;  187.243;  173.771;  327.412
442.400;  562.077; -628.245; -335.559
442.688; 1542.824; -111.234; -620.579
442.976; 1148.434; -786.213; -450.617
443.264;  115.686; -324.224; -364.597
443.552;  110.065; -258.226;   51.408
443.840;  168.214;  602.765;  876.423
444.128;  111.003;  265.767;  269.420
444.416;   14.071; -694.228; -312.588
444.704;   28.801; -465.219;  -92.605
444.992;   91.692;   -0.226;  240.407
445.280;   57.928; -517.230;  -94.585
445.568;   47.913; -694.212; -396.618
445.856;  375.735; -174.221;  357.398
446.143;  832.198;  -54.220;   -7.604
446.431;  678.924;  -25.228;  625.411
446.719;  267.621;  489.783;  675.391
447.007;  214.972;  481.769;  705.416
447.295;  203.619;  597.777;  871.402
447.583;   88.787; -464.229;  -34.587
447.870;  161.532; -434.221; -202.601
448.158;  438.252; -104.230;  129.415
448.446;  345.224; -800.219; -338.604
448.733;  190.612;   13.776;  269.403
449.021;  265.588;   60.788;  341.382
449.309;  183.628; -296.210;  208.379
449.596;  233.442;  128.783;   59.392
449.884;  153.051; -571.222; -325.600
450.172;  175.705; -756.227; -406.590
450.459;  433.193;  645.786;  780.387
450.747; 2310.240; -411.218; -147.608
451.034; 7215.976;  493.772;  889.411
451.322; 5991.171; -413.214; -170.614
451.609;  531.639;  292.777;  508.403
451.897;  578.091; -550.203; -183.634
452.184; 1694.419; -622.223; -400.598
452.472; 1662.324;   97.792;  269.375
452.759;  366.999;  512.781;  864.395
453.047;  120.360; -407.212; -125.617
453.334;   75.332; -732.219; -216.606
453.621;   91.098; -438.214; -161.615
453.909;  125.608;   13.796;  384.368
454.196;  111.203; -299.199; -123.641
454.483;  215.954;  317.798;  540.364
454.771;  143.402; -215.208;  196.374
455.058;   55.155; -316.207;  102.374
455.345;  121.058;   71.807;  344.347
455.632;   85.334; -128.207;  235.373
455.919;   46.926;  -82.196;  182.354
456.207;  -57.117; -774.198; -450.642
456.494;  -13.109; -475.200;  -66.639
456.781;    9.174; -399.202; -198.635
457.068;   58.115; -253.206;  -29.628
457.355;    0.641; -698.206; -401.629
457.642;  -11.253; -552.205; -290.630
457.929;   -2.676; -778.194; -417.651
458.216;   69.310; -575.212; -354.617
458.503;  231.154; -173.193;  -19.652
458.790;  219.100; -864.208; -630.625
459.077;  263.504;  -77.202;  110.364
459.364;  781.367; -350.195; -210.649
459.651; 1611.313;  -46.206;  220.372
459.938;  764.690; -864.209; -665.623
460.225;  166.332;  132.799;  276.363
460.512;  -45.702; -836.197; -688.645
460.799;  123.164;  -32.218;  320.392
461.086;   76.845; -370.200; -251.640
461.372;   58.008; -509.198; -279.642
461.659;  133.477; -165.196;  108.354
461.946;   77.253; -445.193;  -54.651
462.233;  225.243;  842.800;  888.361
462.519;  357.390; -814.201; -464.639
462.806;  968.898; -768.197; -497.645
463.093;  883.148; -445.191;  -66.656
463.380;  -17.760; -920.186; -824.664
463.666;   64.300; -259.197;  -18.646
463.953;  105.062; -406.195; -243.648
464.239;  212.162; -173.195;  -77.648
464.526;  393.948;  413.806;  743.350
464.813;  349.060; -565.190; -304.658
465.099;  372.729;  606.807;  607.348
465.386;  346.633;  903.807;  921.348
465.672;   47.523; -694.197; -522.645
465.959;   14.778; -598.188; -520.662
466.245;   17.233; -468.193; -359.652
466.532;  116.735; -109.195;   63.352
466.818;   79.189; -357.186; -216.664
467.104;    3.479; -488.182; -415.672
467.391;  -16.688; -628.189; -459.658
467.677;   41.118; -289.186;    9.335
467.964;    3.543; -682.189; -471.660
468.250;   73.246; -331.186; -160.665
468.536;   89.213;   90.811;  180.341
468.822;  -31.593; -821.184; -574.668
469.109;  144.835;  351.827;  471.311
469.395;  203.567;  729.808;  787.346
469.681;  188.291;   46.811;  156.341
469.967; 1169.021; -699.188; -382.660
470.254; 2594.329; -494.188; -306.662
470.540; 1698.050; -601.196; -476.646
470.826;  233.516; -488.181; -397.675
471.112;  300.961;  288.816;  113.331
471.398;  101.566; -253.183;  -58.670
471.684;   39.744; -626.177; -447.680
471.970;   -9.631; -918.180; -981.675
472.256;   25.041; -521.192; -441.654
472.542;   28.621; -499.171; -434.691
472.828;   24.925; -743.182; -607.672
473.114;   40.465; -380.166; -283.700
473.400;   21.735; -504.175; -293.684
473.686;   46.146; -452.166; -400.701
473.972;   61.675; -230.174; -131.687
474.258;  -43.165; -925.173; -843.689
474.544;  201.211; -183.178;   -2.679
474.830;  275.412;  -65.175;   45.316
475.116;  460.586; -123.190; -196.658
475.401;  608.672; -558.180; -467.676
475.687;  191.921; -725.180; -718.676
475.973;    9.658; -673.181; -770.673
476.259;  268.664;  736.825;  764.315
476.544;  348.502; -539.176; -437.682
476.830;  772.092; -398.172; -322.690
477.116;  669.501; -430.177; -336.682
477.401;  145.846;  346.820;  358.324
477.687;  -22.614; -289.175; -405.684
477.973;   43.937;   21.819;   28.326
478.258;   -0.684; -448.163; -348.706
478.544;   56.551;   21.815;   61.334
478.829;  -45.148; -818.171; -738.692
479.115;  -32.208; -749.172; -651.690
479.401;  -14.854; -444.174; -449.686
479.686;   19.695; -253.180;  -74.676
479.972;  -42.509; -886.178; -776.680
480.257;   31.841; -258.166;  -65.700
480.542;   -6.294; -614.170; -469.693
480.828;  237.259; 1288.824; 1392.317
481.113;  -33.768; -464.176; -426.683
481.399;  -10.335; -236.161; -202.711
481.684;  -38.159; -620.166; -462.700
481.969;   31.829; -158.159;  -73.713
482.255;  -11.109; -439.169; -285.695
482.540;    4.066; -569.178; -441.680
482.825;    9.785; -395.187; -404.663
483.110;   92.445;  -85.169; -105.696
483.396;  159.500; -840.157; -652.718
483.681;  477.675;  543.826;  730.313
483.966;  149.948; -696.160; -700.712
484.251;    8.324; -404.174; -310.687
484.536;    5.601; -356.165; -378.703
484.822;   18.002; -205.173; -218.687
485.107;  -16.037; -599.152; -502.726
485.392;  132.532;  662.836;  541.296
485.677;   80.504;  354.832;  163.302
485.962;  117.123;  160.843;  270.283
486.247;   97.199;  -14.162;   -8.707
486.532;   61.842; -178.166; -325.701
486.817;  162.235;  381.839;  431.291
487.102;  120.121; -453.154; -514.722
487.387;  635.127; -637.156; -652.718
487.672; 1069.062; -154.164;  -38.705
487.957;  676.517; -394.160; -286.711
488.241;  202.055; -290.150; -314.729
488.526;  689.990; -280.152; -148.726
488.811; 1128.693; -881.177; -818.680
489.096;  835.374; -666.154; -702.723
489.381;  459.836;    3.847;  162.275
489.666;  357.365; -428.161; -510.710
489.950;  188.652;  558.846;  627.277
490.235;  -44.175; -480.151; -458.728
490.520;  -43.711; -756.161; -723.710
490.804;  -55.996; -827.156; -736.719
491.089;    6.646; -469.149; -299.732
491.374;   29.636; -132.164;  -75.704
491.658;   -1.943; -817.147; -717.735
491.943;  168.544; -657.152; -609.727
492.227;  269.367; -178.155;  -38.721
492.512;   64.047; -294.157; -341.717
492.797;  -67.460; -713.149; -716.731
493.081;  -54.215; -588.147; -598.735
493.366;  -20.184; -751.161; -635.711
493.650;  210.138;  831.859;  917.254
493.935;   30.332; -648.147; -447.734
494.219;  -48.275; -778.142; -687.743
494.503;  -43.265; -585.150; -487.730
494.788;   55.314;   46.842;   74.285
495.072;   99.531;  184.850;  434.271
495.356;  164.574; -463.148; -343.733
495.641;  451.942; -812.146; -736.736
495.925;  443.634; -976.156; -903.719
496.209;   39.645; -599.149; -451.732
496.494;  -40.999; -763.142; -544.744
496.778;   26.247; -364.154; -360.722
497.062;  -44.466; -819.156; -627.719
497.346;  -23.181; -869.160; -640.711
497.631;  141.453;  580.852;  560.266
497.915;   70.827;  -64.145;  175.261
498.199;   52.425; -341.157; -277.718
498.483;   48.838; -562.152; -508.725
498.767;  189.083;  301.850;  300.271
499.051;  174.743; -126.149; -100.732
499.335;   38.566; -693.149; -739.731
499.619;  -35.411; -381.129; -423.767
499.903;   37.741; -272.155;  -65.721
500.187;   28.129; -588.153; -316.724
500.471;   14.893; -796.152; -595.727
500.755;  119.889;   62.839;  -96.710
501.039;   22.541; -270.155; -357.721
501.323;   98.165;  -21.141;  264.254
501.607;   31.217; -447.163; -503.706
501.891;    1.227; -607.156; -512.718
502.174;  -29.537; -726.144; -585.741
502.458;   63.422;   89.849;  370.273
502.742;   41.239; -180.138; -191.751
503.026;   96.231; -412.147; -254.734
503.310;  157.628; -437.159; -375.713
503.593;  104.008; -464.147; -325.735
503.877;  123.204; -232.133; -156.760
504.161;  180.781;    2.847;  -50.724
504.444;  127.516; -841.158; -710.716
504.728;  434.010; -487.164; -522.704
505.012;  669.854; -257.150;  -76.729
505.295;  525.765; -417.161; -212.711
505.579;  506.458; -256.156; -496.719
505.862;  692.773; -555.145; -333.738
506.146;  673.330; -681.159; -758.714
506.429;  389.481;  568.841;  461.286
506.713;   66.402; -732.151; -667.728
506.996;  297.271;   90.846;  295.278
507.280;  316.955; -633.165; -474.703
507.563;  233.090; -469.155; -261.721
507.847;   83.529; -423.153; -112.724
508.130;   82.066; -665.161; -456.711
508.413;  114.337; -758.167; -577.700
508.697;  246.862; -151.167;   12.300
508.980;  135.931; -422.153; -312.724
509.263;   -5.539; -466.155; -450.720
509.547;   35.279; -124.150;   82.271
509.830;   39.468; -172.160;  140.289
510.113;   80.958;  128.844;  298.281
510.396;   29.737; -530.152; -300.725
510.680;  199.100; -818.145; -812.738
510.963;  731.800;  184.846;  180.277
511.246;  622.962; -493.150; -357.730
511.529;  267.880; -482.145;  -83.739
511.812;  366.276; -250.134;   10.241
512.095;  245.974; -740.151; -396.728
512.378;   66.887; -317.147; -245.736
512.661;   19.921; -703.137; -623.753
512.944;   26.803; -750.142; -637.744
513.227;   74.669; -170.137; -171.752
513.510;   25.338; -479.144; -671.741
513.793;   20.719; -485.140; -435.747
514.076;  138.060;  -43.127;  -39.771
514.359;  114.796; -294.149; -135.732
514.642;   89.580; -442.142; -567.744
514.925;  723.943;  581.860;  561.253
515.208;  908.497; -498.134; -443.758
515.491;  605.486; -276.133; -182.761
515.773;  349.792; -410.143; -337.742
516.056; 1951.678;  249.864;  409.246
516.339; 2672.782; -754.136; -652.755
516.622; 1932.835; -518.150; -488.730
516.904; 1362.324;  882.857;  975.257
517.187;  631.792; -730.138; -523.752
517.470;  401.173; -568.143; -510.743
517.752;  392.460; -624.136; -470.756
518.035;  330.905; -708.139; -725.749
518.318;  350.707; -799.136; -744.755
518.600; 2251.789; -300.132; -325.762
518.883; 3131.105;  310.858;   88.256
519.165; 1504.710; -585.138; -426.751
519.448;  375.914;  -61.132;  -19.762
519.730;  197.943; -573.126; -415.773
520.013;  327.057;  588.867;  664.240
520.295;  923.052;  -94.134;  -15.759
520.578; 2028.477; -335.131; -305.764
520.860; 2289.389; -254.132;   56.238
521.143; 1173.287; -763.135; -584.756
521.425;  472.156; -251.125; -279.775
521.707;  638.136; -622.127; -380.771
521.990; 1680.186; -199.127;  167.229
522.272; 1915.396; -116.140;   -4.748
522.554;  910.043; -237.143; -157.742
522.836;  397.850;  -24.134;   99.241
523.119;  224.430; -496.148; -189.734
523.401;  159.209; -448.130; -314.766
523.683;   63.747; -865.137; -693.753
523.965;  267.490;  408.862;  260.248
524.247;  263.227;   54.878;  170.220
524.529;  185.627; -451.134; -367.759
524.812;  342.486;   -3.130;  191.234
525.094;  787.940; -773.138; -631.751
525.376; 1278.965; -143.124;   78.223
525.658;  763.954; -441.136; -339.754
525.940;   28.124; -805.131; -671.764
526.222;   42.133; -188.136;  -88.755
526.504;  120.822; -190.131;   32.237
526.786;  210.780; -960.133; -647.760
527.068;  340.420; -124.123;  -67.778
527.349;  154.976; -865.137; -774.754
527.631;  143.639; -137.132;   22.238
527.913;  130.110; -664.127; -450.771
528.195;  148.749; -761.125; -639.774
528.477;  222.922;  -93.134;  -30.758
528.759;  126.236; -648.130; -522.766
529.040;   56.069; -569.123; -293.778
529.322;   48.126; -235.125;  -10.774
529.604;  148.538;  -47.130;   93.233
529.886;  142.642; -546.126; -302.773
530.167;  137.655;  232.870;  192.235
530.449;   34.236;    1.853;   63.265
530.731;   22.851; -572.122; -459.779
531.012;   59.947; -513.120; -216.784
531.294;   77.761; -118.116;  -43.792
531.575;  149.481;  290.875;  538.225
531.857;   35.017; -548.135; -266.757
532.138;   91.614; -113.141;   40.254
532.420;  178.213;  294.865;  403.244
532.701;  222.432; -722.133; -751.760
532.983;  362.285;  232.867;  182.239
533.264;  131.440; -243.126;  175.228
533.546;  -29.418; -491.136; -508.755
533.827;   52.704;  173.867;   -1.759
534.109;   44.367; -352.135;  -80.757
534.390;  102.743; -725.132; -582.762
534.671;  236.388; -270.135;  -82.756
534.953;  133.997; -751.123; -611.779
535.234;   21.946; -426.117; -255.789
535.515;  -86.445; -891.119; -735.785
535.796;  -22.994; -431.128; -193.770
536.078; -109.511;-1050.124; -904.777
536.359;    6.972;  -22.123;    3.221
536.640;  -11.125; -480.125; -197.774
536.921;  157.318;  225.871;  143.232
537.202;  373.262;  -87.138;  -16.751
537.483;  430.377;  251.869;  377.236
537.764;  168.230;   17.870;   98.235
538.045;  -39.404; -543.134; -371.758
538.326;  -36.630; -596.129; -447.768
538.607;   20.886; -686.127; -476.771
538.888;  152.813;   98.879;    5.218
539.169;  183.257; -704.122; -535.781
539.450;  337.692;  236.871;   16.233
539.731;  215.042; -361.121; -182.783
540.012;  149.747;  199.880;  412.216
540.293;   96.684;   82.876;  158.224
540.574;   -0.844; -895.113; -717.796
540.855;  435.865;  435.879;  377.218
541.136;  514.580;   47.878;  139.220
541.416;  269.411; -161.130; -220.766
541.697;  196.647; -274.131; -170.763
541.978;  956.390; -270.135; -315.757
542.259; 1244.111; -211.127; -236.771
542.539;  594.455; -191.116; -186.790
542.820;  195.780;  461.875;  480.225
543.101;  137.727;  -52.145;  -77.738
543.381;   28.686; -638.127; -591.771
543.662;  272.759;  159.873; -254.771
543.942;  545.382; -751.127; -830.770
544.223; 1005.106;  193.878;  161.219
544.504;  635.864; -275.124; -182.777
544.784;  543.392; -592.126; -408.773
545.065; 1548.958;  104.884; -254.791
545.345; 1872.755;  227.881;   14.215
545.626; 1207.356;  -14.113; -108.796
545.906;  821.404;   77.869;   98.235
546.186;  350.347;   92.874;  -95.773
546.467;  181.792;   99.877;  -95.778
546.747;  293.404;  264.884;  327.210
547.027;  355.863;   91.876;  111.223
547.308;  300.081; -376.127; -530.770
547.588;  373.146;  299.871;  371.232
547.868;  193.605;  458.870;  588.235
548.149;  201.141;  609.885;  593.207
548.429;  103.184; -347.127; -299.771
548.709;  178.446; -645.120; -461.784
548.989;  443.190;   84.882;   88.213
549.269; 1970.138;   10.868;  139.239
549.550; 4487.021;  215.877;  117.222
549.830; 4021.449; -758.111; -556.799
550.110;  814.506; -468.110; -320.801
550.390;  791.076; -128.122;  -56.779
550.670; 1063.501; -868.114; -783.795
550.950;  758.815; -509.121; -471.782
551.230;  203.561;  549.879;  460.218
551.510;  -23.936; -381.121; -326.782
551.790;   36.714; -173.109; -127.803
552.070;  248.717;  940.877; 1181.223
552.350;  383.284; -492.119; -377.786
552.630;  538.084;   -2.121;   77.219
552.909;  316.334;  181.884;   73.209
553.189;  235.619;  -49.132;   33.237
553.469;  163.209; -703.119; -514.786
553.749;  164.963; -469.127; -357.772
554.029;  154.600;   33.883;  -24.790
554.308;  130.120; -154.115;  -37.794
554.588;   68.480; -196.128; -204.770
554.868;   64.466; -366.121;  -47.782
555.147;  137.792; -114.115;  -46.793
555.427;  571.911; -260.116; -250.792
555.707; 3643.765; -284.115; -200.793
555.986; 4362.802; -719.111; -538.800
556.266; 2308.428;   23.884;   72.210
556.546;  101.664; -888.121; -675.782
556.825;  237.449; -657.114; -556.794
557.105; 1657.903; -125.128;   17.230
557.384; 1972.233;  122.884;  187.209
557.664;  749.785; -717.116; -508.792
557.943;  112.715; -557.121; -411.782
558.222;  155.918; -345.118; -344.788
558.502;  271.318; -116.115;  -76.793
558.781;  457.839;  194.885;  499.208
559.061;  394.943; -232.118; -227.788
559.340;  278.797;  302.883;  353.211
559.619;  686.253;   93.884;  148.210
559.899;  946.324; -239.117; -266.789
560.178;  880.618; -778.115; -593.793
560.457; 2935.826; -623.117; -562.790
560.736; 4046.178; -472.111; -482.800
561.015; 2705.650; -500.128; -502.769
561.295;  367.609;  180.893;  215.193
561.574;  335.241;  119.885;  116.207
561.853;  467.268;  274.891;  303.197
562.132;  457.546;  -45.114;  182.206
562.411;  408.384;  396.879;  553.219
562.690;  125.614; -592.115; -458.792
562.969;  139.363;  472.888;  630.203
563.248;  516.432; 2966.878; 2487.219
563.527;  247.477; -290.111; -408.800
563.806;  359.759; -650.127; -521.771
564.085;  360.099; -297.105; -206.810
564.364;  211.152; -594.117; -405.790
564.643;  463.185; -276.121; -223.781
564.922; 1749.187;  221.890;  397.198
565.201; 1750.791; -640.109; -700.803
565.479;  766.212; -297.115; -219.792
565.758;  298.578; -810.128; -712.770
566.037;  433.192; -155.109; -100.803
566.316;  224.458; -286.116;  -28.791
566.595;   50.640;  -17.115;  -12.793
566.873;   95.454; -166.111;  -79.801
567.152;  -56.613; -490.113; -590.797
567.431;    0.054; -113.116;    6.210
567.709;    2.784; -344.107; -212.807
567.988;  234.924; -810.114; -769.794
568.266;  509.815; -160.115;  -68.793
568.545;  362.746; -644.100; -514.819
568.824;  530.962;  160.885;  356.208
569.102;  504.124; -351.114; -235.794
569.381;  215.211; -492.116; -407.792
569.659;  -56.591; -553.113; -553.796
569.938;   28.430; -743.122; -465.780
570.216;  109.544; -225.109; -225.804
570.494;  -24.248; -632.114; -572.795
570.773;   26.838;  202.879;  114.218
571.051;   13.269; -373.123; -357.778
571.330;   60.106; -221.113; -174.796
571.608;   36.389; -181.098; -173.823
571.886;  -80.603; -671.111; -581.799
572.164;  -73.784; -739.121; -621.782
572.443;  -43.997; -562.105; -512.811
572.721;  -41.249; -399.117; -289.790
572.999;  -33.730; -280.117; -168.788
573.277;   90.046;  379.894;  620.191
573.555;  271.023;   94.894;   37.190
573.834; 1235.794;  -86.117; -114.788
574.112; 1462.536;  880.893;  811.193
574.390;  439.653; -143.111;  -96.801
574.668;   -6.012;  -91.112;  -61.797
574.946;  -14.652; -165.106; -187.810
575.224;    5.566;   71.891;  -16.803
575.502;  -13.944; -200.116; -204.791
575.780;  -86.036; -767.112; -829.798
576.058;  198.828; 1589.889; 1004.200
576.336;  -24.017; -210.110; -129.801
576.614;  -64.460; -511.112; -340.798
576.891;   43.820; -711.115; -823.794
577.169;  437.227; -158.108; -285.805
577.447;  526.736;  169.893;  202.193
577.725;  258.194;  629.888;  854.201
578.003;    5.467;  -71.112; -371.798
578.280;   83.086; -208.104; -242.812
578.558;   70.493; -450.115; -422.793
578.836;  123.627; -210.114; -145.795
579.114;   37.363; -630.112; -670.797
579.391;   87.346;   -6.117;  -18.789
579.669;  -65.605; -595.114; -704.794
579.947;  156.807; -326.107; -127.806
580.224;  305.832; -692.107; -524.806
580.502;  301.511;  127.893;   76.193
580.779;   28.602;  -42.117;   75.210
581.057;  -79.730; -584.109; -470.804
581.334;  -99.574; -726.102; -695.815
581.612;   46.849;   54.895;  511.190
581.889;  -28.635;  -83.101; -129.818
582.167;  -31.271; -298.099; -190.821
582.444; -100.341; -845.102; -814.817
582.721;  111.210;  657.899;  715.183
582.999;   43.376; -326.100; -167.821
583.276;  478.924; -812.123; -713.779
583.553;  663.930; -364.102; -294.816
583.831;  209.758; -607.104; -631.812
584.108;   41.750;  349.892;  174.195
584.385;   -4.549; -122.102;  -98.815
584.662;  -75.420; -651.111; -828.801
584.940;   25.179;  204.889;  204.199
585.217;  -17.867;  -73.113; -303.796
585.494;   34.988;   71.890;  118.198
585.771;  188.096; -250.109; -354.804
586.048;  461.283; -196.113;  -76.796
586.325;  283.907; -721.110; -773.801
586.602;   90.062;  230.896;  213.188
586.879;   -7.577; -499.100; -580.820
587.156;   47.000; -156.105; -331.810
587.433;  -35.243; -701.102; -667.817
587.710;   54.440;  152.888;  234.202
587.987;  295.680; -264.105; -236.811
588.264;  760.167;  315.888;  387.202
588.541; 1301.789;  -61.104;   26.187
588.818; 2537.473;   72.892;  171.196
589.095; 2198.960; -163.104; -174.812
589.371;  356.268; -459.109; -414.804
589.648;    3.261; -581.107; -437.807
589.925;   19.303; -517.114; -621.795
590.202;    7.640; -741.112; -607.798
590.478;   77.882; -166.105;  -73.811
590.755;  255.654; -241.108; -132.806
591.032; 2307.759; -741.110; -699.802
591.308; 3184.029; -732.094; -790.831
591.585; 1646.109; -573.110; -560.802
591.862;  123.384;-1056.102; -950.817
592.138;   46.976; -475.108; -474.805
592.415;  126.238; -486.104; -495.813
592.691; 1406.985;  460.896;  518.188
592.968; 1775.641; -208.098; -123.824
593.244;  879.304; -695.116; -595.790
593.521;   76.409; -105.102;  -42.817
593.797;  -26.073; -810.122; -720.780
594.074;  304.303; -611.096; -588.826
594.350;  628.439;  828.905;  729.172
594.626;  272.830; -303.111; -283.801
594.903;  109.060; -643.101; -645.817
595.179;  180.841;  243.896;  418.187
595.455;    4.762; -136.107; -150.807
595.731;    1.943;  -19.103;  -38.814
596.008;  -38.776; -464.111; -434.800
596.284;   31.850; -187.100; -242.820
596.560;   33.660; -501.093; -493.833
596.836;  186.402; -173.105;  -70.810
597.112;  322.227; -582.108; -437.805
597.388;  262.076;  -49.097;  -48.826
597.665;  112.661;  437.887;  530.203
597.941;  -54.361; -572.089; -658.839
598.217;    3.888; -323.110; -293.802
598.493;  260.397;   61.891; -204.804
598.769;  455.769; -175.100;  -50.819
599.045;  295.205; -490.108; -562.806
599.321;   45.174; -193.100; -261.820
599.597;  126.821; -355.109; -476.804
599.872;  452.214;  409.896;  429.187
600.148;  349.152;  -61.097; -172.826
600.424;  268.860;   91.893;  202.193
600.700;  203.587; -170.107; -280.807
600.976;   99.722; -442.097; -464.825
601.252;  209.843; -226.109; -272.803
601.527;  186.665; -833.104; -840.813
601.803;  138.257; -453.105; -404.812
602.079;  156.044; -124.100; -118.819
602.354;  531.895; -620.092; -531.835
602.630;  764.758; -140.113; -482.796
602.906; 2163.765; -910.101; -863.818
603.181; 6230.234; -627.119; -534.786
603.457; 5294.425;   98.903; -278.826
603.733;  768.542; -605.120; -626.783
604.008;  898.499; -245.106; -164.810
604.284; 2854.061; -636.101; -580.817
604.559; 2483.944;   -3.112;  -42.799
604.835;  459.127; -163.105; -225.810
605.110;  375.154; -732.099; -892.821
605.385;  639.613;  224.907;  267.167
605.661;  590.267; -625.095; -729.829
605.936; 1055.305; -664.108; -737.806
606.211;  919.425;  -17.103; -170.815
606.487;  182.097; -329.114; -376.794
606.762;    4.884; -791.119; -745.786
607.037;  -34.923; -501.105; -433.810
607.313;  -54.965; -589.096; -574.828
607.588;   -8.152; -375.106; -137.810
607.863;   34.989;  -28.101; -143.818
608.138;  162.736;  513.890;  516.198
608.413;   12.833; -576.099; -592.822
608.688;   30.502; -203.108; -267.805
608.964;  178.668; -509.106; -218.809
609.239;  207.924; -107.105; -212.810
609.514;  229.082;  281.895;  240.188
609.789;  619.912; -187.104; -716.812
610.064;  789.084; -435.096; -609.827
610.339;  815.793; -855.109; -799.804
610.614; 1078.924; -131.100; -315.820
610.889;  620.582;  215.895;  107.188
611.163;   16.083; -407.104; -591.812
611.438;   75.124;   81.886; -167.794
611.713;  -11.514; -467.101; -499.817
611.988;   46.913; -144.101; -328.818
612.263;  -37.524; -771.102; -717.815
612.538;  206.783;  385.887;  251.204
612.812;  154.426; -832.100; -911.820
613.087;  110.388; -358.098; -338.823
613.362;  -66.888; -497.107; -557.807
613.637;   42.521;  261.897;  138.186
613.911;   -4.454; -256.092; -345.835
614.186;  107.011; -249.107; -292.807
614.460;  606.939; -842.081; -758.854
614.735;  704.238;  -55.087;  -17.843
615.010;  148.603;   43.912;  -82.841
615.284;  231.626;  360.892;  246.195
615.559;  333.369; -792.092; -955.835
615.833;  269.531;  -76.099;  -87.822
616.108;    7.106; -225.090; -390.837
616.382;  123.214;  274.913;  402.156
616.656;  142.457; -241.090; -232.837
616.931;  474.482; -785.099; -700.822
617.205;  965.016; -973.104; -979.813
617.480;  911.003;  -91.125;    6.225
617.754;  150.701; -396.125; -128.774
618.028;    4.347; -369.129; -382.768
618.302;   57.375;   73.892;  -25.805
618.577;  -45.428; -371.103; -518.815
618.851;  -62.785; -399.109; -600.803
619.125;  -55.573; -335.134; -378.759
619.399;  -34.009; -244.104; -374.813
619.673;  -41.713; -330.115; -515.792
619.947;  -40.773; -333.114; -448.795
620.222;  -35.844; -198.110; -204.801
620.496;  -19.360;  -47.121;  -96.782
620.770;   -0.843; -187.122;  -93.781
621.044;  196.325;  323.895;  346.190
621.318;  696.343; -653.120; -614.783
621.592;  612.441; -430.121; -409.783
621.866;  321.670; -476.112; -572.799
622.140;   22.931; -207.116; -356.791
622.413;   57.149;  138.889;  112.200
622.687;  -45.314; -746.101; -492.817
622.961;    4.575; -130.108; -143.805
623.235;  -64.500; -633.111; -661.800
623.509; -113.793; -816.105; -848.811
623.783;   -0.667;  -12.107;   48.193
624.056;  -35.681; -254.120; -280.783
624.330;   39.863;   63.888;   -3.797
624.604;   41.377; -271.116; -355.790
624.877;   67.210;  180.890;   26.198
625.151;   37.346; -249.114; -238.794
625.425;  -28.157; -150.103; -283.814
625.698;  -58.797; -367.119; -374.785
625.972;  -96.512; -799.110; -765.802
626.245;   82.279;  685.884;  484.210
626.519;  -60.177; -426.120; -340.784
626.792;  -39.413; -192.107; -380.807
627.066;  -83.525; -485.122; -662.779
627.339;  -91.491; -736.110; -663.802
627.613;   28.797;  351.880;  148.216
627.886;   56.815;  187.891; -612.803
628.160;  -15.732;  312.880; -161.783
628.433;  -95.944; -695.125; -703.775
628.706;  -82.752; -517.120; -615.784
628.979;   29.363;  296.876;  117.223
629.253;  -85.117; -785.119; -833.786
629.526;  343.766; -334.126; -253.772
629.799;  298.995; -641.123; -479.778
630.072;  124.998; -497.128; -516.769
630.346;  -69.571;-1115.116;-1080.790
630.619;  395.763; -467.107; -545.808
630.892;  601.001;  709.889;  593.200
631.165;  312.766;  790.896;  679.187
631.438;  -81.158;-1092.112;-1055.798
631.711;   51.473;  453.877;  257.221
631.984;  -64.700; -523.117; -624.789
632.257;  -76.604; -636.117; -681.789
632.530;  -57.496; -412.119; -433.785
632.803;   10.194; -109.115;    7.207
633.076;  -79.809; -360.123; -422.777
633.349;    2.052;  173.872;  121.231
633.622;  -40.997; -187.119; -240.785
633.895; -127.156; -903.120; -823.783
634.167;  -70.232; -496.126; -525.773
634.440;  -19.589;  -19.116; -137.792
634.713;    2.657;  -22.119; -120.786
634.986;   85.217;  593.871;  453.233
635.258;  -99.308; -507.115; -597.793
635.531;   79.617;  742.882; -343.788
635.804;  -35.177; -303.117; -318.789
636.077;  -89.743; -830.116; -852.791
636.349;  -13.359; -586.115; -474.793
636.622;  368.590; 1695.874; 1392.228
636.894;  219.923; -474.120; -909.784
637.167;  147.134; -836.127; -789.771
637.439;   27.530; -278.128; -213.770
637.712;  -54.408; -312.126; -293.772
637.984;  -90.043; -635.116; -707.791
638.257;  373.092;  515.877;  488.222
638.529;  527.432; -881.125; -924.776
638.802;  227.873; -508.128; -449.769
639.074; -121.244; -927.122; -952.781
639.346; -133.931; -942.135; -930.757
639.619;  -12.071;  -79.142; -319.744
639.891;  -13.875;  -83.122; -168.779
640.163;  -58.898; -689.122; -756.780
640.435;   35.179;  273.878;  103.220
640.708;   18.505;  -72.122; -132.780
640.980;  -26.168; -366.122; -362.781
641.252;  176.034;  -25.121;  -71.781
641.524; 1730.061;  580.879;  573.219
641.796; 1713.663;-1094.121; -907.782
642.068;  301.689; -191.121; -300.782
642.340;  -62.984; -486.121; -566.783
642.613;   36.868;  294.880;  323.217
642.885;  -91.530; -787.120; -878.783
643.157;  -58.328; -810.120; -658.784
643.428;   46.074;  170.880;  218.216
643.700;  -76.400; -498.120; -425.784
643.972;  -34.998;  -16.119; -133.785
644.244;  -92.296; -474.119; -559.785
644.516;  -54.494; -250.119; -114.786
644.788;   79.808;  662.881;  548.214
645.060;  -27.215;  -12.119; -124.786
645.332; -115.789; -525.118; -535.787
645.603;   34.563;  479.882;  342.213
645.875;  -87.385; -334.118; -369.787
646.147;  174.767; 1487.882; 1242.212
646.418;  -78.831; -931.117; -918.788
646.690;   99.371; -714.117; -715.789
646.962;   28.772; -413.117; -451.789
647.233;  -10.901;   15.883;   11.211
647.505;  -98.749; -595.117; -475.790
647.776;   11.278;  328.884;  229.210
648.048;   -6.345; -248.116; -418.790
648.320;  -75.044; -752.116; -679.791
648.591; -149.992;-1055.116; -958.791
648.862;  -85.365; -505.116; -577.792
649.134;    5.012;  115.885;  198.208
649.405;  -45.336; -661.115; -618.792
649.677;  -64.009; -475.115; -598.793
649.948;  -16.758; -181.115; -296.793
650.219;  -10.006;  -37.115; -147.793
650.491;  -89.379; -431.114; -520.794
650.762; -121.627; -705.114; -731.794
651.033;  -86.250; -437.114; -424.795
651.304;  -94.223; -743.114; -728.795
651.576;  -67.422; -680.114; -645.795
651.847;  -28.345; -250.113; -140.796
652.118;  -24.568;  -32.113; -189.796
652.389; -109.216; -639.113; -722.796
652.660;  -38.914; -147.113;  -89.797
652.931; -150.262; -897.112; -871.797
653.202;  -82.536; -382.112; -541.798
653.473;  -67.234; -633.112; -533.798
653.744;  139.043; -595.112; -590.798
654.015;  122.895; -356.112; -303.799
654.286;  -75.103; -642.111; -663.799
654.557;  -66.027; -586.111; -521.799
654.828; -166.125;-1114.111;-1088.800
655.099;  -98.548; -404.111; -291.800
655.370; -104.396; -427.111; -543.801
655.641; -114.994; -656.110; -714.801
655.911; -117.317; -618.110; -638.801
656.182;   44.784;  437.890;  387.198
656.453;   96.086;  830.890;  746.198
656.724;  -73.262; -466.110; -426.802
656.994;  -91.335; -553.109; -568.803
657.265; -114.533; -862.109; -873.803
657.536;  -93.681; -500.109; -377.804
657.806; -110.130; -561.109; -593.804
658.077; -141.878; -866.109; -950.804
658.347;  -79.576; -523.108; -598.805
658.618; -114.799; -646.108; -694.805
658.888;  -16.872;  -41.108;  112.195
659.159;  -87.996; -432.108; -548.806
659.429;  -26.594; -292.108; -349.806
659.700;   -0.067; -435.107; -390.807
659.970;  -11.440; -370.107; -359.807
660.241;    7.012; -754.107; -921.807
660.511;  480.814; -147.107; -174.808
660.781;   77.965; -793.106; -748.808
661.052;  -58.008; -222.106; -381.808
661.322;  -24.731;   21.894;   -9.809
661.592;   21.471;  257.894;  148.191
661.862;  -85.177; -369.106; -382.810
662.133;  -92.775; -551.105; -502.810
662.403; -119.224; -770.105; -676.810
662.673;  -59.797; -256.105; -213.811
662.943; -104.670; -612.105; -551.811
663.213;  -24.468;  -85.105;  -81.811
663.483;  -79.816; -593.104; -568.812
663.753;  -40.489; -194.104; -152.812
664.023;   -4.438;   68.896;  -32.813
664.293;  -55.636; -319.104; -126.813
664.563; -108.809; -694.104; -648.813
664.833; -135.082; -743.103; -608.814
665.103; -131.555; -730.103; -793.814
665.373; -117.329; -766.103; -806.814
665.643; -104.077; -863.103; -918.815
665.913;   24.525; -534.103; -714.815
666.182;  120.327; -685.102; -719.816
666.452;  237.954;  -22.102;  -89.816
666.722;  -41.469; -724.102; -784.816
666.992; -144.193; -948.102; -921.817
667.261;  -92.966; -824.102; -808.817
667.531;  201.836;  134.899;   45.183
667.801;  541.513; -440.101; -412.818
668.070;  223.090;  714.899;  697.182
668.340; -112.508; -883.101; -840.819
668.609;   85.168;  588.900;  301.181
668.879;  -85.155; -490.100; -558.819
669.149;  -77.503; -539.100; -516.820
669.418; -106.626; -698.100; -726.820
669.688;  -27.874; -482.100; -666.820
669.957;   57.278; -423.099; -546.821
670.226;  -24.471; -268.099; -331.821
670.496; -102.769; -431.099; -635.822
670.765;  -92.342; -418.099; -501.822
671.034; -131.315; -872.099; -828.822
671.304;  -23.313;   55.902; -111.823
671.573; -158.937;-1085.098; -957.823
671.842;   69.490; -380.098; -294.823
672.112;    3.567; -692.098; -586.824
672.381;  -15.806; -239.098; -214.824
672.650; -130.229;-1005.097;-1021.825
672.919;  -90.602; -631.097; -507.825
673.188;  -90.601; -681.097; -878.825
673.457; -150.324;-1101.097;-1143.826
673.726;  -94.972; -579.096; -646.826
673.995;  -44.220; -533.096; -479.826
674.265;  -30.318; -263.096; -333.827
674.534;   -0.366; -183.096; -235.827
674.802;   -3.615; -618.096; -703.828
675.071;  943.137; -886.095; -801.828
675.340; 3609.939; -464.095; -339.828
675.609; 1203.116;  103.905;   82.171
675.878;   44.568; -949.095; -893.829
676.147;   30.644;  -26.095;   -8.829
676.416;   71.796; -210.094; -294.830
676.685;  679.573; 1000.906; -622.830
676.953;   92.550; -603.094; -452.831
677.222;  -24.348; -193.094; -273.831
677.491;  -26.746;  -24.094; -127.831
677.759;    1.455;   11.907;  172.168
678.028;  -27.168; -279.093; -222.832
678.297;   -7.016;   71.907;  197.168
678.565; -148.214; -898.093; -944.833
678.834;  -50.462; -311.093; -268.833
679.102;  -81.785; -411.092; -391.834
679.371; -151.184; -898.092; -727.834
679.639; -138.607; -797.092; -786.834
679.908; -131.305; -794.092; -724.835
680.176; -152.778; -895.091; -941.835
680.445;  -67.226; -346.091; -352.835
680.713;  -13.124;  -58.091;  -23.836
680.982;  -79.173; -523.091; -525.836
681.250; -109.721; -578.091; -507.837
681.518; -103.344; -534.090; -751.837
681.787;  -21.042; -204.090; -167.837
682.055;  -73.815; -490.090; -422.838
682.323; -150.639; -993.090; -992.838
682.591;    4.088; -216.090; -538.838
682.859;   76.640;    9.911;  -35.839
683.128;   16.092;  232.911;  497.161
683.396; -176.531;-1102.089;-1122.840
683.664;  -42.404; -241.089;   21.160
683.932;    2.372;  144.911;  -76.840
684.200;  -66.626; -576.088; -320.841
684.468;  -26.574;  -73.088; -124.841
684.736;  -29.297; -214.088; -175.841
685.004; -135.470;-1024.088; -982.842
685.272;  -62.918; -880.088; -774.842
685.540;  -69.042; -499.087; -557.843
685.808;  -76.565; -651.087; -682.843
686.076; -114.688; -894.087; -969.843
686.343;  -61.061; -601.087; -815.844
686.611;   42.841; -195.087; -224.844
686.879;  434.217; -530.086; -553.844
687.147; 3099.669; -483.086; -480.845
687.414;  881.046;  -12.086; -169.845
687.682;  -16.402; -658.086; -757.846
687.950;  302.275;  259.915;  263.154
688.217;   -5.323; -792.085; -760.846
688.485;  -13.597; -632.085; -636.847
688.753;  493.880;  -11.085; -102.847
689.020;  136.057; -820.085; -851.847
689.288; -101.841; -853.084; -787.848
689.555;  -30.414; -195.084; -148.848
689.823;  -45.337; -241.084; -345.849
690.090;  -81.311; -546.084; -651.849
690.358; -144.784; -877.084; -897.849
690.625;   -3.632;  120.917;   45.150
690.892;  -69.805; -403.083; -369.850
691.160;  -18.203;   72.917;  -35.850
691.427;   -6.401;  141.917;  130.149
691.694; -127.350; -855.083; -929.851
691.962; -146.673;-1177.082;-1060.852
692.229;   -4.471;  127.918;   56.148
692.496;   81.106;  130.918;  -49.852
692.763;   19.358; -164.082; -201.853
693.031;  -81.616; -739.082; -716.853
693.298;  -44.389; -509.081; -368.853
693.565;  286.288; -155.081; -163.854
693.832; 1173.565;   -5.081;   -9.854
694.099;  141.392; -643.081; -642.855
694.366;  -65.131; -882.081; -896.855
694.633;  -49.730; -920.080; -633.855
694.900;  767.347; 4367.920; -114.856
695.167;  391.774; -214.080; -380.856
695.434;   96.476; -646.080; -623.856
695.701;  194.228;  121.921;  -61.857
695.968;  445.955; -365.079; -361.857
696.234; 1020.906; -415.079; -646.858
696.501;10466.733; -776.079; -614.858
696.768; 5264.185; -554.079; -617.858
697.035;  314.912; -632.078; -667.859
697.302;   42.714; -448.078; -552.859
697.568;   10.041; -458.078; -497.859
697.835;  -61.733; -683.078; -624.860
698.102;  -32.031; -498.078; -407.860
698.368;   83.446;  384.923;  396.139
698.635;  -39.827;  -47.077; -424.861
698.901;  -18.400; -240.077; -348.861
699.168;   59.801; -534.077; -456.862
699.435;   64.028;  -72.077;  -13.862
699.701; -117.020; -868.076; -764.862
699.968;    6.382;  144.924; -441.863
700.234; -110.666; -783.076; -822.863
700.500;  -64.039; -448.076; -539.864
700.767;   -2.738;   -1.075;   26.136
701.033; -129.486;-1015.075; -963.864
701.299;  -57.884; -450.075; -483.865
701.566;  123.393;  950.925;  763.135
701.832;   13.995;  -31.075;  -76.865
702.098; -103.903;-1054.074;-1034.866
702.365;  -87.477;-1098.074;-1030.866
702.631;  -19.400;-1038.074;-1063.867
702.897; 1318.727; -765.074; -676.867
703.163; 2146.304;  348.926;  254.133
703.429;  162.331; -256.073; -273.868
703.695;  -24.318; -796.073; -792.868
703.961;    9.534; -214.073; -210.868
704.227;  -55.964; -630.073; -725.869
704.493;  128.638;  613.927;  510.131
704.759;  -22.835; -565.072; -540.870
705.025;   15.442; -203.072; -194.870
705.291;  -21.007; -666.072; -562.870
705.557;  203.920;  719.928;   34.129
705.823;   37.372; -742.072; -694.871
706.089;  149.299; -307.071; -326.871
706.355;  384.226; -315.071; -244.872
706.620; 5877.278; -776.071; -729.872
706.886; 7877.829; -309.071; -362.873
707.152;  720.156; -818.070; -973.873
707.418;  -13.767;-1153.070;-1186.873
707.683;  -13.815; -550.070; -530.874
707.949;  -42.813; -547.070; -578.874
708.215;   -8.361; -129.070; -207.874
708.480;  -13.535; -520.069; -420.875
708.746;   79.292;   68.931;   28.125
709.011;  -61.006; -578.069; -612.876
709.277;  -84.604; -538.069; -543.876
709.542;  -66.727; -428.069; -387.876
709.808;  -10.951;  -59.068;   89.123
710.073;  -81.674; -577.068; -695.877
710.339;  -27.922; -242.068; -228.877
710.604;   67.105; -780.068; -845.878
710.869;  306.082; -277.068; -366.878
711.135;  -86.366; -715.067; -628.879
711.400;  -84.315; -507.067; -608.879
711.665;  -63.088; -404.067; -479.879
711.931; -101.061; -661.067; -677.880
712.196; -116.409; -876.067; -954.880
712.461;   87.893; -402.066; -490.880
712.726;  123.820; -727.066; -771.881
712.991;  -71.879; -647.066; -664.881
713.256;  -58.102; -350.066; -332.882
713.521;  -50.500; -417.065; -381.882
713.787;  -70.173; -454.065; -472.882
714.052;  -33.046; -214.065; -400.883
714.317;  -91.669;-1045.065; -981.883
714.581; 1068.007; -374.065; -268.883
714.846; 1447.059; -822.064; -888.884
715.111;  138.686;  261.936;  257.116
715.376;  -19.962;  -86.064; -223.885
715.641;  -15.235; -365.064; -367.885
715.906;  279.091;   15.936; -551.885
716.171;  129.518;  221.937;  209.114
716.436;   39.670;  -78.063; -104.886
716.700; -120.428; -818.063; -692.886
716.965; -120.626; -794.063; -807.887
717.230;  -81.849; -339.063; -392.887
717.494;  -30.548;  -40.062; -134.888
717.759; -103.121; -784.062; -640.888
718.024;   -4.919;  269.938;  250.112
718.288;   69.208;  685.938;  395.111
718.553; -148.940; -803.062; -977.889
718.817; -137.688; -883.061; -899.889
719.082;  -44.362; -115.061; -125.890
719.346; -153.185;-1000.061; -947.890
719.611;  -43.958; -300.061; -255.891
719.875; -107.756; -568.060; -537.891
720.140;  -60.879; -453.060; -603.891
720.404;   25.122; -136.060; -249.892
720.668;  811.149; -475.060; -411.892
720.933;  299.601;  146.940;  137.108
721.197; -100.372; -667.059; -600.893
721.461; -137.195; -851.059; -826.893
721.725;  -15.293;  -21.059; -250.894
721.990;  -60.567; -284.059; -204.894
722.254;  -23.490;  -26.059; -108.894
722.518;  -68.063; -286.058; -442.895
722.782;  -98.836; -743.058; -594.895
723.046;  108.041;  614.942;  570.105
723.310;   13.993;  374.942;  210.104
723.574;  -89.131; -654.058; -614.896
723.838;  -98.004; -576.057; -642.897
724.102;  -48.627; -226.057; -239.897
724.366; -132.750;-1032.057; -978.897
724.630;  -94.248; -749.057; -571.898
724.894;  -81.096; -722.057; -514.898
725.158;  -12.520;   38.944; -295.898
725.422;  -57.343; -394.056; -327.899
725.685;  -72.116; -441.056; -349.899
725.949;  -74.514; -566.056; -519.900
726.213;  -90.437; -732.056; -811.900
726.477;  139.989;-1020.055; -933.900
726.740;  139.666; -274.055; -104.901
727.004;  325.843; -384.055; -510.901
727.268; 3437.745; -442.055; -400.901
727.531;  901.997; -961.055; -775.902
727.795;  -45.051; -713.054; -673.902
728.059;  -62.500; -552.054; -557.903
728.322;  -87.923; -841.054; -669.903
728.586;   21.979; -692.054; -701.903
728.849;  -88.019; -695.053; -756.904
729.112; -123.292; -812.053; -912.904
729.376; -143.540; -959.053; -905.904
729.639;  -78.739; -536.053; -536.905
729.903; -114.412; -733.053; -699.905
730.166;  -48.510; -437.052; -399.906
730.429;  -32.833; -317.052; -468.906
730.693;  -70.256; -355.052; -894.906
730.956;  195.845;  810.948;  651.093
731.219;  685.022; -310.052; -103.907
731.482;  102.949;-1003.051; -894.907
731.745;   81.526; -794.051; -935.908
732.009;    7.878;  -30.051;   50.092
732.272; -104.570; -904.051; -771.909
732.535;  -43.994; -300.051; -310.909
732.798; -155.142;-1083.050;-1166.909
733.061;  -70.015; -430.050; -456.910
733.324;   -2.988;   31.950; -180.910
733.587;   61.889;  290.950;  365.090
733.850;  -80.809; -973.049;-1050.911
734.113;   29.717;   33.951;   32.089
734.376;   -8.281; -328.049; -447.912
734.639;  208.921; 1188.951; 1011.088
734.901;   75.573; -180.049; -402.912
735.164;  482.175; -883.048; -837.913
735.427; 1219.627; -166.048; -355.913
735.690;  127.828; -205.048; -234.913
735.952;  -29.470; -923.048; -925.914
736.215;  -31.343;-1113.048;-1009.914
736.478;   44.309; -771.047; -774.915
736.740;  209.361;   33.953;  129.085
737.003;  672.262; -658.047; -672.915
737.266; 3878.564;  -94.047;   46.084
737.528;  407.391; -682.047; -660.916
737.791;  312.318; -316.046; -327.916
738.053;  805.945;  465.954;  649.083
738.316;11044.097; -162.046; -136.917
738.578; 7562.548; -770.046; -736.918
738.841;  448.575; -382.046; -446.918
739.103;  173.427; -875.045; -777.918
739.365;  499.954;   79.955;  -69.919
739.628;   -4.069; -884.045; -805.919
739.890;  -23.367; -758.045; -710.919
740.152;  -28.341; -692.044; -754.920
740.414;    5.861; -408.044; -359.920
740.677;  -48.562; -785.044; -634.921
740.939;  -44.710; -587.044; -487.921
741.201;  264.942; -432.044; -572.921
741.463;   19.594; -689.043; -745.922
741.725;    3.795;  -21.043; -199.922
741.987;   52.122;  220.957;  116.078
742.249;  -16.626; -751.043; -859.923
742.511;  201.126; -703.043; -794.923
742.773;    3.553; -546.042; -546.924
743.035;  133.504;  796.958;  533.076
743.297;  -43.319; -963.042;-1013.924
743.559;  718.358; -278.042; -262.925
743.821;   29.235; -735.042; -744.925
744.083;   15.262;  -44.041; -149.925
744.345; -102.061; -869.041; -892.926
744.607;   29.340;   75.959;  122.074
744.868;  -55.258; -490.041; -554.927
745.130; -108.681; -994.041;-1008.927
745.392;   35.071;   -1.040;  -44.927
745.653;  -12.127; -411.040; -378.928
745.915;  161.475;  896.960;  631.072
746.177;   58.751;   35.960;  -43.928
746.438;   -1.722; -428.040; -543.929
746.700;  -51.645; -947.039; -988.929
746.961;   -3.343; -659.039; -740.930
747.223;  124.684; -190.039;  -74.930
747.484;   76.785; -391.039; -471.930
747.746;  138.712;  -23.038; -106.931
748.007;  113.914; -647.038; -689.931
748.269;  291.516; -468.038; -440.931
748.530;  460.568; -852.038; -638.932
748.791;  256.070; -354.038; -420.932
749.053;  425.846;  286.963;  163.067
749.314;  445.298; -236.037; -169.933
749.575;  493.475; -945.037; -905.933
749.836;  838.077; -217.037;   86.066
750.098; 2464.179;  -60.037;  -21.934
750.359;36052.206;  414.964;  555.066
750.620; 8869.382; -121.036; -220.935
750.881; 1016.484; -585.036; -513.935
751.142; 1341.236; -950.036; -938.936
751.403;16883.388; -789.036; -705.936
751.664; 7165.565;-1034.035; -999.936
751.925;  500.542; -175.035; -262.937
752.186;  272.718; -298.035; -278.937
752.447;  121.345; -590.035; -445.937
752.708;   39.272; -532.035; -648.938
752.969;   -7.776; -566.034; -576.938
753.230;  -16.049; -777.034; -672.939
753.491;    2.627; -650.034; -631.939
753.751;   73.104;  109.966;   19.061
754.012;   83.556;  258.967;  181.060
754.273;   57.683; -174.033;  -71.940
754.534;   -2.415; -487.033; -580.940
754.794;  -91.738; -926.033; -911.941
755.055;  128.913; 1051.967;  881.059
755.316;  -56.210; -700.032; -566.942
755.576;  -32.733; -606.032; -576.942
755.837;  -47.281; -527.032; -695.942
756.097;  -41.129; -530.032; -564.943
756.358;  -75.302; -725.032; -770.943
756.618;  -59.901; -705.031; -641.943
756.879;   -3.174; -254.031; -349.944
757.139; -118.747;-1098.031;-1116.944
757.400;  -66.020; -538.031; -553.945
757.660;  -25.543; -365.031; -401.945
757.920;   23.034; -266.030; -228.945
758.181;  -33.565; -468.030; -351.946
758.441; -103.563; -870.030; -809.946
758.701;  -26.636; -308.030; -215.946
758.961;  -18.134; -220.030; -278.947
759.222;  -50.732; -574.029; -502.947
759.482;  -88.406; -683.029; -723.948
759.742;  -90.629; -706.029; -547.948
760.002;    6.123;  -83.029; -143.948
760.262;   16.900;   50.972;  182.051
760.522;  -49.073; -498.028; -574.949
760.782;  -49.646; -738.028; -612.949
761.042;  -30.920; -618.028; -573.950
761.302;   47.032;   55.972;  -18.950
761.562;   53.484; -164.027; -154.951
761.822;   76.461; -710.027; -551.951
762.082;  -28.687;-1104.027;-1093.951
762.342;   56.615; -328.027; -403.952
762.601;   71.541; -567.027; -506.952
762.861;  355.893; -281.026; -207.952
763.121;  404.820; -406.026; -411.953
763.381; 7545.072; -499.026; -485.953
763.640; 7966.974; -139.026; -307.954
763.900;  365.550; -242.026; -203.954
764.160;   86.777; -458.025; -491.954
764.419;   -9.921; -726.025; -782.955
764.679;  -69.619; -795.025; -726.955
764.939;  -15.317; -124.025; -210.955
765.198;  -77.265; -608.025; -563.956
765.458;  -71.439; -710.024; -612.956
765.717;  -93.237; -454.024; -590.957
765.976;  -63.885; -428.024; -411.957
766.236;  -79.283; -475.024; -610.957
766.495;   17.894;  260.977;   73.042
766.755;  -92.404;-1090.023; -987.958
767.014;    5.722; -594.023; -665.958
767.273;  -57.701; -373.023; -397.959
767.533;  -57.849; -228.023; -307.959
767.792;  -27.097; -151.022; -188.960
768.051;  -49.545; -228.022; -276.960
768.310;  -85.743; -546.022; -650.960
768.569;   -4.342; -161.022;    4.039
768.828;  -31.865; -285.022; -363.961
769.088; -116.738;-1050.021; -942.961
769.347;  -80.536; -755.021; -599.962
769.606; -109.834; -876.021; -857.962
769.865; -132.108;-1016.021;-1033.963
770.124;    0.094; -411.021; -336.963
770.383;  -56.679; -778.020; -910.963
770.641;   -3.352; -398.020; -400.964
770.900;  -67.050; -953.020; -846.964
771.159;  -37.923; -851.020; -951.964
771.418;  -19.672; -917.020; -779.965
771.677;  135.530; -224.019; -293.965
771.936;  139.357; -794.019; -865.966
772.194; 2385.034; -465.019; -437.966
772.453;11214.336; -213.019; -391.966
772.712;  754.963;  416.982;  329.033
772.970;  106.264;   32.982;   63.033
773.229;   78.216;  -22.018;  102.033
773.488;  -79.657; -814.018; -770.968
773.746;   50.070;  296.982;  335.032
774.005;   11.522;  190.983;  -22.969
774.263;    3.423;  243.983;  177.031
774.522; -101.100; -422.017; -548.969
774.780;  -76.273; -484.017; -417.970
775.039;  -81.221; -551.017; -531.970
775.297;  -12.244; -135.016; -351.970
775.555; -112.342; -489.016; -612.971
775.814; -118.291; -618.016; -570.971
776.072; -129.914; -749.016; -740.971
776.330; -111.062; -630.016; -520.972
776.589; -124.360; -703.015; -721.972
776.847; -129.508; -645.015; -624.973
777.105; -162.581;-1016.015;-1032.973
777.363;  -82.680; -459.015; -454.973
777.621; -142.728; -660.015; -717.974
777.879;  -31.501;  -42.014;   32.026
778.138; -100.849; -554.014; -717.974
778.396; -100.247; -585.014; -526.975
778.654; -170.870;-1015.014; -970.975
778.912;  -63.369; -269.014; -371.976
779.170; -150.317; -880.013; -803.976
779.427; -153.440; -922.013; -897.976
779.685; -140.038; -880.013; -832.977
779.943;  -92.161; -654.013; -593.977
780.201; -164.860; -964.012; -883.978
780.459; -119.583; -651.012; -610.978
780.717;  -95.781; -440.012; -390.978
780.974; -100.629; -449.012; -490.979
781.232;  -75.602; -358.012; -338.979
781.490;  -81.850; -551.011; -472.979
781.747;  -85.899; -555.011; -476.980
782.005;    9.503;  462.989;  254.020
782.263; -168.895; -542.011;-1004.981
782.520;  -88.418; -326.011; -501.981
782.778; -178.741;-1013.010;-1051.981
783.035; -160.239; -962.010; -938.982
783.293;  -61.838; -248.010; -206.982
783.550;  -60.286; -134.010; -198.982
783.808; -142.084; -764.010; -776.983
784.065; -166.732; -745.009; -874.983
784.322;  -58.230;   25.991;  -86.984
784.580; -138.428; -915.009; -771.984
784.837; -104.477; -392.009; -466.984
785.094; -131.525; -783.009; -762.985
785.352;  -55.273; -304.008; -404.985
785.609; -104.896; -934.008; -839.985
785.866;  -90.119; -345.008; -401.986
786.123;  -76.743; -639.008; -583.986
786.380; -110.166; -665.008; -604.987
786.637;  -49.064; -225.007; -380.987
786.895;  -20.462; -456.007; -543.987
787.152;  -29.910; -135.007; -267.988
787.409;  -49.808; -123.007; -225.988
787.666;  -97.132; -299.006; -378.988
787.923; -119.430; -616.006; -695.989
788.179; -103.153; -551.006; -584.989
788.436; -103.676; -585.006; -585.990
788.693;  -41.074;  -92.006;  -87.990
788.950;  126.053; -125.005; -112.990
789.207;  184.729; -381.005; -372.991
789.464;  -59.119; -161.005; -301.991
789.720;  -10.617;  150.995;  110.009
789.977; -173.015;-1003.005; -671.992
790.234;  -32.813;   44.996;  -66.992
790.490; -161.312; -884.004;-1031.993
790.747;  -15.160;  -85.004;   22.007
791.004;  -25.908; -426.004; -348.993
791.260;  -87.081; -430.004; -560.994
791.517; -103.104; -843.003; -788.994
791.773;  -57.577; -379.003; -342.994
792.030; -114.676; -596.003; -660.995
792.286; -113.449; -686.003; -636.995
792.543;  -17.822;  -74.002; -159.995
792.799;  -55.445; -584.002; -382.996
793.055; -165.993;-1179.002;-1210.996
793.312;  -76.916; -827.002; -816.997
793.568;  -70.565; -746.002; -599.997
793.824;   -0.688; -226.001; -284.997
794.081;   29.064; -447.001; -508.998
794.337;   50.666; -664.001; -561.998
794.593; 1378.818; -319.001; -271.999
794.849; 6457.070; -746.001; -772.999
795.105;  302.121; -270.000; -261.999
795.361;   12.848; -490.000; -457.000
795.617;  -61.725; -875.000; -945.000
795.873;  -42.725; -360.000; -407.000
796.129;  -41.425; -368.000; -306.000
796.385;  -27.475; -124.000; -156.000
796.641;   69.925;  412.000;  550.000
796.897;  -79.750; -666.000; -635.000
797.153;   47.975;  453.000;  357.000
797.409; -103.200; -785.000; -868.000
797.665;  -77.625; -625.000; -732.000
797.921;  -90.625; -775.000; -762.000
798.176;  -51.375; -744.000; -747.000
798.432;  -52.950; -824.000; -596.000
798.688;  -80.375;-1174.000;-1078.000
798.943;   84.975; -165.000; -147.000
799.199;    6.750;-1005.000; -959.000
799.455;  255.275;  369.000;  316.000
799.710;  121.300; -813.000; -380.000
799.966;  303.050; -162.000; -160.000
800.221;  480.425; -638.000; -721.000
800.477;10872.625; -743.000; -710.000
800.732; 9153.075; -773.000; -800.000
800.988;  641.100;  205.000;  -19.000
801.243; 1988.025; -454.000; -344.000
801.498; 8091.075; -814.000; -739.000
801.754;  451.900; -289.000; -163.000
802.009;   93.625; -257.000; -335.000
802.264;  -65.975; -967.000;-1033.000
802.520;   30.050;  222.000;   -3.000
802.775;  -49.225; -524.000; -359.000
803.030;   49.900;  395.000;  356.000
803.285; -113.250; -840.000; -903.000
803.540;  -63.175; -686.000; -699.000
803.795;  -62.500; -648.000; -583.000
804.051;  -45.700; -279.000; -346.000
804.306;   19.275;  168.000;  128.000
804.561;  139.375;  451.000;  362.000
804.816;  125.925;  714.000;  861.000
805.071;   -7.275; -185.000; -280.000
805.325;  200.450; -257.000; -427.000
805.580; -106.375; -841.000; -877.000
805.835;  -19.325; -204.000; -297.000
806.090;  -86.550; -760.000; -676.000
806.345;  -19.950; -344.000; -264.000
806.600;  -33.300; -549.000; -632.000
806.854;  -39.775; -408.000; -538.000
807.109;  -12.125; -493.000; -577.000
807.364;   17.425; -407.000; -328.000
807.618;    0.075; -415.000; -381.000
807.873;   48.825; -470.000; -494.000
808.128;   98.475; -257.000; -518.000
808.382;  102.925; -224.000; -332.000
808.637;   69.950; -440.000; -511.000
808.891;  171.875; -257.000; -180.000
809.146;  101.125; -902.000; -794.000
809.400;  238.775; -848.000; -923.000
809.654;  335.725; -779.000; -551.000
809.909;  478.325; -841.000; -927.000
810.163; 6644.400; -813.000; -651.000
810.418;16459.000; -940.000; -861.000
810.672;  973.675; -685.000; -690.000
810.926;  737.050; -993.000; -973.000
811.180; 1445.025; -439.000; -372.000
811.434;32739.825;  240.000;  135.000
811.689;12532.075; -231.000; -365.000
811.943;  625.100; -936.000; -953.000
812.197;  325.300; -893.000; -671.000
812.451;  130.800; -379.000; -514.000
812.705;  -12.900; -809.000; -619.000
812.959;   13.750; -263.000; -388.000
813.213;   -0.675; -283.000; -209.000
813.467;   85.625;  470.000;  253.000
813.721;  -94.725; -764.000; -792.000
813.975; -116.675; -826.000; -877.000
814.229;   60.350;  430.000;  353.000
814.482;  -70.525; -517.000; -566.000
814.736; -126.075; -766.000; -744.000
814.990; -134.400; -779.000; -872.000
815.244;  -51.775; -228.000; -285.000
815.497; -103.325; -636.000; -601.000
815.751;  -20.900; -141.000;   82.000
816.005;  -86.250; -470.000; -586.000
816.258;  -67.275; -510.000; -363.000
816.512; -116.125; -693.000; -610.000
816.766;   13.000;  121.000;  157.000
817.019;   29.125;  148.000;  149.000
817.273; -118.600;-1000.000; -802.000
817.526;  -30.450; -206.000; -173.000
817.779;  -55.050;-1049.000; -960.000
818.033;  -80.550; -693.000; -807.000
818.286; -124.275; -725.000; -792.000
818.540;  -82.425; -403.000; -403.000
818.793;  -73.750; -402.000; -489.000
819.046;  -97.950; -582.000; -520.000
819.299;  -42.800; -157.000; -166.000
819.553; -112.125; -552.000; -592.000
819.806; -169.150;-1016.000; -838.000
820.059;  -54.875; -334.000; -354.000
820.312;   18.625;  152.000;  185.000
820.565;  -23.025;  110.000;  -27.000
820.818;  -54.575;  -59.000; -173.000
821.071; -178.275;-1041.000; -957.000
821.324; -108.025; -536.000; -540.000
821.577;  -91.600; -457.000; -483.000
821.830;  -51.625; -270.000; -172.000
822.083; -129.250; -733.000; -288.000
822.336;  -57.625; -261.000; -167.000
822.589; -133.425; -805.000; -688.000
822.842; -148.450; -875.000; -770.000
823.094; -185.375;-1076.000;-1114.000
823.347; -135.450; -925.000; -729.000
823.600;   10.475;  402.000;  187.000
823.853;  -56.850; -311.000; -267.000
824.105;  -77.200; -331.000; -575.000
824.358; -126.625; -617.000; -716.000
824.611;   27.300;  234.000;   40.000
824.863;  -40.150; -612.000; -591.000
825.116;   46.550;  -33.000;   27.000
825.368;   71.925; -366.000; -372.000
825.621;  144.050; -186.000; -240.000
825.873;   86.075; -704.000; -737.000
826.126;  606.050; -669.000; -641.000
826.378;11721.525; -389.000; -505.000
826.630; 2711.175; -890.000; -898.000
826.883;   31.025; -754.000; -693.000
827.135;   41.000; -279.000; -270.000
827.387; -112.875; -893.000; -839.000
827.639;  -26.900;  -86.000;   32.000
827.892; -132.250; -742.000; -582.000
828.144; -151.175; -848.000; -804.000
828.396;  -49.425;  104.000;  -80.000
828.648; -101.375; -440.000; -333.000
828.900; -136.500; -702.000; -795.000
829.152; -122.700; -684.000; -683.000
829.404;  -69.850; -215.000; -267.000
829.656;  -51.925;  321.000;  214.000
829.908;  -26.825;  393.000;  229.000
830.160; -160.125;-1064.000;-1047.000
830.412;  -99.925; -481.000; -430.000
830.664; -124.600; -557.000; -665.000
830.916;  -70.150; -268.000; -206.000
831.167; -179.275;-1073.000; -951.000
831.419; -117.300; -623.000; -566.000
831.671; -142.950; -764.000; -809.000
831.923;  -82.700; -311.000; -447.000
832.174;  -72.725; -273.000; -331.000
832.426; -104.850; -493.000; -582.000
832.678; -179.950;-1043.000;-1091.000
832.929; -165.175; -947.000; -935.000
833.181;  -81.900; -575.000; -677.000
833.432;  -53.775;  -59.000; -186.000
833.684;  -12.775;  112.000;  -27.000
833.935; -120.250; -610.000; -566.000
834.187; -132.800; -829.000; -823.000
834.438;  -40.850;  -58.000;  -25.000
834.689;  -50.700; -255.000; -123.000
834.941;  -54.500; -343.000; -244.000
835.192; -105.600; -590.000; -533.000
835.443;  -94.250; -419.000; -506.000
835.695;  -19.400;  138.000;  -16.000
835.946;  -81.575; -608.000; -378.000
836.197; -123.000; -599.000; -622.000
836.448;  -92.000; -528.000; -395.000
836.699;  -61.675; -253.000; -341.000
836.950;    5.825;   72.000;    7.000
837.201; -144.175;-1003.000; -987.000
837.452;  -51.250; -356.000; -170.000
837.703; -124.000; -791.000; -737.000
837.954;  -43.025; -205.000; -365.000
838.205;  -98.325;-1029.000;-1008.000
838.456;  163.025; -196.000; -282.000
838.707;    7.625; -423.000; -519.000
838.958;    3.300; -634.000; -647.000
839.209;  253.325;   18.000;   40.000
839.460;   88.175; -439.000; -201.000
839.710;  148.850; -135.000; -297.000
839.961;  415.550;  730.000;  612.000
840.212;  322.025; -382.000; -497.000
840.462; 1149.225; -328.000; -277.000
840.713;18221.175; -571.000; -536.000
840.964; 7026.475;  -62.000; -143.000
841.214;  495.075; -384.000; -624.000
841.465;  532.750; -214.000; -141.000
841.715;  490.675; -417.000; -380.000
841.966;  620.325; -746.000; -685.000
842.216; 8993.325; -330.000; -431.000
842.466;32785.550; -169.000; -313.000
842.717; 1739.050; -964.000; -952.000
842.967;  313.250; -635.000; -641.000
843.217;  247.800;   20.000;   28.000
843.468;   71.575; -104.000; -132.000
843.718;  -41.700; -718.000; -726.000
843.968; -102.100; -837.000; -765.000
844.218;   17.125; -315.000; -262.000
844.469;  -63.400; -577.000; -561.000
844.719; -113.675; -537.000; -682.000
844.969;  -84.675; -550.000; -580.000
845.219; -150.075; -814.000; -862.000
845.469;  -81.350; -392.000; -342.000
845.719; -137.625; -792.000; -884.000
845.969;  -17.900;  119.000;  174.000
846.219; -127.350; -738.000; -720.000
846.469;   21.425;  464.000;  432.000
846.718;  -54.425; -115.000;   31.000
846.968; -121.050; -827.000; -827.000
847.218;  -60.475; -224.000; -371.000
847.468;    4.475; -586.000; -555.000
847.718; -133.750; -827.000; -798.000
847.967; -128.300; -826.000; -915.000
848.217;  -87.200; -449.000; -569.000
848.467;  -63.400; -405.000; -376.000
848.716; -116.975; -708.000; -725.000
848.966;  -14.100; -372.000; -358.000
849.215;  -69.675; -428.000; -419.000
849.465; -107.725; -785.000; -615.000
849.714; -152.075;-1132.000;-1150.000
849.964;  -71.175; -551.000; -613.000
850.213;  -23.100; -393.000; -355.000
850.463;   82.625;  137.000;  340.000
850.712;    1.850; -542.000; -567.000
850.961;    0.700; -739.000; -678.000
851.211;   84.325; -513.000; -504.000
851.460;  162.900; -635.000; -650.000
851.709;  566.075;  -25.000;   18.000
851.958;10681.875; -912.000; -750.000
852.208;12517.400; -859.000; -879.000
852.457;  458.275; -181.000;  -13.000
852.706;   63.675; -791.000; -823.000
852.955;   17.125; -507.000; -528.000
853.204;  -71.775; -521.000; -461.000
853.453;  -84.950; -418.000; -458.000
853.702; -128.750; -660.000; -750.000
853.951; -113.225; -532.000; -520.000
854.200; -126.800; -613.000; -562.000
854.449; -143.675; -695.000; -661.000
854.698;  -90.050; -340.000; -279.000
854.946;  -72.875; -181.000; -284.000
855.195; -151.500; -843.000; -868.000
855.444; -109.525; -395.000; -420.000
855.693; -126.200; -345.000; -432.000
855.941;  -91.875; -387.000; -516.000
856.190;  -52.300; -256.000; -382.000
856.439; -139.925; -652.000; -703.000
856.687;  -64.025;  -99.000;  -72.000
856.936; -114.475; -621.000; -323.000
857.184; -189.250;-1067.000;-1020.000
857.433; -111.475; -423.000; -512.000
857.681; -163.525; -989.000; -953.000
857.930;  -81.225; -282.000; -433.000
858.178; -170.825; -856.000; -929.000
858.427; -155.700; -802.000; -781.000
858.675; -123.275; -377.000; -544.000
858.923; -108.300; -527.000; -819.000
859.172; -194.050;-1094.000;-1070.000
859.420;  -85.875; -339.000; -239.000
859.668; -142.025; -624.000; -628.000
859.916;  -14.300;  109.000;  115.000
860.164; -133.250; -699.000; -603.000
860.413;  268.100; -878.000; -696.000
860.661;  189.050; -709.000; -577.000
860.909;  -77.700; -339.000; -325.000
861.157;  -95.550; -277.000; -444.000
861.405; -124.650; -534.000; -670.000
861.653;   16.200;  310.000;  310.000
861.901;  149.450; -543.000; -613.000
862.149;  -10.975; -801.000; -824.000
862.396;  -84.850; -297.000; -187.000
862.644;  -86.750; -368.000; -347.000
862.892;  -48.225;   98.000;  138.000
863.140; -118.275; -549.000; -530.000
863.388; -161.500; -815.000; -759.000
863.635; -140.975; -642.000; -601.000
863.883;   -8.100;  231.000;  190.000
864.131;  -82.475; -288.000; -357.000
864.378; -132.650; -675.000; -540.000
864.626; -107.325; -347.000; -415.000
864.873; -121.525; -556.000; -505.000
865.121; -138.900; -714.000; -799.000
865.368;  -46.875; -173.000;   75.000
865.616;  -38.900;  -33.000;  -40.000
865.863;  -66.650; -462.000; -506.000
866.111; -109.825; -795.000; -824.000
866.358;   61.175; -426.000; -420.000
866.605; 2497.175;  -64.000; -804.000
866.853; 2425.975; -621.000; -537.000
867.100;  -45.025; -728.000; -775.000
867.347;  -93.925; -672.000; -611.000
867.594;  -96.100; -740.000; -714.000
867.841;   81.925;   97.000;   17.000
868.089; -157.525; -746.000; -698.000
868.336; -105.375; -477.000; -420.000
868.583; -156.100; -637.000; -741.000
868.830;  -58.125; -131.000; -170.000
869.077; -170.675; -859.000; -787.000
869.324; -135.900; -502.000; -458.000
869.571; -133.050; -398.000; -430.000
869.818; -122.350; -485.000; -439.000
870.065; -104.250; -439.000; -513.000
870.311; -107.225; -456.000; -542.000
870.558; -108.075; -332.000; -311.000
870.805;  -89.525; -320.000; -384.000
871.052; -110.600; -494.000; -369.000
871.298;  -53.675; -204.000; -131.000
871.545;  -73.825; -151.000; -185.000
871.792;  -90.050; -173.000; -222.000
872.038;  -68.500;   43.000; -126.000
872.285; -124.575; -496.000; -387.000
872.532; -106.425; -357.000; -387.000
872.778;    2.225;  556.000;  403.000
873.025; -106.600; -384.000; -359.000
873.271;   23.275;  501.000;  578.000
873.517;  -41.425; -133.000; -209.000
873.764;  -36.550; -193.000;  -80.000
874.010;  -73.650; -143.000; -230.000
874.257;  -45.575;  123.000;   90.000
874.503; -130.925; -579.000; -479.000
874.749;  -72.775;   31.000;  275.000
874.995;  -73.400;  -80.000;  -20.000
875.242; -133.100; -540.000; -478.000
875.488; -108.425; -414.000; -439.000
875.734;  -70.850; -106.000; -234.000
875.980;  156.950; -872.000;-1032.000
876.226;  317.350; -157.000; -255.000
876.472;   -8.350;  343.000;  237.000
876.718;  -47.775;  184.000;  158.000
876.964;  -63.325;   56.000;   55.000
877.210; -159.025; -547.000; -677.000
877.456; -136.650; -630.000; -557.000
877.702; -177.625; -821.000; -832.000
877.948; -109.900; -377.000; -497.000
878.193;   -0.150;  361.000;  255.000
878.439;  -93.500; -487.000; -472.000
878.685; -101.375; -272.000; -343.000
878.931; -139.325; -618.000; -676.000
879.176;  -88.575; -201.000; -201.000
879.422; -186.450; -933.000; -820.000
879.668;   14.175;   10.000;   79.000
879.913;  129.500;   53.000;  137.000
880.159;  -64.600; -112.000;  -17.000
880.404;  -67.700; -152.000; -162.000
880.650;  -40.400;   91.000;  141.000
880.895; -157.925; -670.000; -710.000
881.141; -128.425; -454.000; -428.000
881.386; -156.075; -503.000; -658.000
881.631;  -97.350; -311.000; -166.000
881.877;  -51.625;  112.000;  -13.000
882.122; -132.400; -684.000; -600.000
882.367;  -88.800; -136.000; -186.000
882.612;  -86.700;  -80.000; -176.000
882.858; -165.000; -877.000; -823.000
883.103; -108.725; -297.000; -267.000
883.348; -160.050; -759.000; -852.000
883.593; -145.225; -677.000; -602.000
883.838;  -58.950; -311.000;  -24.000
884.083;   30.650;  353.000;  288.000
884.328;  -97.600; -564.000; -545.000
884.573;  -62.550; -196.000; -143.000
884.818;  174.950; -694.000; -531.000
885.063;  147.125; -348.000; -315.000
885.308; -107.700; -475.000; -398.000
885.553;    0.125;  245.000;  325.000
885.797; -123.550; -545.000; -615.000
886.042;  -75.175;    8.000;   58.000
886.287;  -89.850; -253.000; -211.000
886.532;  -43.050;   26.000;  204.000
886.776;  -97.300; -407.000; -525.000
887.021; -144.900; -621.000; -574.000
887.265; -151.125; -685.000; -689.000
887.510; -130.200; -557.000; -496.000
887.755; -105.125; -194.000; -164.000
887.999; -142.750; -552.000; -575.000
888.244;  -51.525;  -58.000;  161.000
888.488;   -4.750;  371.000;  393.000
888.732; -143.475; -368.000; -520.000
888.977; -137.950; -622.000; -567.000
889.221; -171.900; -683.000; -659.000
889.465; -130.875; -422.000; -566.000
889.710;  -84.250;  -56.000; -299.000
889.954;   -9.225;  579.000;  467.000
890.198; -150.275; -584.000; -707.000
890.442; -159.450; -716.000; -712.000
890.687; -173.425; -800.000; -753.000
890.931; -108.850; -273.000; -210.000
891.175; -133.100; -502.000; -500.000
891.419;  -71.700; -105.000; -110.000
891.663;  -87.200; -239.000; -112.000
891.907; -169.475; -801.000; -545.000
892.151; -184.250; -920.000; -815.000
892.395;  -98.975; -274.000; -387.000
892.638;  -23.550;  408.000;  291.000
892.882; -177.325; -780.000; -867.000
893.126;   19.000;  758.000;  558.000
893.370; -103.500; -167.000; -168.000
893.614; -154.450; -714.000; -715.000
893.857; -104.850; -183.000; -197.000
894.101; -149.550; -527.000; -631.000
894.345;  -61.450;  300.000;  150.000
894.588;    9.775;  569.000;  380.000
894.832;  -85.525; -178.000;  -84.000
895.075;  -83.525;   15.000;  -92.000
895.319; -130.050; -552.000; -420.000
895.563; -110.075; -413.000; -353.000
895.806; -161.575; -628.000; -741.000
896.049;  -67.975; -576.000; -368.000
896.293;   82.600;  527.000;  405.000
896.536;  -95.875; -465.000; -468.000
896.779;  -70.850; -149.000;   -1.000
897.023; -144.125; -751.000; -714.000
897.266;  -27.050;  325.000;  269.000
897.509; -180.775; -900.000; -901.000
897.752;  -55.500;  149.000;  171.000
897.996; -190.050; -972.000; -864.000
898.239;  -49.550;  168.000;  102.000
898.482; -119.850; -431.000; -453.000
898.725;  -35.025;  101.000;   53.000
898.968; -157.250; -609.000; -744.000
899.211; -115.225; -513.000; -361.000
899.454; -125.475; -633.000; -539.000
899.697;  -69.925;   90.000;  -43.000
899.940; -182.750; -761.000; -757.000
900.182; -113.100; -335.000; -405.000
900.425; -100.150; -150.000; -298.000
900.668;  -19.050;  491.000;  350.000
900.911; -105.225; -292.000; -345.000
901.154;  -53.325;  141.000;   -3.000
901.396; -147.700; -407.000; -412.000
901.639; -135.650; -430.000; -496.000
901.882; -175.075; -790.000; -809.000
902.124;  -86.200;  -29.000; -143.000
902.367; -126.300; -315.000; -361.000
902.609; -135.900; -476.000; -453.000
902.852; -104.800; -108.000; -260.000
903.094; -129.550; -458.000; -337.000
903.337;  -64.425;  -26.000;   53.000
903.579; -104.050; -228.000; -441.000
903.821; -164.625; -597.000; -744.000
904.064;  -59.300;   85.000;  127.000
904.306;  -83.525; -126.000; -166.000
904.548; -112.550; -152.000; -366.000
904.790; -101.775; -195.000; -340.000
905.033; -138.950; -625.000; -577.000
905.275; -127.250; -513.000; -524.000
905.517;   48.700;  468.000;  256.000
905.759;  -91.350; -667.000; -761.000
906.001; -106.725; -322.000; -369.000
906.243;  -58.350; -162.000; -224.000
906.485;   90.850; -265.000; -207.000
906.727;   80.425; -499.000; -542.000
906.969;  -32.400;  -30.000; -135.000
907.211;  113.325; -316.000; -382.000
907.453;  240.275; -188.000; -237.000
907.695;  -14.475; -158.000; -385.000
907.936;   43.150;  818.000;  706.000
908.178;  -58.325;   92.000; -135.000
908.420;  -70.475; -111.000; -162.000
908.662; -154.750; -633.000; -682.000
908.903;  -98.325; -208.000; -123.000
909.145;  -72.600; -240.000; -305.000
909.386;    1.800;  315.000;  280.000
909.628;   37.100;  363.000;  397.000
909.870;   -1.750;   29.000;  264.000
910.111; -122.200; -809.000; -949.000
910.353;   20.150; -123.000; -161.000
910.594;   -4.875; -574.000; -606.000
910.835;   80.450; -265.000; -326.000
911.077;  158.325; -503.000; -604.000
911.318;  287.150; -505.000; -471.000
911.559;  480.075; -577.000; -880.000
911.801; 1376.225; -284.000; -280.000
912.042;10691.625;  -50.000; -159.000
912.283;26791.125;  404.000;  371.000
912.524; 3921.350; -396.000; -457.000
912.765;  467.525; -193.000;   79.000
913.006;  235.100; -307.000; -338.000
913.247;   48.100; -270.000; -290.000
913.488;  -11.325;  -43.000;   30.000
913.729;  -75.075; -373.000; -373.000
913.970;  -59.775;  -96.000; -292.000
914.211;  -79.625; -160.000; -198.000
914.452;  -74.400; -118.000;  -11.000
914.693;    2.025;  510.000;  592.000
914.934;    1.650;  510.000;  440.000
915.175;  -65.675;   53.000;  -95.000
915.415;  -84.625; -137.000;   27.000
915.656;  -60.625;  -28.000;  192.000
915.897;  -94.150; -252.000;  -82.000
916.137;  -61.575;   74.000;   -9.000
916.378; -128.150; -573.000; -517.000
916.619;  -94.200; -159.000;  -63.000
916.859;  -33.100;  303.000;  330.000
917.100;  136.675; 1655.000; 1070.000
917.340;   50.150;  930.000;  728.000
917.581;   33.225;  965.000;  789.000
917.821;  -48.550; -171.000;  143.000
918.061;   -1.325; -199.000;  -72.000
918.302;  -66.200; -152.000; -211.000
918.542;  -28.325;  -22.000;    3.000
918.782;   33.925;  369.000;  377.000
919.023;  131.200;  360.000;  427.000
919.263; 1754.650; 8131.000;  202.000
919.503; 1067.175; -137.000;  -54.000
919.743;  595.150;  390.000;  266.000
919.983;  237.575; -134.000;  -26.000
920.223;   82.850;  135.000;   14.000
920.463;  149.350;  631.000;  554.000
920.703;  123.625;   84.000;   39.000
920.943;  167.450; -110.000;   90.000
921.183;  234.500; -414.000; -405.000
921.423;  512.075;  307.000;  546.000
921.663;  782.050; -174.000; -257.000
921.903; 1637.375;  237.000;  173.000
922.143; 9169.400;  372.000;  389.000
922.383;34600.000;  158.000;  115.000
922.622;11004.925; -120.000;  -15.000
922.862; 1198.150;  796.000;  785.000
923.102;  467.400;  -51.000;   33.000
923.341;  187.300;   59.000;   74.000
923.581;   82.250;  450.000;  360.000
923.821;   21.300;  301.000;  398.000
924.060;   15.225;  351.000;  193.000
924.300;  -56.375;  -16.000; -128.000
924.539;   -8.900;  584.000;  473.000
924.779;   12.725;  812.000;  597.000
925.018;  -34.975;  247.000;  353.000
925.257;   -6.250;  595.000;  666.000
925.497;  -49.200;  447.000;  412.000
925.736;  -73.825;  -35.000;  102.000
925.975;   10.675;  687.000;  669.000
926.214;   23.275;  907.000;  850.000
926.454;   16.475;  706.000;  757.000
926.693;  -31.325;  419.000;  543.000
926.932;   30.175; 1021.000;  825.000
927.171;   63.950; 1107.000; 1044.000
927.410;   64.850; 1144.000;  967.000
927.649;   24.975;  924.000;  742.000
927.888;  -15.875;  590.000;  564.000
928.127;   -4.475;  680.000;  678.000
928.366;   26.675;  842.000;  826.000
928.605;   43.550;  831.000;  737.000
928.844;  242.875; 1451.000; 1393.000
929.083;  609.775;  770.000;  613.000
929.321;  315.200; 1335.000; 1359.000
929.560;   76.050; 1158.000; 1122.000
929.799;  -36.225;  574.000;  475.000
930.038;   64.225; 1025.000; 1394.000
930.276;  -41.875;  334.000;  397.000
930.515;   -1.475;  827.000;  681.000
930.753;  -27.100;  614.000;  589.000
930.992;   -7.975;  664.000;  717.000
931.230;    4.200;  847.000;  847.000
931.469;  179.650; 2162.000;  892.000
931.707;   69.575;  840.000;  751.000
931.946;   67.675; 1278.000; 1344.000
932.184;   63.925; 1437.000; 1175.000
932.423;   30.450; 1265.000;  963.000
932.661;   86.400; 1296.000; 1428.000
932.899;   35.025;  987.000;  821.000
933.137;   -0.300;  754.000;  564.000
933.376;  139.800; 1664.000; 1335.000
933.614;  148.975; 1759.000; 1196.000
933.852;   60.500; 1357.000; 1171.000
934.090;  131.475; 1722.000; 1747.000
934.328;  120.775; 1252.000; 1457.000
934.566;   83.475; 1431.000; 1110.000
934.804;  136.550; 1263.000; 1309.000
935.042;  488.125; 1861.000; 1850.000
935.280; 1954.300; 2088.000; 2063.000
935.518; 1795.150; 2113.000; 2007.000
935.756;  382.875; 2481.000; 2316.000
935.994;  166.400; 1808.000; 1751.000
936.231;  331.225; 2890.000; 2950.000
936.469;  177.850; 2367.000; 2378.000
936.707;  159.175; 2220.000; 2167.000
936.945;  226.125; 2825.000; 2882.000
937.182;  199.850; 2679.000; 2741.000
937.420;  291.450; 3602.000; 3031.000
937.657;  402.600; 3365.000; 3478.000
937.895;  338.600; 3331.000; 3488.000
938.133;  331.975; 3540.000; 3528.000
938.370;  353.375; 3896.000; 4191.000
938.607;  400.625; 4488.000; 4205.000
938.845;  554.825; 5587.000; 5549.000
939.082;  500.275; 5387.000; 5177.000
939.320;  554.200; 5799.000; 5728.000
939.557;  650.725; 6549.000; 6491.000
939.794;  712.450; 7285.000; 7097.000
940.031;  913.900; 8421.000; 8368.000
940.269; 1126.375; 9552.000; 9107.000
940.506; 1146.600;10901.000;10507.000

