
Integration time [ms]: 200.000
Averaging Nr. [scans]: 10
Smoothing Nr. [pixels]: 0
Data measured with spectrometer [name]: 2101013U2
Wave   ;Sample   ;Dark     ;Reference
[nm]   ;[counts] ;[counts] ;[counts] 

394.013; -120.138; -450.257; -315.536
394.305; -140.939; -461.258; -419.536
394.596; -196.749; -676.269; -527.514
394.887; -200.048; -796.268; -654.518
395.178;    1.656;  145.736;   11.476
395.470;  -63.143; -210.263; -356.526
395.761;  128.654;  305.734;  394.479
396.052; -100.263; -545.284; -306.489
396.343; -116.055; -557.276; -454.503
396.634;  -54.459; -200.279; -290.497
396.926; -157.948; -618.268; -565.517
397.217;  -17.555;   11.725;  -17.504
397.508;  -56.853; -366.273; -154.507
397.799; -156.059; -555.279; -571.497
398.090; -271.959; -973.280; -902.495
398.381;   10.529;   11.708;  -11.473
398.672; -198.771; -585.292; -742.473
398.963;  -72.058; -348.279; -373.498
399.254;   16.530;   54.709; -209.475
399.545; -249.747;-1017.266; -883.520
399.836;  -95.656; -407.277; -343.501
400.127;  -40.173; -205.295; -209.468
400.418;  -82.854; -423.274; -392.506
400.709;  -80.161; -359.281; -333.493
401.000;  -50.869; -268.291; -309.476
401.290;   68.420;  225.698;  115.545
401.581;    0.235; -166.286; -228.485
401.872; -131.276; -542.298; -486.462
402.163;  -69.274; -313.296; -252.467
402.454;  -28.969; -123.291; -163.475
402.744; -222.275; -844.297; -813.465
403.035;  -42.972; -226.293;  -86.471
403.326; -102.670; -366.292; -384.474
403.617;   47.223;  204.701;  165.539
403.907; -155.962; -593.283; -679.490
404.198; -158.785; -545.307; -599.446
404.489; -163.562; -618.283; -588.491
404.779; -161.080; -618.302; -660.456
405.070;   -3.682;  -67.304; -174.451
405.360;  -65.371; -259.293; -238.472
405.651;   47.622;  125.699;   98.542
405.942;   56.935;  209.714;  127.516
406.232; -109.164; -432.285; -413.487
406.523;  190.828;  641.706;  758.530
406.813; -179.865; -579.286; -644.484
407.104;   98.429;  261.708;  144.527
407.394; -179.077; -604.299; -591.462
407.685;   56.236;  336.715;  222.513
407.975; -133.762; -400.283; -382.490
408.265;  -20.268; -134.289; -190.478
408.556; -131.870; -472.291; -459.475
408.846;  139.328;  474.706;  429.530
409.137;   -8.567;   -1.288; -216.480
409.427; -109.164; -193.285; -271.487
409.717; -168.253; -776.273; -692.508
410.007;    3.236;    4.715; -170.486
410.298;  -70.373; -360.295; -342.469
410.588; -134.764; -495.285; -510.486
410.878; -218.166; -792.287; -873.482
411.168; -112.576; -481.298; -478.463
411.459;  -66.062; -295.283; -242.489
411.749; -179.070; -609.292; -507.474
412.039; -171.467; -755.289; -386.480
412.329;   60.743;   40.722;  132.501
412.619;  -34.965;  -62.286; -148.485
412.909;  171.532;  639.711;  594.521
413.199;  -20.559; -130.280; -251.495
413.490;  169.731;  521.710;  352.523
413.780; -265.059;-1013.279; -913.496
414.070;   51.045;  -46.276;  235.497
414.360; -173.358; -729.278; -666.498
414.650; -207.266; -726.288; -688.482
414.940; -147.459; -538.280; -441.496
415.230;   18.433;   50.712;   74.519
415.520;   58.750;  155.730;   66.486
415.809;  -44.761; -305.281; -125.493
416.099;  -78.156; -388.277; -229.501
416.389;  144.746;  435.726;  236.494
416.679;   25.257;   91.738;   85.473
416.969; -129.765; -527.287; -503.483
417.259;   85.641;  341.721;  171.503
417.549;  108.139;  522.718;  318.508
417.838;  -74.648; -205.268; -147.518
418.128;  185.032;  650.710;  492.522
418.418; -149.452; -491.272; -579.509
418.708;   12.546;    9.726;  -48.506
418.997; -119.654; -474.275; -480.505
419.287; -203.053; -733.273; -790.507
419.577;  -70.862; -160.283; -123.489
419.866; -127.356; -588.277; -498.501
420.156;  -23.150; -242.270;  -55.513
420.446;   -4.444; -112.263;  -26.526
420.735; -155.251; -376.271; -446.512
421.025;  549.742; 1830.722;  315.502
421.314;  -50.651; -203.271; -226.512
421.604;   35.151;   89.732;  233.484
421.893; -177.351; -705.271; -602.511
422.183; -124.344; -487.263; -461.526
422.472;  -27.351;  -36.271; -107.511
422.762; -102.846; -416.266; -379.521
423.051; -282.755; -916.276; -916.503
423.341; -163.453; -491.273; -439.507
423.630;  -26.445; -121.265;   15.477
423.919;    5.245;   58.725;   49.495
424.209;  -90.643;  -31.263;   56.473
424.498;   35.552;   68.732;  161.483
424.787; -159.347; -535.267; -601.518
425.077;    9.155;   34.735;   29.478
425.366; -235.043; -734.262; -744.528
425.655;  180.147;  639.727;  259.493
425.945;  -82.329; -313.247; -268.554
426.234;   19.660;  117.741;  300.467
426.523; -108.840;  -86.259; -350.534
426.812;   18.354;  107.734;  159.480
427.101;  -22.249; -127.269; -323.515
427.390;   -0.350;  -55.270;  -86.514
427.680; -124.138; -624.257; -411.538
427.969;  -95.836; -330.255; -301.540
428.258; -152.838; -385.257; -477.536
428.547;   89.448;  449.728;  397.490
428.836; -121.235; -421.253; -398.543
429.125;  -78.139; -199.259;  -72.534
429.414; -106.332; -330.251; -294.548
429.703;  -89.332; -231.251; -213.548
429.992; -267.332; -938.250; -828.549
430.281; -130.844; -397.264; -331.524
430.570;   -5.733;  -21.252;   32.454
430.859;   38.360;  279.741;  352.466
431.148;  169.471;  636.752;  631.446
431.437;  104.967;  391.748;  367.454
431.725; -151.538; -544.257; -481.536
432.014; -270.534; -845.253; -756.545
432.303;  -60.421; -149.239; -105.569
432.592; -103.144; -460.263; -178.525
432.881; -161.129; -601.248; -437.554
433.169;  -54.536; -343.255;  -61.540
433.458;  124.982;  445.765;  540.424
433.747; -124.342; -397.261; -289.529
434.036; -130.024; -275.242; -280.564
434.324; -154.231; -395.249; -379.551
434.613;   30.175;   40.757;  159.437
434.902;   82.178;  333.760;  439.433
435.190;   42.879;   75.761;  295.431
435.479;  -45.727;  -52.245;   83.441
435.767; -134.526; -411.244; -427.561
436.056; -125.524; -340.242; -294.563
436.345; -133.522; -372.240; -223.568
436.633;   76.869;   60.750;  383.450
436.922;   75.078;  208.760;  414.432
437.210;  -63.719; -194.236;    1.426
437.499; -236.218; -583.235; -432.576
437.787;  -93.319; -339.236;  -10.574
438.075;   -7.821;   56.761;  162.430
438.364;  -43.421;  -44.238;  250.429
438.652;  -69.910; -286.226; -138.592
438.941;  -19.813;    3.770;  269.415
439.229; -207.534; -665.252; -466.545
439.517;  -60.317; -160.234;  -85.577
439.806; -176.208; -501.225; -290.595
440.094;   72.784;  377.766;  650.421
440.382; -182.416; -653.233; -302.580
440.670; -111.818; -361.235; -285.576
440.959; -140.206; -347.223; -170.599
441.247;  -80.612; -151.229; -109.587
441.535;  -76.817; -266.235;   31.423
441.823; -195.717; -497.234; -305.578
442.111;   29.588;  173.771;  327.412
442.400; -188.227; -628.245; -335.559
442.688;  -73.716; -111.234; -620.579
442.976; -240.597; -786.213; -450.617
443.264; -168.907; -324.224; -364.597
443.552;  -59.009; -258.226;   51.408
443.840;  158.583;  602.765;  876.423
444.128;   90.184;  265.767;  269.420
444.416; -201.611; -694.228; -312.588
444.704; -144.603; -465.219;  -92.605
444.992;  -51.909;   -0.226;  240.407
445.280; -127.813; -517.230;  -94.585
445.568; -233.596; -694.212; -396.618
445.856;  -54.405; -174.221;  357.398
446.143;  -82.103;  -54.220;   -7.604
446.431;   20.289;  -25.228;  625.411
446.719;  151.599;  489.783;  675.391
447.007;  132.986;  481.769;  705.416
447.295;  128.094;  597.777;  871.402
447.583;  -89.812; -464.229;  -34.587
447.870; -175.305; -434.221; -202.601
448.158;  -39.313; -104.230;  129.415
448.446; -229.503; -800.219; -338.604
448.733;  -44.407;   13.776;  269.403
449.021;  -17.496;   60.788;  341.382
449.309;  -67.995; -296.210;  208.379
449.596;   49.199;  128.783;   59.392
449.884; -198.506; -571.222; -325.600
450.172; -251.110; -756.227; -406.590
450.459;  124.301;  645.786;  780.387
450.747; -163.901; -411.218; -147.608
451.034;  158.989;  493.772;  889.411
451.322; -152.798; -413.214; -170.614
451.609;   43.793;  292.777;  508.403
451.897; -171.288; -550.203; -183.634
452.184; -208.106; -622.223; -400.598
452.472;  -20.193;   97.792;  269.375
452.759;  150.097;  512.781;  864.395
453.047; -162.497; -407.212; -125.617
453.334; -167.902; -732.219; -216.606
453.621; -128.698; -438.214; -161.615
453.909;  -10.189;   13.796;  384.368
454.196;  -86.784; -299.199; -123.641
454.483;   24.813;  317.798;  540.364
454.771;  -62.792; -215.208;  196.374
455.058;  -79.892; -316.207;  102.374
455.345;   -1.878;   71.807;  344.347
455.632;  -57.892; -128.207;  235.373
455.919;  -15.082;  -82.196;  182.354
456.207; -251.584; -774.198; -450.642
456.494; -190.186; -475.200;  -66.639
456.781; -143.287; -399.202; -198.635
457.068; -110.691; -253.206;  -29.628
457.355; -199.491; -698.206; -401.629
457.642; -156.990; -552.205; -290.630
457.929; -213.279; -778.194; -417.651
458.216; -210.997; -575.212; -354.617
458.503;  -42.079; -173.193;  -19.652
458.790; -245.493; -864.208; -630.625
459.077;  -45.787;  -77.202;  110.364
459.364; -120.680; -350.195; -210.649
459.651;   -6.291;  -46.206;  220.372
459.938; -261.494; -864.209; -665.623
460.225;   -3.286;  132.799;  276.363
460.512; -295.182; -836.197; -688.645
460.799;  -39.302;  -32.218;  320.392
461.086; -115.285; -370.200; -251.640
461.372; -191.884; -509.198; -279.642
461.659;  -26.982; -165.196;  108.354
461.946; -109.679; -445.193;  -54.651
462.233;  203.515;  842.800;  888.361
462.519; -231.486; -814.201; -464.639
462.806; -225.782; -768.197; -497.645
463.093; -110.777; -445.191;  -66.656
463.380; -264.173; -920.186; -824.664
463.666;  -15.482; -259.197;  -18.646
463.953;  -97.981; -406.195; -243.648
464.239;  -86.981; -173.195;  -77.648
464.526;   99.820;  413.806;  743.350
464.813; -164.276; -565.190; -304.658
465.099;  141.321;  606.807;  607.348
465.386;  215.421;  903.807;  921.348
465.672; -222.282; -694.197; -522.645
465.959; -200.574; -598.188; -520.662
466.245; -171.979; -468.193; -359.652
466.532;   -9.781; -109.195;   63.352
466.818; -129.373; -357.186; -216.664
467.104; -174.968; -488.182; -415.672
467.391; -165.475; -628.189; -459.658
467.677;  -81.272; -289.186;    9.335
467.964; -187.775; -682.189; -471.660
468.250;  -93.372; -331.186; -160.665
468.536;  -66.875;   90.811;  180.341
468.822; -209.871; -821.184; -574.668
469.109;  104.040;  351.827;  471.311
469.395;  200.122;  729.808;  787.346
469.681;   -2.775;   46.811;  156.341
469.967; -203.475; -699.188; -382.660
470.254; -120.474; -494.188; -306.662
470.540; -156.182; -601.196; -476.646
470.826; -171.767; -488.181; -397.675
471.112;  -21.670;  288.816;  113.331
471.398;  -64.170; -253.183;  -58.670
471.684; -160.764; -626.177; -447.680
471.970; -306.267; -918.180; -981.675
472.256; -145.878; -521.192; -441.654
472.542; -173.659; -499.171; -434.691
472.828; -215.269; -743.182; -607.672
473.114; -149.254; -380.166; -283.700
473.400; -139.362; -504.175; -293.684
473.686; -133.953; -452.166; -400.701
473.972;  -59.261; -230.174; -131.687
474.258; -270.460; -925.173; -843.689
474.544;  -33.465; -183.178;   -2.679
474.830;  -46.262;  -65.175;   45.316
475.116;  -65.675; -123.190; -196.658
475.401; -138.466; -558.180; -467.676
475.687; -231.367; -725.180; -718.676
475.973; -202.768; -673.181; -770.673
476.259;  229.538;  736.825;  764.315
476.544; -148.063; -539.176; -437.682
476.830; -132.159; -398.172; -322.690
477.116; -113.563; -430.177; -336.682
477.401;   94.233;  346.820;  358.324
477.687; -122.062; -289.175; -405.684
477.973;   -7.768;   21.819;   28.326
478.258; -144.451; -448.163; -348.706
478.544;  -16.271;   21.815;   61.334
478.829; -237.758; -818.171; -738.692
479.115; -199.159; -749.172; -651.690
479.401; -142.061; -444.174; -449.686
479.686;  -60.867; -253.180;  -74.676
479.972; -245.564; -886.178; -776.680
480.257;  -65.354; -258.166;  -65.700
480.542; -167.158; -614.170; -469.693
480.828;  369.137; 1288.824; 1392.317
481.113; -192.463; -464.176; -426.683
481.399;  -79.349; -236.161; -202.711
481.684; -179.454; -620.166; -462.700
481.969;  -40.247; -158.159;  -73.713
482.255; -136.757; -439.169; -285.695
482.540; -167.964; -569.178; -441.680
482.825; -140.973; -395.187; -404.663
483.110;  -28.556;  -85.169; -105.696
483.396; -214.745; -840.157; -652.718
483.681;  138.939;  543.826;  730.313
483.966; -219.748; -696.160; -700.712
484.251; -146.761; -404.174; -310.687
484.536; -114.153; -356.165; -378.703
484.822; -104.961; -205.173; -218.687
485.107; -166.841; -599.152; -502.726
485.392;  170.748;  662.836;  541.296
485.677;   32.745;  354.832;  163.302
485.962;   46.355;  160.843;  270.283
486.247;   -7.650;  -14.162;   -8.707
486.532; -119.054; -178.166; -325.701
486.817;  112.651;  381.839;  431.291
487.102; -198.443; -453.154; -514.722
487.387; -180.545; -637.156; -652.718
487.672;  -42.752; -154.164;  -38.705
487.957;  -83.049; -394.160; -286.711
488.241; -102.339; -290.150; -314.729
488.526; -111.041; -280.152; -148.726
488.811; -270.864; -881.177; -818.680
489.096; -231.942; -666.154; -702.723
489.381;  -17.741;    3.847;  162.275
489.666; -140.249; -428.161; -510.710
489.950;  169.958;  558.846;  627.277
490.235; -158.040; -480.151; -458.728
490.520; -199.749; -756.161; -723.710
490.804; -261.545; -827.156; -736.719
491.089; -134.938; -469.149; -299.732
491.374;  -59.152; -132.164;  -75.704
491.658; -219.836; -817.147; -717.735
491.943; -166.940; -657.152; -609.727
492.227;  -55.943; -178.155;  -38.721
492.512; -118.245; -294.157; -341.717
492.797; -233.538; -713.149; -716.731
493.081; -176.736; -588.147; -598.735
493.366; -232.949; -751.161; -635.711
493.650;  234.070;  831.859;  917.254
493.935; -169.536; -648.147; -447.734
494.219; -217.632; -778.142; -687.743
494.503; -189.139; -585.150; -487.730
494.788;  -21.346;   46.842;   74.285
495.072;   95.661;  184.850;  434.271
495.356; -130.437; -463.148; -343.733
495.641; -259.035; -812.146; -736.736
495.925; -287.444; -976.156; -903.719
496.209; -176.638; -599.149; -451.732
496.494; -183.332; -763.142; -544.744
496.778; -117.243; -364.154; -360.722
497.062; -238.544; -819.156; -627.719
497.346; -252.448; -869.160; -640.711
497.631;  151.163;  580.852;  560.266
497.915;  -24.034;  -64.145;  175.261
498.199; -108.845; -341.157; -277.718
498.483; -145.741; -562.152; -508.725
498.767;   87.361;  301.850;  300.271
499.051;  -45.738; -126.149; -100.732
499.335; -222.838; -693.149; -739.731
499.619; -146.020; -381.129; -423.767
499.903; -101.843; -272.155;  -65.721
500.187; -170.542; -588.153; -316.724
500.471; -268.140; -796.152; -595.727
500.755;  -22.549;   62.839;  -96.710
501.039; -108.043; -270.155; -357.721
501.323;   26.370;  -21.141;  264.254
501.607; -153.751; -447.163; -503.706
501.891; -177.445; -607.156; -512.718
502.174; -204.733; -726.144; -585.741
502.458;   30.460;   89.849;  370.273
502.742;  -69.328; -180.138; -191.751
503.026;  -64.736; -412.147; -254.734
503.310; -133.547; -437.159; -375.713
503.593; -135.436; -464.147; -325.735
503.877;  -71.624; -232.133; -156.760
504.161;  -55.242;    2.847;  -50.724
504.444; -247.646; -841.158; -710.716
504.728; -167.452; -487.164; -522.704
505.012;  -78.039; -257.150;  -76.729
505.295; -115.649; -417.161; -212.711
505.579; -117.544; -256.156; -496.719
505.862; -164.135; -555.145; -333.738
506.146; -226.147; -681.159; -758.714
506.429;  127.353;  568.841;  461.286
506.713; -197.740; -732.151; -667.728
506.996;    0.557;   90.846;  295.278
507.280; -199.552; -633.165; -474.703
507.563; -136.044; -469.155; -261.721
507.847; -125.042; -423.153; -112.724
508.130; -175.549; -665.161; -456.711
508.413; -200.354; -758.167; -577.700
508.697;  -10.154; -151.167;   12.300
508.980; -129.542; -422.153; -312.724
509.263; -165.744; -466.155; -450.720
509.547;  -61.439; -124.150;   82.271
509.830;  -38.248; -172.160;  140.289
510.113;   20.856;  128.844;  298.281
510.396; -158.241; -530.152; -300.725
510.680; -286.035; -818.145; -812.738
510.963;   32.658;  184.846;  180.277
511.246; -179.239; -493.150; -357.730
511.529; -115.134; -482.145;  -83.739
511.812;  -52.324; -250.134;   10.241
512.095; -176.440; -740.151; -396.728
512.378;  -86.136; -317.147; -245.736
512.661; -185.227; -703.137; -623.753
512.944; -220.032; -750.142; -637.744
513.227;  -77.227; -170.137; -171.752
513.510; -179.333; -479.144; -671.741
513.793; -171.430; -485.140; -435.747
514.076;  -69.418;  -43.127;  -39.771
514.359;  -65.938; -294.149; -135.732
514.642; -199.331; -442.142; -567.744
514.925;  132.570;  581.860;  561.253
515.208; -157.824; -498.134; -443.758
515.491;  -81.323; -276.133; -182.761
515.773; -184.133; -410.143; -337.742
516.056;   81.974;  249.864;  409.246
516.339; -229.426; -754.136; -652.755
516.622; -190.539; -518.150; -488.730
516.904;  247.168;  882.857;  975.257
517.187; -241.727; -730.138; -523.752
517.470; -189.832; -568.143; -510.743
517.752; -165.626; -624.136; -470.756
518.035; -218.829; -708.139; -725.749
518.318; -281.326; -799.136; -744.755
518.600; -143.422; -300.132; -325.762
518.883;   32.769;  310.858;   88.256
519.165; -192.428; -585.138; -426.751
519.448;  -41.422;  -61.132;  -19.762
519.730; -231.717; -573.126; -415.773
520.013;  169.477;  588.867;  664.240
520.295; -101.224;  -94.134;  -15.759
520.578; -113.121; -335.131; -305.764
520.860;  -61.922; -254.132;   56.238
521.143; -248.125; -763.135; -584.756
521.425; -112.315; -251.125; -279.775
521.707; -140.918; -622.127; -380.771
521.990;  -10.118; -199.127;  167.229
522.272;  -29.730; -116.140;   -4.748
522.554;  -95.333; -237.143; -157.742
522.836;  -52.324;  -24.134;   99.241
523.119; -171.437; -496.148; -189.734
523.401; -133.420; -448.130; -314.766
523.683; -282.327; -865.137; -693.753
523.965;   48.072;  408.862;  260.248
524.247;  -45.513;   54.878;  170.220
524.529; -163.224; -451.134; -367.759
524.812;  -10.220;   -3.130;  191.234
525.094; -244.328; -773.138; -631.751
525.376;  -54.114; -143.124;   78.223
525.658; -129.526; -441.136; -339.754
525.940; -257.321; -805.131; -671.764
526.222;  -88.826; -188.136;  -88.755
526.504;  -78.622; -190.131;   32.237
526.786; -265.523; -960.133; -647.760
527.068; -121.214; -124.123;  -67.778
527.349; -275.227; -865.137; -774.754
527.631;  -41.422; -137.132;   22.238
527.913; -189.318; -664.127; -450.771
528.195; -264.416; -761.125; -639.774
528.477;  -73.524;  -93.134;  -30.758
528.759; -240.820; -648.130; -522.766
529.040; -167.514; -569.123; -293.778
529.322;  -81.516; -235.125;  -10.774
529.604;  -46.620;  -47.130;   93.233
529.886; -150.417; -546.126; -302.773
530.167;   24.179;  232.870;  192.235
530.449;  -37.136;    1.853;   63.265
530.731; -195.213; -572.122; -459.779
531.012; -165.311; -513.120; -216.784
531.294;  -75.307; -118.116;  -43.792
531.575;   72.485;  290.875;  538.225
531.857; -181.625; -548.135; -266.757
532.138;  -73.230; -113.141;   40.254
532.420;    9.175;  294.865;  403.244
532.701; -259.123; -722.133; -751.760
532.983;   60.077;  232.867;  182.239
533.264;  -70.617; -243.126;  175.228
533.546; -165.726; -491.136; -508.755
533.827;  -39.724;  173.867;   -1.759
534.109; -144.025; -352.135;  -80.757
534.390; -236.822; -725.132; -582.762
534.671;  -74.425; -270.135;  -82.756
534.953; -212.514; -751.123; -611.779
535.234; -151.409; -426.117; -255.789
535.515; -286.010; -891.119; -735.785
535.796; -145.518; -431.128; -193.770
536.078; -332.715;-1050.124; -904.777
536.359;  -94.214;  -22.123;    3.221
536.640; -126.716; -480.125; -197.774
536.921;   24.681;  225.871;  143.232
537.202; -107.728;  -87.138;  -16.751
537.483;   22.079;  251.869;  377.236
537.764;  -32.521;   17.870;   98.235
538.045; -195.024; -543.134; -371.758
538.326; -185.719; -596.129; -447.768
538.607; -246.417; -686.127; -476.771
538.888;  -33.512;   98.879;    5.218
539.169; -233.413; -704.122; -535.781
539.450;   -2.819;  236.871;   16.233
539.731; -130.912; -361.121; -182.783
540.012;    7.589;  199.880;  412.216
540.293;  -44.115;   82.876;  158.224
540.574; -292.105; -895.113; -717.796
540.855;   60.788;  435.879;  377.218
541.136;    0.287;   47.878;  139.220
541.416; -102.120; -161.130; -220.766
541.697; -146.422; -274.131; -170.763
541.978; -128.325; -270.135; -315.757
542.259; -147.717; -211.127; -236.771
542.539; -119.908; -191.116; -186.790
542.820;   97.785;  461.875;  480.225
543.101;  -70.134;  -52.145;  -77.738
543.381; -277.118; -638.127; -591.771
543.662;  -14.118;  159.873; -254.771
543.942; -321.218; -751.127; -830.770
544.223;   -3.413;  193.878;  161.219
544.504; -128.015; -275.124; -182.777
544.784; -181.217; -592.126; -408.773
545.065; -178.707;  104.884; -254.791
545.345;  -65.810;  227.881;   14.215
545.626;  -71.005;  -14.113; -108.796
545.906;  -34.321;   77.869;   98.235
546.186; -102.016;   92.874;  -95.773
546.467;  -44.414;   99.877;  -95.778
546.747;   24.792;  264.884;  327.210
547.027;  -18.515;   91.876;  111.223
547.308; -209.218; -376.127; -530.770
547.588;   38.281;  299.871;  371.232
547.868;   91.179;  458.870;  588.235
548.149;  156.694;  609.885;  593.207
548.429; -145.618; -347.127; -299.771
548.709; -210.011; -645.120; -461.784
548.989;  -30.309;   84.882;   88.213
549.269; -117.123;   10.868;  139.239
549.550;  -38.014;  215.877;  117.222
549.830; -259.203; -758.111; -556.799
550.110; -157.502; -468.110; -320.801
550.390;  -98.613; -128.122;  -56.779
550.670; -317.905; -868.114; -783.795
550.950; -197.312; -509.121; -471.782
551.230;  104.688;  549.879;  460.218
551.510; -164.912; -381.121; -326.782
551.790;  -88.801; -173.109; -127.803
552.070;  249.886;  940.877; 1181.223
552.350; -177.210; -492.119; -377.786
552.630;  -35.912;   -2.121;   77.219
552.909;   16.693;  181.884;   73.209
553.189;  -53.822;  -49.132;   33.237
553.469; -218.210; -703.119; -514.786
553.749; -185.217; -469.127; -357.772
554.029;  -75.708;   33.883;  -24.790
554.308;  -83.806; -154.115;  -37.794
554.588; -153.718; -196.128; -204.770
554.868; -114.312; -366.121;  -47.782
555.147;  -94.406; -114.115;  -46.793
555.427; -123.807; -260.116; -250.792
555.707; -129.007; -284.115; -200.793
555.986; -252.203; -719.111; -538.800
556.266;  -42.608;   23.884;   72.210
556.546; -255.712; -888.121; -675.782
556.825; -246.106; -657.114; -556.794
557.105;  -80.518; -125.128;   17.230
557.384;  -14.107;  122.884;  187.209
557.664; -218.907; -717.116; -508.792
557.943; -209.512; -557.121; -411.782
558.222; -156.909; -345.118; -344.788
558.502;  -94.106; -116.115;  -76.793
558.781;   51.793;  194.885;  499.208
559.061; -112.409; -232.118; -227.788
559.340;    6.892;  302.883;  353.211
559.619;  -54.708;   93.884;  148.210
559.899; -159.208; -239.117; -266.789
560.178; -253.906; -778.115; -593.793
560.457; -224.308; -623.117; -562.790
560.736; -181.103; -472.111; -482.800
561.015; -223.919; -500.128; -502.769
561.295;  -53.399;  180.893;  215.193
561.574;  -34.006;  119.885;  116.207
561.853;   10.099;  274.891;  303.197
562.132;  -83.506;  -45.114;  182.206
562.411;  112.988;  396.879;  553.219
562.690; -183.207; -592.115; -458.792
562.969;  136.896;  472.888;  630.203
563.248;  805.587; 2966.878; 2487.219
563.527; -140.603; -290.111; -408.800
563.806; -224.918; -650.127; -521.771
564.085; -125.998; -297.105; -206.810
564.364; -204.708; -594.117; -405.790
564.643; -140.212; -276.121; -223.781
564.922;   11.798;  221.890;  397.198
565.201; -240.701; -640.109; -700.803
565.479;  -92.107; -297.115; -219.792
565.758; -264.718; -810.128; -712.770
566.037;  -99.301; -155.109; -100.803
566.316; -129.607; -286.116;  -28.791
566.595;  -65.507;  -17.115;  -12.793
566.873;   96.298; -166.111;  -79.801
567.152; -217.704; -490.113; -590.797
567.431;  -78.108; -113.116;    6.210
567.709;  -92.999; -344.107; -212.807
567.988; -276.606; -810.114; -769.794
568.266;  -86.207; -160.115;  -68.793
568.545; -231.393; -644.100; -514.819
568.824;   40.993;  160.885;  356.208
569.102; -160.406; -351.114; -235.794
569.381; -169.907; -492.116; -407.792
569.659; -193.205; -553.113; -553.796
569.938; -244.913; -743.122; -465.780
570.216; -146.201; -225.109; -225.804
570.494; -210.605; -632.114; -572.795
570.773;   17.088;  202.879;  114.218
571.051; -153.914; -373.123; -357.778
571.330; -117.805; -221.113; -174.796
571.608;  -92.991; -181.098; -173.823
571.886; -261.703; -671.111; -581.799
572.164; -245.512; -739.121; -621.782
572.443; -201.097; -562.105; -512.811
572.721; -135.908; -399.117; -289.790
572.999; -130.409; -280.117; -168.788
573.277;   87.402;  379.894;  620.191
573.555;  -70.998;   94.894;   37.190
573.834;  -97.609;  -86.117; -114.788
574.112;  170.501;  880.893;  811.193
574.390;  -71.802; -143.111;  -96.801
574.668;  -97.604;  -91.112;  -61.797
574.946; -105.698; -165.106; -187.810
575.224;  -39.201;   71.891;  -16.803
575.502; -111.608; -200.116; -204.791
575.780; -271.004; -767.112; -829.798
576.058;  425.197; 1589.889; 1004.200
576.336; -100.302; -210.110; -129.801
576.614; -181.904; -511.112; -340.798
576.891; -273.606; -711.115; -823.794
577.169; -112.400; -158.108; -285.805
577.447;   11.601;  169.893;  202.193
577.725;  146.597;  629.888;  854.201
578.003; -129.004;  -71.112; -371.798
578.280; -103.396; -208.104; -242.812
578.558; -212.506; -450.115; -422.793
578.836; -109.905; -210.114; -145.795
579.114; -260.504; -630.112; -670.797
579.391;  -73.609;   -6.117;  -18.789
579.669; -250.506; -595.114; -704.794
579.947; -102.899; -326.107; -127.806
580.224; -228.699; -692.107; -524.806
580.502;  -47.699;  127.893;   76.193
580.779;  -53.008;  -42.117;   75.210
581.057; -192.701; -584.109; -470.804
581.334; -239.395; -726.102; -695.815
581.612;   72.302;   54.895;  511.190
581.889; -121.893;  -83.101; -129.818
582.167; -123.892; -298.099; -190.821
582.444; -285.494; -845.102; -814.817
582.721;  140.606;  657.899;  715.183
582.999;  -83.192; -326.100; -167.821
583.276; -262.014; -812.123; -713.779
583.553; -149.094; -364.102; -294.816
583.831; -234.097; -607.104; -631.812
584.108;    9.600;  349.892;  174.195
584.385; -104.695; -122.102;  -98.815
584.662; -243.702; -651.111; -828.801
584.940;    5.398;  204.889;  204.199
585.217; -111.705;  -73.113; -303.796
585.494;  -34.001;   71.890;  118.198
585.771; -136.001; -250.109; -354.804
586.048; -103.705; -196.113;  -76.796
586.325; -244.702; -721.110; -773.801
586.602;    0.304;  230.896;  213.188
586.879; -203.893; -499.100; -580.820
587.156;  -80.498; -156.105; -331.810
587.433; -244.694; -701.102; -667.817
587.710;  -45.004;  152.888;  234.202
587.987; -139.797; -264.105; -236.811
588.264;   50.596;  315.888;  387.202
588.541;  -67.796;  -61.104;   26.187
588.818;  -31.400;   72.892;  171.196
589.095; -123.297; -163.104; -174.812
589.371; -188.001; -459.109; -414.804
589.648; -187.699; -581.107; -437.807
589.925; -188.205; -517.114; -621.795
590.202; -270.604; -741.112; -607.798
590.478;  -81.097; -166.105;  -73.811
590.755; -117.400; -241.108; -132.806
591.032; -248.102; -741.110; -699.802
591.308; -261.987; -732.094; -790.831
591.585; -204.002; -573.110; -560.802
591.862; -321.794;-1056.102; -950.817
592.138; -168.900; -475.108; -474.805
592.415; -195.296; -486.104; -495.813
592.691;   85.804;  460.896;  518.188
592.968; -135.591; -208.098; -123.824
593.244; -226.708; -695.116; -595.790
593.521;  -65.994; -105.102;  -42.817
593.797; -315.613; -810.122; -720.780
594.074; -227.689; -611.096; -588.826
594.350;  176.412;  828.905;  729.172
594.626; -128.002; -303.111; -283.801
594.903; -198.094; -643.101; -645.817
595.179;   35.904;  243.896;  418.187
595.455;  -91.699; -136.107; -150.807
595.731;  -85.296;  -19.103;  -38.814
596.008; -166.803; -464.111; -434.800
596.284; -136.992; -187.100; -242.820
596.560; -168.286; -501.093; -493.833
596.836; -120.797; -173.105;  -70.810
597.112; -180.800; -582.108; -437.805
597.388;  -86.090;  -49.097;  -48.826
597.665;   76.696;  437.887;  530.203
597.941; -226.483; -572.089; -658.839
598.217; -164.602; -323.110; -293.802
598.493; -108.701;   61.891; -204.804
598.769; -118.893; -175.100;  -50.819
599.045; -191.100; -490.108; -562.806
599.321; -113.292; -193.100; -261.820
599.597; -175.401; -355.109; -476.804
599.872;   93.304;  409.896;  429.187
600.148;  -66.589;  -61.097; -172.826
600.424;   11.701;   91.893;  202.193
600.700; -115.999; -170.107; -280.807
600.976; -186.890; -442.097; -464.825
601.252; -140.701; -226.109; -272.803
601.527; -268.996; -833.104; -840.813
601.803; -158.997; -453.105; -404.812
602.079;  -88.193; -124.100; -118.819
602.354; -192.285; -620.092; -531.835
602.630; -134.905; -140.113; -482.796
602.906; -287.993; -910.101; -863.818
603.181; -221.310; -627.119; -534.786
603.457;  -66.790;   98.903; -278.826
603.733; -219.612; -605.120; -626.783
604.008; -128.498; -245.106; -164.810
604.284; -187.194; -636.101; -580.817
604.559;  -59.003;   -3.112;  -42.799
604.835; -114.097; -163.105; -225.810
605.110; -287.292; -732.099; -892.821
605.385;   66.114;  224.907;  267.167
605.661; -226.888; -625.095; -729.829
605.936; -252.100; -664.108; -737.806
606.211;  -63.695;  -17.103; -170.815
606.487; -112.606; -329.114; -376.794
606.762; -283.310; -791.119; -745.786
607.037; -176.397; -501.105; -433.810
607.313; -227.189; -589.096; -574.828
607.588;  -80.098; -375.106; -137.810
607.863;  -54.093;  -28.101; -143.818
608.138;  105.598;  513.890;  516.198
608.413; -215.091; -576.099; -592.822
608.688; -128.800; -203.108; -267.805
608.964; -144.798; -509.106; -218.809
609.239;  -76.098; -107.105; -212.810
609.514;   -5.097;  281.895;  240.188
609.789; -244.496; -187.104; -716.812
610.064; -166.389; -435.096; -609.827
610.339; -276.901; -855.109; -799.804
610.614;  -89.992; -131.100; -315.820
610.889;  -27.097;  215.895;  107.188
611.163; -171.497; -407.104; -591.812
611.438; -122.606;   81.886; -167.794
611.713; -235.794; -467.101; -499.817
611.988; -123.694; -144.101; -328.818
612.263; -255.995; -771.102; -717.815
612.538;   76.195;  385.887;  251.204
612.812; -288.792; -832.100; -911.820
613.087; -161.791; -358.098; -338.823
613.362; -224.399; -497.107; -557.807
613.637;   17.105;  261.897;  138.186
613.911; -100.885; -256.092; -345.835
614.186; -179.099; -249.107; -292.807
614.460; -283.975; -842.081; -758.854
614.735;  -42.980;  -55.087;  -17.843
615.010;  -52.181;   43.912;  -82.841
615.284;   73.700;  360.892;  246.195
615.559; -262.885; -792.092; -955.835
615.833;  -40.192;  -76.099;  -87.822
616.108; -128.684; -225.090; -390.837
616.382;   93.720;  274.913;  402.156
616.656; -101.284; -241.090; -232.837
616.931; -251.192; -785.099; -700.822
617.205; -327.196; -973.104; -979.813
617.480;  -59.716;  -91.125;    6.225
617.754; -140.516; -396.125; -128.774
618.028; -134.719; -369.129; -382.768
618.302;  -29.200;   73.892;  -25.805
618.577; -182.495; -371.103; -518.815
618.851; -174.301; -399.109; -600.803
619.125; -144.324; -335.134; -378.759
619.399;  -91.396; -244.104; -374.813
619.673; -145.607; -330.115; -515.792
619.947; -170.105; -333.114; -448.795
620.222;  -65.602; -198.110; -204.801
620.496; -141.512;  -47.121;  -96.782
620.770;  -81.213; -187.122;  -93.781
621.044;   37.102;  323.895;  346.190
621.318; -219.811; -653.120; -614.783
621.592; -129.912; -430.121; -409.783
621.866; -194.503; -476.112; -572.799
622.140; -104.808; -207.116; -356.791
622.413;  -16.303;  138.889;  112.200
622.687; -201.294; -746.101; -492.817
622.961;  -22.400; -130.108; -143.805
623.235; -217.303; -633.111; -661.800
623.509; -277.697; -816.105; -848.811
623.783;  -14.299;  -12.107;   48.193
624.056;  -98.211; -254.120; -280.783
624.330;  -28.704;   63.888;   -3.797
624.604; -118.708; -271.116; -355.790
624.877;  -15.002;  180.890;   26.198
625.151; -102.206; -249.114; -238.794
625.425;  -89.296; -150.103; -283.814
625.698; -168.410; -367.119; -374.785
625.972; -232.202; -799.110; -765.802
626.245;   82.892;  685.884;  484.210
626.519; -159.111; -426.120; -340.784
626.792;  -76.999; -192.107; -380.807
627.066; -232.313; -485.122; -662.779
627.339; -217.802; -736.110; -663.802
627.613;   32.489;  351.880;  148.216
627.886;   34.099;  187.891; -612.803
628.160; -102.012;  312.880; -161.783
628.433; -227.715; -695.125; -703.775
628.706; -217.411; -517.120; -615.784
628.979;   21.685;  296.876;  117.223
629.253; -293.810; -785.119; -833.786
629.526; -108.117; -334.126; -253.772
629.799; -228.914; -641.123; -479.778
630.072; -152.219; -497.128; -516.769
630.346; -386.208;-1115.116;-1080.790
630.619; -175.099; -467.107; -545.808
630.892;  148.197;  709.889;  593.200
631.165;  185.604;  790.896;  679.187
631.438; -350.004;-1092.112;-1055.798
631.711;   69.086;  453.877;  257.221
631.984; -175.808; -523.117; -624.789
632.257; -218.709; -636.117; -681.789
632.530; -144.510; -412.119; -433.785
632.803;   20.694; -109.115;    7.207
633.076; -144.414; -360.123; -422.777
633.349;  -10.618;  173.872;  121.231
633.622;  -73.110; -187.119; -240.785
633.895; -278.311; -903.120; -823.783
634.167; -188.017; -496.126; -525.773
634.440;  -41.107;  -19.116; -137.792
634.713;  -52.910;  -22.119; -120.786
634.986;  109.180;  593.871;  453.233
635.258; -228.506; -507.115; -597.793
635.531;  156.191;  742.882; -343.788
635.804; -120.608; -303.117; -318.789
636.077; -264.907; -830.116; -852.791
636.349; -204.706; -586.115; -474.793
636.622;  503.683; 1695.874; 1392.228
636.894; -190.611; -474.120; -909.784
637.167; -277.518; -836.127; -789.771
637.439;  -91.118; -278.128; -213.770
637.712; -120.817; -312.126; -293.772
637.984; -199.607; -635.116; -707.791
638.257;  135.986;  515.877;  488.222
638.529; -297.815; -881.125; -924.776
638.802; -168.019; -508.128; -449.769
639.074; -337.313; -927.122; -952.781
639.346; -307.625; -942.135; -930.757
639.619;  -44.831;  -79.142; -319.744
639.891;  -89.813;  -83.122; -168.779
640.163; -246.813; -689.122; -756.780
640.435;   -5.713;  273.878;  103.220
640.708;  -44.413;  -72.122; -132.780
640.980; -139.513; -366.122; -362.781
641.252;  -23.412;  -25.121;  -71.781
641.524;  125.388;  580.879;  573.219
641.796; -302.412;-1094.121; -907.782
642.068;  -86.112; -191.121; -300.782
642.340; -197.312; -486.121; -566.783
642.613;   43.189;  294.880;  323.217
642.885; -264.511; -787.120; -878.783
643.157; -248.111; -810.120; -658.784
643.428;   37.389;  170.880;  218.216
643.700; -158.511; -498.120; -425.784
643.972;  -73.511;  -16.119; -133.785
644.244; -179.810; -474.119; -559.785
644.516; -107.210; -250.119; -114.786
644.788;  171.290;  662.881;  548.214
645.060;  -22.910;  -12.119; -124.786
645.332; -203.510; -525.118; -535.787
645.603;  107.391;  479.882;  342.213
645.875; -133.209; -334.118; -369.787
646.147;  362.791; 1487.882; 1242.212
646.418; -307.809; -931.117; -918.788
646.690; -243.009; -714.117; -715.789
646.962; -169.008; -413.117; -451.789
647.233;  -19.508;   15.883;   11.211
647.505; -210.708; -595.117; -475.790
647.776;   61.492;  328.884;  229.210
648.048; -121.808; -248.116; -418.790
648.320; -245.107; -752.116; -679.791
648.591; -320.707;-1055.116; -958.791
648.862; -157.407; -505.116; -577.792
649.134;   42.093;  115.885;  198.208
649.405; -215.807; -661.115; -618.792
649.677; -175.906; -475.115; -598.793
649.948; -122.606; -181.115; -296.793
650.219;  -13.106;  -37.115; -147.793
650.491; -158.906; -431.114; -520.794
650.762; -254.706; -705.114; -731.794
651.033; -177.306; -437.114; -424.795
651.304; -283.205; -743.114; -728.795
651.576; -220.505; -680.114; -645.795
651.847;  -52.605; -250.113; -140.796
652.118;  -40.905;  -32.113; -189.796
652.389; -214.105; -639.113; -722.796
652.660;  -59.204; -147.113;  -89.797
652.931; -288.304; -897.112; -871.797
653.202; -194.104; -382.112; -541.798
653.473; -199.604; -633.112; -533.798
653.744; -190.904; -595.112; -590.798
654.015; -147.003; -356.112; -303.799
654.286; -186.003; -642.111; -663.799
654.557; -209.703; -586.111; -521.799
654.828; -323.403;-1114.111;-1088.800
655.099; -135.903; -404.111; -291.800
655.370; -162.502; -427.111; -543.801
655.641; -208.002; -656.110; -714.801
655.911; -226.102; -618.110; -638.801
656.182;   73.198;  437.890;  387.198
656.453;  176.198;  830.890;  746.198
656.724; -147.401; -466.110; -426.802
656.994; -193.801; -553.109; -568.803
657.265; -263.001; -862.109; -873.803
657.536; -144.001; -500.109; -377.804
657.806; -188.801; -561.109; -593.804
658.077; -278.901; -866.109; -950.804
658.347; -189.700; -523.108; -598.805
658.618; -251.600; -646.108; -694.805
658.888;  -67.300;  -41.108;  112.195
659.159; -182.400; -432.108; -548.806
659.429; -121.300; -292.108; -349.806
659.700; -154.999; -435.107; -390.807
659.970; -137.999; -370.107; -359.807
660.241; -264.799; -754.107; -921.807
660.511;  -78.699; -147.107; -174.808
660.781; -245.599; -793.106; -748.808
661.052; -114.998; -222.106; -381.808
661.322;  -32.798;   21.894;   -9.809
661.592;   58.502;  257.894;  148.191
661.862; -167.398; -369.106; -382.810
662.133; -210.398; -551.105; -502.810
662.403; -263.197; -770.105; -676.810
662.673;  -80.197; -256.105; -213.811
662.943; -195.397; -612.105; -551.811
663.213;  -42.097;  -85.105;  -81.811
663.483; -160.797; -593.104; -568.812
663.753;  -97.696; -194.104; -152.812
664.023;   17.104;   68.896;  -32.813
664.293; -112.596; -319.104; -126.813
664.563; -218.196; -694.104; -648.813
664.833; -218.896; -743.103; -608.814
665.103; -257.096; -730.103; -793.814
665.373; -241.995; -766.103; -806.814
665.643; -311.895; -863.103; -918.815
665.913; -206.695; -534.103; -714.815
666.182; -200.295; -685.102; -719.816
666.452;  -78.995;  -22.102;  -89.816
666.722; -241.394; -724.102; -784.816
666.992; -290.494; -948.102; -921.817
667.261; -250.094; -824.102; -808.817
667.531;  -55.194;  134.899;   45.183
667.801; -129.794; -440.101; -412.818
668.070;  159.907;  714.899;  697.182
668.340; -265.493; -883.101; -840.819
668.609;  113.307;  588.900;  301.181
668.879; -196.193; -490.100; -558.819
669.149; -192.193; -539.100; -516.820
669.418; -250.592; -698.100; -726.820
669.688; -181.792; -482.100; -666.820
669.957; -186.992; -423.099; -546.821
670.226;  -89.892; -268.099; -331.821
670.496; -206.892; -431.099; -635.822
670.765; -157.491; -418.099; -501.822
671.034; -273.091; -872.099; -828.822
671.304;  -34.891;   55.902; -111.823
671.573; -348.991;-1085.098; -957.823
671.842; -120.691; -380.098; -294.823
672.112; -195.290; -692.098; -586.824
672.381;  -92.790; -239.098; -214.824
672.650; -310.290;-1005.097;-1021.825
672.919; -219.690; -631.097; -507.825
673.188; -219.090; -681.097; -878.825
673.457; -367.290;-1101.097;-1143.826
673.726; -201.089; -579.096; -646.826
673.995; -132.289; -533.096; -479.826
674.265; -133.889; -263.096; -333.827
674.534;  -92.389; -183.096; -235.827
674.802; -178.689; -618.096; -703.828
675.071; -257.788; -886.095; -801.828
675.340; -163.888; -464.095; -339.828
675.609;   -2.288;  103.905;   82.171
675.878; -271.188; -949.095; -893.829
676.147;  -51.788;  -26.095;   -8.829
676.416;  -81.487; -210.094; -294.830
676.685;  310.413; 1000.906; -622.830
676.953; -190.187; -603.094; -452.831
677.222;  -93.087; -193.094; -273.831
677.491;  -81.087;  -24.094; -127.831
677.759;  -21.286;   11.907;  172.168
678.028; -109.386; -279.093; -222.832
678.297;  -16.886;   71.907;  197.168
678.565; -290.986; -898.093; -944.833
678.834; -118.886; -311.093; -268.833
679.102; -123.285; -411.092; -391.834
679.371; -284.085; -898.092; -727.834
679.639; -264.985; -797.092; -786.834
679.908; -247.885; -794.092; -724.835
680.176; -301.985; -895.091; -941.835
680.445; -105.985; -346.091; -352.835
680.713;  -34.384;  -58.091;  -23.836
680.982; -203.384; -523.091; -525.836
681.250; -205.684; -578.091; -507.837
681.518; -159.084; -534.090; -751.837
681.787;  -87.384; -204.090; -167.837
682.055; -172.583; -490.090; -422.838
682.323; -322.983; -993.090; -992.838
682.591;  -86.683; -216.090; -538.838
682.859;  -77.583;    9.911;  -35.839
683.128;   38.317;  232.911;  497.161
683.396; -348.282;-1102.089;-1122.840
683.664;  -83.982; -241.089;   21.160
683.932;   12.518;  144.911;  -76.840
684.200; -177.682; -576.088; -320.841
684.468;  -43.682;  -73.088; -124.841
684.736;  -89.581; -214.088; -175.841
685.004; -336.181;-1024.088; -982.842
685.272; -279.581; -880.088; -774.842
685.540; -227.681; -499.087; -557.843
685.808; -231.281; -651.087; -682.843
686.076; -290.680; -894.087; -969.843
686.343; -213.280; -601.087; -815.844
686.611;  -73.280; -195.087; -224.844
686.879; -173.480; -530.086; -553.844
687.147; -191.280; -483.086; -480.845
687.414;  -68.780;  -12.086; -169.845
687.682; -218.379; -658.086; -757.846
687.950;   61.821;  259.915;  263.154
688.217; -266.279; -792.085; -760.846
688.485; -170.779; -632.085; -636.847
688.753;  -64.779;  -11.085; -102.847
689.020; -257.578; -820.085; -851.847
689.288; -279.778; -853.084; -787.848
689.555;  -69.478; -195.084; -148.848
689.823; -129.578; -241.084; -345.849
690.090; -184.278; -546.084; -651.849
690.358; -302.277; -877.084; -897.849
690.625;  -25.577;  120.917;   45.150
690.892; -161.077; -403.083; -369.850
691.160;  -27.977;   72.917;  -35.850
691.427;   -0.677;  141.917;  130.149
691.694; -312.376; -855.083; -929.851
691.962; -320.676;-1177.082;-1060.852
692.229;  -19.676;  127.918;   56.148
692.496;  -52.776;  130.918;  -49.852
692.763;  -74.476; -164.082; -201.853
693.031; -235.775; -739.082; -716.853
693.298; -233.775; -509.081; -368.853
693.565;  -74.275; -155.081; -163.854
693.832;  -45.375;   -5.081;   -9.854
694.099; -222.075; -643.081; -642.855
694.366; -300.275; -882.081; -896.855
694.633; -311.174; -920.080; -633.855
694.900; 1308.226; 4367.920; -114.856
695.167;  -66.974; -214.080; -380.856
695.434; -237.574; -646.080; -623.856
695.701;   41.026;  121.921;  -61.857
695.968; -136.573; -365.079; -361.857
696.234; -200.373; -415.079; -646.858
696.501; -187.673; -776.079; -614.858
696.768; -172.973; -554.079; -617.858
697.035; -234.373; -632.078; -667.859
697.302; -225.072; -448.078; -552.859
697.568; -138.572; -458.078; -497.859
697.835; -221.672; -683.078; -624.860
698.102; -145.872; -498.078; -407.860
698.368;   47.828;  384.923;  396.139
698.635; -136.671;  -47.077; -424.861
698.901;  -88.271; -240.077; -348.861
699.168; -121.471; -534.077; -456.862
699.435;  -77.571;  -72.077;  -13.862
699.701; -304.871; -868.076; -764.862
699.968; -157.470;  144.924; -441.863
700.234; -287.070; -783.076; -822.863
700.500; -164.370; -448.076; -539.864
700.767;  -42.570;   -1.075;   26.136
701.033; -313.870;-1015.075; -963.864
701.299; -176.270; -450.075; -483.865
701.566;  200.431;  950.925;  763.135
701.832;   -1.869;  -31.075;  -76.865
702.098; -308.169;-1054.074;-1034.866
702.365; -345.169;-1098.074;-1030.866
702.631; -340.169;-1038.074;-1063.867
702.897; -208.868; -765.074; -676.867
703.163;   49.832;  348.926;  254.133
703.429; -121.868; -256.073; -273.868
703.695; -250.868; -796.073; -792.868
703.961;  -60.068; -214.073; -210.868
704.227; -258.567; -630.073; -725.869
704.493;  127.733;  613.927;  510.131
704.759; -207.967; -565.072; -540.870
705.025;  -64.167; -203.072; -194.870
705.291; -222.867; -666.072; -562.870
705.557;  165.334;  719.928;   34.129
705.823; -218.966; -742.072; -694.871
706.089; -108.366; -307.071; -326.871
706.355;  -87.666; -315.071; -244.872
706.620; -254.166; -776.071; -729.872
706.886; -110.365; -309.071; -362.873
707.152; -280.365; -818.070; -973.873
707.418; -376.965;-1153.070;-1186.873
707.683; -192.065; -550.070; -530.874
707.949; -196.865; -547.070; -578.874
708.215;  -75.865; -129.070; -207.874
708.480; -138.664; -520.069; -420.875
708.746;  -28.564;   68.931;   28.125
709.011; -210.364; -578.069; -612.876
709.277; -213.764; -538.069; -543.876
709.542; -130.564; -428.069; -387.876
709.808;  -43.763;  -59.068;   89.123
710.073; -190.663; -577.068; -695.877
710.339;  -92.263; -242.068; -228.877
710.604; -288.463; -780.068; -845.878
710.869; -114.863; -277.068; -366.878
711.135; -229.362; -715.067; -628.879
711.400; -201.162; -507.067; -608.879
711.665; -174.762; -404.067; -479.879
711.931; -234.762; -661.067; -677.880
712.196; -272.762; -876.067; -954.880
712.461; -181.261; -402.066; -490.880
712.726; -248.961; -727.066; -771.881
712.991; -222.561; -647.066; -664.881
713.256; -132.961; -350.066; -332.882
713.521; -162.961; -417.065; -381.882
713.787; -177.260; -454.065; -472.882
714.052; -115.560; -214.065; -400.883
714.317; -360.760;-1045.065; -981.883
714.581; -120.960; -374.065; -268.883
714.846; -282.060; -822.064; -888.884
715.111;   57.441;  261.936;  257.116
715.376; -103.159;  -86.064; -223.885
715.641; -126.459; -365.064; -367.885
715.906; -168.859;   15.936; -551.885
716.171;   18.841;  221.937;  209.114
716.436;  -32.059;  -78.063; -104.886
716.700; -245.858; -818.063; -692.886
716.965; -259.658; -794.063; -807.887
717.230; -123.958; -339.063; -392.887
717.494;  -61.458;  -40.062; -134.888
717.759; -211.658; -784.062; -640.888
718.024;   28.043;  269.938;  250.112
718.288;  165.043;  685.938;  395.111
718.553; -285.157; -803.062; -977.889
718.817; -290.457; -883.061; -899.889
719.082;  -48.857; -115.061; -125.890
719.346; -291.456;-1000.061; -947.890
719.611; -108.456; -300.061; -255.891
719.875; -206.456; -568.060; -537.891
720.140; -184.956; -453.060; -603.891
720.404;  -75.956; -136.060; -249.892
720.668; -116.255; -475.060; -411.892
720.933;    1.145;  146.940;  137.108
721.197; -221.955; -667.059; -600.893
721.461; -300.055; -851.059; -826.893
721.725;  -21.855;  -21.059; -250.894
721.990;  -87.854; -284.059; -204.894
722.254;  -67.354;  -26.059; -108.894
722.518; -141.054; -286.058; -442.895
722.782; -207.854; -743.058; -594.895
723.046;  166.646;  614.942;  570.105
723.310;   70.646;  374.942;  210.104
723.574; -199.653; -654.058; -614.896
723.838; -191.153; -576.057; -642.897
724.102; -106.353; -226.057; -239.897
724.366; -291.053;-1032.057; -978.897
724.630; -238.153; -749.057; -571.898
724.894; -209.452; -722.057; -514.898
725.158;  -49.752;   38.944; -295.898
725.422; -134.352; -394.056; -327.899
725.685; -141.252; -441.056; -349.899
725.949; -225.452; -566.056; -519.900
726.213; -259.951; -732.056; -811.900
726.477; -318.951;-1020.055; -933.900
726.740;  -78.551; -274.055; -104.901
727.004; -183.751; -384.055; -510.901
727.268; -198.851; -442.055; -400.901
727.531; -288.550; -961.055; -775.902
727.795; -215.750; -713.054; -673.902
728.059; -182.050; -552.054; -557.903
728.322; -233.450; -841.054; -669.903
728.586; -198.750; -692.054; -701.903
728.849; -229.849; -695.053; -756.904
729.112; -246.249; -812.053; -912.904
729.376; -248.649; -959.053; -905.904
729.639; -164.549; -536.053; -536.905
729.903; -258.049; -733.053; -699.905
730.166; -107.349; -437.052; -399.906
730.429;  -92.048; -317.052; -468.906
730.693; -188.248; -355.052; -894.906
730.956;  204.652;  810.948;  651.093
731.219; -102.348; -310.052; -103.907
731.482; -285.448;-1003.051; -894.907
731.745; -292.647; -794.051; -935.908
732.009;  -41.847;  -30.051;   50.092
732.272; -236.047; -904.051; -771.909
732.535;  -95.747; -300.051; -310.909
732.798; -369.147;-1083.050;-1166.909
733.061; -161.546; -430.050; -456.910
733.324;  -30.346;   31.950; -180.910
733.587;  116.354;  290.950;  365.090
733.850; -232.546; -973.049;-1050.911
734.113;   19.054;   33.951;   32.089
734.376; -140.945; -328.049; -447.912
734.639;  267.155; 1188.951; 1011.088
734.901;  -98.945; -180.049; -402.912
735.164; -276.545; -883.048; -837.913
735.427;  -74.445; -166.048; -355.913
735.690;  -78.844; -205.048; -234.913
735.952; -319.044; -923.048; -925.914
736.215; -340.344;-1113.048;-1009.914
736.478; -261.544; -771.047; -774.915
736.740;  -30.644;   33.953;  129.085
737.003; -253.444; -658.047; -672.915
737.266;  213.357;  -94.047;   46.084
737.528; -212.843; -682.047; -660.916
737.791; -153.743; -316.046; -327.916
738.053;   70.857;  465.954;  649.083
738.316;  -91.343; -162.046; -136.917
738.578; -261.042; -770.046; -736.918
738.841; -130.942; -382.046; -446.918
739.103; -254.342; -875.045; -777.918
739.365;  -20.142;   79.955;  -69.919
739.628; -271.942; -884.045; -805.919
739.890; -225.441; -758.045; -710.919
740.152; -243.441; -692.044; -754.920
740.414; -140.941; -408.044; -359.920
740.677; -216.541; -785.044; -634.921
740.939; -222.241; -587.044; -487.921
741.201; -196.940; -432.044; -572.921
741.463; -186.740; -689.043; -745.922
741.725;  -58.040;  -21.043; -199.922
741.987;   25.660;  220.957;  116.078
742.249; -259.040; -751.043; -859.923
742.511; -232.239; -703.043; -794.923
742.773; -188.639; -546.042; -546.924
743.035;  125.461;  796.958;  533.076
743.297; -318.339; -963.042;-1013.924
743.559;  -70.139; -278.042; -262.925
743.821; -262.839; -735.042; -744.925
744.083; -126.338;  -44.041; -149.925
744.345; -300.638; -869.041; -892.926
744.607;    5.562;   75.959;  122.074
744.868; -178.738; -490.041; -554.927
745.130; -319.738; -994.041;-1008.927
745.392;  -16.937;   -1.040;  -44.927
745.653; -134.537; -411.040; -378.928
745.915;  162.563;  896.960;  631.072
746.177;  -49.837;   35.960;  -43.928
746.438; -199.837; -428.040; -543.929
746.700; -309.436; -947.039; -988.929
746.961; -246.136; -659.039; -740.930
747.223;  -72.636; -190.039;  -74.930
747.484; -160.736; -391.039; -471.930
747.746;  -53.036;  -23.038; -106.931
748.007; -215.035; -647.038; -689.931
748.269; -126.435; -468.038; -440.931
748.530; -208.635; -852.038; -638.932
748.791; -167.535; -354.038; -420.932
749.053;   29.365;  286.963;  163.067
749.314; -113.934; -236.037; -169.933
749.575; -280.634; -945.037; -905.933
749.836;  -64.634; -217.037;   86.066
750.098;  -62.234;  -60.037;  -21.934
750.359;   81.166;  414.964;  555.066
750.620;  -67.534; -121.036; -220.935
750.881; -193.333; -585.036; -513.935
751.142; -308.233; -950.036; -938.936
751.403; -223.633; -789.036; -705.936
751.664; -304.033;-1034.035; -999.936
751.925;  -76.333; -175.035; -262.937
752.186; -101.432; -298.035; -278.937
752.447; -160.032; -590.035; -445.937
752.708; -209.632; -532.035; -648.938
752.969; -207.632; -566.034; -576.938
753.230; -229.232; -777.034; -672.939
753.491; -212.331; -650.034; -631.939
753.751;  -25.731;  109.966;   19.061
754.012;   55.069;  258.967;  181.060
754.273;  -96.331; -174.033;  -71.940
754.534; -177.331; -487.033; -580.940
754.794; -285.530; -926.033; -911.941
755.055;  230.070; 1051.967;  881.059
755.316; -203.230; -700.032; -566.942
755.576; -188.830; -606.032; -576.942
755.837; -207.430; -527.032; -695.942
756.097; -181.629; -530.032; -564.943
756.358; -266.629; -725.032; -770.943
756.618; -207.329; -705.031; -641.943
756.879; -108.729; -254.031; -349.944
757.139; -368.529;-1098.031;-1116.944
757.400; -195.028; -538.031; -553.945
757.660; -126.128; -365.031; -401.945
757.920; -135.328; -266.030; -228.945
758.181; -124.228; -468.030; -351.946
758.441; -255.428; -870.030; -809.946
758.701; -151.428; -308.030; -215.946
758.961;  -95.527; -220.030; -278.947
759.222; -151.327; -574.029; -502.947
759.482; -239.427; -683.029; -723.948
759.742; -263.927; -706.029; -547.948
760.002;  -37.327;  -83.029; -143.948
760.262;  -36.426;   50.972;  182.051
760.522; -193.126; -498.028; -574.949
760.782; -211.226; -738.028; -612.949
761.042; -211.226; -618.028; -573.950
761.302;  -27.726;   55.972;  -18.950
761.562;  -81.625; -164.027; -154.951
761.822; -215.025; -710.027; -551.951
762.082; -371.125;-1104.027;-1093.951
762.342; -131.525; -328.027; -403.952
762.601; -209.025; -567.027; -506.952
762.861; -108.324; -281.026; -207.952
763.121; -157.824; -406.026; -411.953
763.381; -155.624; -499.026; -485.953
763.640;  -71.724; -139.026; -307.954
763.900;  -97.624; -242.026; -203.954
764.160; -151.023; -458.025; -491.954
764.419; -251.123; -726.025; -782.955
764.679; -265.423; -795.025; -726.955
764.939;  -97.323; -124.025; -210.955
765.198; -195.523; -608.025; -563.956
765.458; -250.823; -710.024; -612.956
765.717; -193.722; -454.024; -590.957
765.976; -171.222; -428.024; -411.957
766.236; -209.922; -475.024; -610.957
766.495;   -7.122;  260.977;   73.042
766.755; -328.322;-1090.023; -987.958
767.014; -207.021; -594.023; -665.958
767.273; -145.121; -373.023; -397.959
767.533; -153.221; -228.023; -307.959
767.792;  -84.321; -151.022; -188.960
768.051; -124.121; -228.022; -276.960
768.310; -173.320; -546.022; -650.960
768.569;  -24.420; -161.022;    4.039
768.828; -119.020; -285.022; -363.961
769.088; -329.020;-1050.021; -942.961
769.347; -227.320; -755.021; -599.962
769.606; -270.219; -876.021; -857.962
769.865; -368.119;-1016.021;-1033.963
770.124; -107.819; -411.021; -336.963
770.383; -287.519; -778.020; -910.963
770.641; -188.319; -398.020; -400.964
770.900; -307.318; -953.020; -846.964
771.159; -286.418; -851.020; -951.964
771.418; -282.718; -917.020; -779.965
771.677;  -89.718; -224.019; -293.965
771.936; -264.218; -794.019; -865.966
772.194; -267.418; -465.019; -437.966
772.453; -122.617; -213.019; -391.966
772.712;   90.483;  416.982;  329.033
772.970;  -42.117;   32.982;   63.033
773.229;  -28.517;  -22.018;  102.033
773.488; -247.817; -814.018; -770.968
773.746;   47.984;  296.982;  335.032
774.005;  -23.016;  190.983;  -22.969
774.263;  -13.716;  243.983;  177.031
774.522; -207.616; -422.017; -548.969
774.780; -177.516; -484.017; -417.970
775.039; -195.015; -551.017; -531.970
775.297;  -41.215; -135.016; -351.970
775.555; -218.615; -489.016; -612.971
775.814; -239.115; -618.016; -570.971
776.072; -243.215; -749.016; -740.971
776.330; -208.814; -630.016; -520.972
776.589; -232.414; -703.015; -721.972
776.847; -269.114; -645.015; -624.973
777.105; -354.514;-1016.015;-1032.973
777.363; -147.014; -459.015; -454.973
777.621; -254.113; -660.015; -717.974
777.879;  -32.713;  -42.014;   32.026
778.138; -168.013; -554.014; -717.974
778.396; -215.713; -585.014; -526.975
778.654; -334.213;-1015.014; -970.975
778.912; -128.713; -269.014; -371.976
779.170; -283.012; -880.013; -803.976
779.427; -295.712; -922.013; -897.976
779.685; -324.612; -880.013; -832.977
779.943; -221.712; -654.013; -593.977
780.201; -309.712; -964.012; -883.978
780.459; -214.511; -651.012; -610.978
780.717; -144.411; -440.012; -390.978
780.974; -159.411; -449.012; -490.979
781.232; -146.611; -358.012; -338.979
781.490; -185.111; -551.011; -472.979
781.747; -167.710; -555.011; -476.980
782.005;   40.990;  462.989;  254.020
782.263; -343.410; -542.011;-1004.981
782.520; -154.310; -326.011; -501.981
782.778; -313.210;-1013.010;-1051.981
783.035; -319.409; -962.010; -938.982
783.293;  -72.709; -248.010; -206.982
783.550;  -83.409; -134.010; -198.982
783.808; -249.709; -764.010; -776.983
784.065; -299.409; -745.009; -874.983
784.322;  -61.408;   25.991;  -86.984
784.580; -248.508; -915.009; -771.984
784.837; -151.408; -392.009; -466.984
785.094; -287.308; -783.009; -762.985
785.352; -165.008; -304.008; -404.985
785.609; -312.308; -934.008; -839.985
785.866; -147.707; -345.008; -401.986
786.123; -227.307; -639.008; -583.986
786.380; -223.607; -665.008; -604.987
786.637; -124.907; -225.007; -380.987
786.895; -202.007; -456.007; -543.987
787.152;  -88.106; -135.007; -267.988
787.409; -107.406; -123.007; -225.988
787.666; -166.606; -299.006; -378.988
787.923; -209.206; -616.006; -695.989
788.179; -194.006; -551.006; -584.989
788.436; -200.505; -585.006; -585.990
788.693;  -78.805;  -92.006;  -87.990
788.950;  -80.905; -125.005; -112.990
789.207; -158.205; -381.005; -372.991
789.464;  -71.805; -161.005; -301.991
789.720;    0.096;  150.995;  110.009
789.977; -349.504;-1003.005; -671.992
790.234;  -33.204;   44.996;  -66.992
790.490; -300.704; -884.004;-1031.993
790.747;  -29.304;  -85.004;   22.007
791.004; -156.803; -426.004; -348.993
791.260; -155.703; -430.004; -560.994
791.517; -247.703; -843.003; -788.994
791.773; -129.103; -379.003; -342.994
792.030; -228.803; -596.003; -660.995
792.286; -223.603; -686.003; -636.995
792.543;  -70.202;  -74.002; -159.995
792.799; -154.702; -584.002; -382.996
793.055; -392.602;-1179.002;-1210.996
793.312; -305.202; -827.002; -816.997
793.568; -228.402; -746.002; -599.997
793.824;  -99.201; -226.001; -284.997
794.081; -171.001; -447.001; -508.998
794.337; -197.601; -664.001; -561.998
794.593; -121.001; -319.001; -271.999
794.849; -247.701; -746.001; -772.999
795.105; -124.900; -270.000; -261.999
795.361; -185.800; -490.000; -457.000
795.617; -301.000; -875.000; -945.000
795.873; -150.000; -360.000; -407.000
796.129; -138.700; -368.000; -306.000
796.385;  -83.000; -124.000; -156.000
796.641;   89.700;  412.000;  550.000
796.897; -223.000; -666.000; -635.000
797.153;  108.100;  453.000;  357.000
797.409; -289.500; -785.000; -868.000
797.665; -242.600; -625.000; -732.000
797.921; -261.300; -775.000; -762.000
798.176; -252.600; -744.000; -747.000
798.432; -253.900; -824.000; -596.000
798.688; -334.100;-1174.000;-1078.000
798.943;  -27.800; -165.000; -147.000
799.199; -354.000;-1005.000; -959.000
799.455;  118.800;  369.000;  316.000
799.710; -261.300; -813.000; -380.000
799.966;  -82.400; -162.000; -160.000
800.221; -204.500; -638.000; -721.000
800.477; -267.100; -743.000; -710.000
800.732; -279.800; -773.000; -800.000
800.988;   42.000;  205.000;  -19.000
801.243; -129.000; -454.000; -344.000
801.498; -243.900; -814.000; -739.000
801.754;  -97.200; -289.000; -163.000
802.009; -116.200; -257.000; -335.000
802.264; -352.000; -967.000;-1033.000
802.520;  -49.700;  222.000;   -3.000
802.775; -183.800; -524.000; -359.000
803.030;   42.600;  395.000;  356.000
803.285; -299.100; -840.000; -903.000
803.540; -220.400; -686.000; -699.000
803.795; -200.200; -648.000; -583.000
804.051; -120.700; -279.000; -346.000
804.306;   -3.300;  168.000;  128.000
804.561;   44.600;  451.000;  362.000
804.816;  196.000;  714.000;  861.000
805.071; -105.300; -185.000; -280.000
805.325; -152.600; -257.000; -427.000
805.580; -265.200; -841.000; -877.000
805.835;  -91.400; -204.000; -297.000
806.090; -213.600; -760.000; -676.000
806.345; -164.500; -344.000; -264.000
806.600; -215.900; -549.000; -632.000
806.854; -195.200; -408.000; -538.000
807.109; -158.500; -493.000; -577.000
807.364; -109.300; -407.000; -328.000
807.618; -172.200; -415.000; -381.000
807.873; -254.600; -470.000; -494.000
808.128;  -76.500; -257.000; -518.000
808.382; -124.500; -224.000; -332.000
808.637; -168.400; -440.000; -511.000
808.891;  -72.100; -257.000; -180.000
809.146; -310.200; -902.000; -794.000
809.400; -315.100; -848.000; -923.000
809.654; -226.600; -779.000; -551.000
809.909; -287.200; -841.000; -927.000
810.163; -210.800; -813.000; -651.000
810.418; -336.000; -940.000; -861.000
810.672; -249.800; -685.000; -690.000
810.926; -332.700; -993.000; -973.000
811.180; -153.000; -439.000; -372.000
811.434;   -9.600;  240.000;  135.000
811.689; -128.600; -231.000; -365.000
811.943; -300.800; -936.000; -953.000
812.197; -245.500; -893.000; -671.000
812.451; -204.100; -379.000; -514.000
812.705; -300.200; -809.000; -619.000
812.959; -220.100; -263.000; -388.000
813.213; -116.600; -283.000; -209.000
813.467;   73.600;  470.000;  253.000
813.721; -247.600; -764.000; -792.000
813.975; -301.400; -826.000; -877.000
814.229;   30.600;  430.000;  353.000
814.482; -197.900; -517.000; -566.000
814.736; -277.100; -766.000; -744.000
814.990; -284.600; -779.000; -872.000
815.244; -104.500; -228.000; -285.000
815.497; -243.900; -636.000; -601.000
815.751;  -60.900; -141.000;   82.000
816.005; -183.500; -470.000; -586.000
816.258; -136.400; -510.000; -363.000
816.512; -244.200; -693.000; -610.000
816.766;  -13.000;  121.000;  157.000
817.019;    8.900;  148.000;  149.000
817.273; -295.900;-1000.000; -802.000
817.526;  -97.500; -206.000; -173.000
817.779; -316.100;-1049.000; -960.000
818.033; -256.200; -693.000; -807.000
818.286; -275.000; -725.000; -792.000
818.540; -151.700; -403.000; -403.000
818.793; -143.300; -402.000; -489.000
819.046; -219.900; -582.000; -520.000
819.299;  -62.500; -157.000; -166.000
819.553; -267.100; -552.000; -592.000
819.806; -314.600;-1016.000; -838.000
820.059; -114.800; -334.000; -354.000
820.312;   11.900;  152.000;  185.000
820.565;  -14.500;  110.000;  -27.000
820.818;  -95.000;  -59.000; -173.000
821.071; -312.500;-1041.000; -957.000
821.324; -220.300; -536.000; -540.000
821.577; -193.700; -457.000; -483.000
821.830; -119.100; -270.000; -172.000
822.083; -237.000; -733.000; -288.000
822.336;  -83.900; -261.000; -167.000
822.589; -261.600; -805.000; -688.000
822.842; -295.900; -875.000; -770.000
823.094; -388.400;-1076.000;-1114.000
823.347; -280.000; -925.000; -729.000
823.600;   21.600;  402.000;  187.000
823.853; -112.700; -311.000; -267.000
824.105; -183.100; -331.000; -575.000
824.358; -271.700; -617.000; -716.000
824.611;   20.200;  234.000;   40.000
824.863; -202.600; -612.000; -591.000
825.116;  -40.100;  -33.000;   27.000
825.368; -182.300; -366.000; -372.000
825.621; -127.800; -186.000; -240.000
825.873; -251.000; -704.000; -737.000
826.126; -235.400; -669.000; -641.000
826.378; -186.800; -389.000; -505.000
826.630; -286.100; -890.000; -898.000
826.883; -234.200; -754.000; -693.000
827.135; -152.000; -279.000; -270.000
827.387; -295.000; -893.000; -839.000
827.639;  -69.400;  -86.000;   32.000
827.892; -252.200; -742.000; -582.000
828.144; -295.400; -848.000; -804.000
828.396;  -74.100;  104.000;  -80.000
828.648; -164.600; -440.000; -333.000
828.900; -268.200; -702.000; -795.000
829.152; -239.000; -684.000; -683.000
829.404;  -84.100; -215.000; -267.000
829.656;   28.800;  321.000;  214.000
829.908;   -5.500;  393.000;  229.000
830.160; -322.600;-1064.000;-1047.000
830.412; -188.300; -481.000; -430.000
830.664; -248.900; -557.000; -665.000
830.916; -123.500; -268.000; -206.000
831.167; -351.700;-1073.000; -951.000
831.419; -181.500; -623.000; -566.000
831.671; -269.800; -764.000; -809.000
831.923; -133.400; -311.000; -447.000
832.174; -130.800; -273.000; -331.000
832.426; -196.000; -493.000; -582.000
832.678; -357.500;-1043.000;-1091.000
832.929; -337.100; -947.000; -935.000
833.181; -217.100; -575.000; -677.000
833.432;  -82.800;  -59.000; -186.000
833.684;  -23.100;  112.000;  -27.000
833.935; -210.100; -610.000; -566.000
834.187; -235.500; -829.000; -823.000
834.438;  -74.000;  -58.000;  -25.000
834.689;  -77.200; -255.000; -123.000
834.941;  -76.300; -343.000; -244.000
835.192; -222.300; -590.000; -533.000
835.443; -194.500; -419.000; -506.000
835.695;  -49.200;  138.000;  -16.000
835.946; -169.500; -608.000; -378.000
836.197; -257.100; -599.000; -622.000
836.448; -169.900; -528.000; -395.000
836.699; -129.900; -253.000; -341.000
836.950;   -5.600;   72.000;    7.000
837.201; -366.400;-1003.000; -987.000
837.452; -147.300; -356.000; -170.000
837.703; -288.200; -791.000; -737.000
837.954; -133.000; -205.000; -365.000
838.205; -328.800;-1029.000;-1008.000
838.456; -102.700; -196.000; -282.000
838.707; -153.200; -423.000; -519.000
838.958; -214.900; -634.000; -647.000
839.209;   12.700;   18.000;   40.000
839.460; -143.600; -439.000; -201.000
839.710; -136.600; -135.000; -297.000
839.961;  132.900;  730.000;  612.000
840.212; -180.200; -382.000; -497.000
840.462; -151.600; -328.000; -277.000
840.713; -228.000; -571.000; -536.000
840.964;  -75.100;  -62.000; -143.000
841.214; -184.800; -384.000; -624.000
841.465;  -84.200; -214.000; -141.000
841.715; -148.500; -417.000; -380.000
841.966; -258.900; -746.000; -685.000
842.216; -174.500; -330.000; -431.000
842.466; -137.700; -169.000; -313.000
842.717; -361.400; -964.000; -952.000
842.967; -224.400; -635.000; -641.000
843.217;  -72.100;   20.000;   28.000
843.468;  -51.200; -104.000; -132.000
843.718; -214.200; -718.000; -726.000
843.968; -286.700; -837.000; -765.000
844.218; -127.300; -315.000; -262.000
844.469; -175.700; -577.000; -561.000
844.719; -238.500; -537.000; -682.000
844.969; -184.200; -550.000; -580.000
845.219; -294.800; -814.000; -862.000
845.469; -159.200; -392.000; -342.000
845.719; -265.500; -792.000; -884.000
845.969;  -15.400;  119.000;  174.000
846.219; -249.800; -738.000; -720.000
846.469;   69.700;  464.000;  432.000
846.718; -107.900; -115.000;   31.000
846.968; -256.200; -827.000; -827.000
847.218;  -72.700; -224.000; -371.000
847.468; -220.100; -586.000; -555.000
847.718; -311.800; -827.000; -798.000
847.967; -277.800; -826.000; -915.000
848.217; -195.400; -449.000; -569.000
848.467; -123.500; -405.000; -376.000
848.716; -249.900; -708.000; -725.000
848.966; -176.800; -372.000; -358.000
849.215; -181.500; -428.000; -419.000
849.465; -256.800; -785.000; -615.000
849.714; -396.800;-1132.000;-1150.000
849.964; -197.700; -551.000; -613.000
850.213; -162.100; -393.000; -355.000
850.463;   19.300;  137.000;  340.000
850.712; -178.000; -542.000; -567.000
850.961; -246.100; -739.000; -678.000
851.211; -183.400; -513.000; -504.000
851.460; -227.400; -635.000; -650.000
851.709;  -17.300;  -25.000;   18.000
851.958; -265.000; -912.000; -750.000
852.208; -295.200; -859.000; -879.000
852.457;  -86.000; -181.000;  -13.000
852.706; -305.300; -791.000; -823.000
852.955; -172.400; -507.000; -528.000
853.204; -174.300; -521.000; -461.000
853.453; -190.700; -418.000; -458.000
853.702; -266.600; -660.000; -750.000
853.951; -187.500; -532.000; -520.000
854.200; -216.800; -613.000; -562.000
854.449; -250.600; -695.000; -661.000
854.698; -147.700; -340.000; -279.000
854.946;  -96.500; -181.000; -284.000
855.195; -270.700; -843.000; -868.000
855.444; -141.000; -395.000; -420.000
855.693; -180.800; -345.000; -432.000
855.941; -200.300; -387.000; -516.000
856.190; -117.400; -256.000; -382.000
856.439; -233.600; -652.000; -703.000
856.687;  -88.000;  -99.000;  -72.000
856.936; -229.000; -621.000; -323.000
857.184; -354.500;-1067.000;-1020.000
857.433; -152.600; -423.000; -512.000
857.681; -305.900; -989.000; -953.000
857.930; -137.500; -282.000; -433.000
858.178; -313.200; -856.000; -929.000
858.427; -265.200; -802.000; -781.000
858.675; -191.000; -377.000; -544.000
858.923; -193.400; -527.000; -819.000
859.172; -341.900;-1094.000;-1070.000
859.420; -153.000; -339.000; -239.000
859.668; -256.400; -624.000; -628.000
859.916;   -2.000;  109.000;  115.000
860.164; -253.900; -699.000; -603.000
860.413; -284.100; -878.000; -696.000
860.661; -270.400; -709.000; -577.000
860.909; -144.100; -339.000; -325.000
861.157; -155.800; -277.000; -444.000
861.405; -226.800; -534.000; -670.000
861.653;   30.900;  310.000;  310.000
861.901; -212.400; -543.000; -613.000
862.149; -318.800; -801.000; -824.000
862.396; -111.800; -297.000; -187.000
862.644; -149.400; -368.000; -347.000
862.892;  -10.400;   98.000;  138.000
863.140; -210.200; -549.000; -530.000
863.388; -274.800; -815.000; -759.000
863.635; -238.700; -642.000; -601.000
863.883;   37.700;  231.000;  190.000
864.131; -154.000; -288.000; -357.000
864.378; -253.200; -675.000; -540.000
864.626; -146.400; -347.000; -415.000
864.873; -203.200; -556.000; -505.000
865.121; -271.900; -714.000; -799.000
865.368;  -67.100; -173.000;   75.000
865.616;  -62.600;  -33.000;  -40.000
865.863; -204.500; -462.000; -506.000
866.111; -327.100; -795.000; -824.000
866.358; -161.400; -426.000; -420.000
866.605;  -62.200;  -64.000; -804.000
866.853; -213.400; -621.000; -537.000
867.100; -268.900; -728.000; -775.000
867.347; -230.200; -672.000; -611.000
867.594; -282.100; -740.000; -714.000
867.841;  -20.300;   97.000;   17.000
868.089; -289.900; -746.000; -698.000
868.336; -162.800; -477.000; -420.000
868.583; -256.700; -637.000; -741.000
868.830;  -42.000; -131.000; -170.000
869.077; -331.000; -859.000; -787.000
869.324; -200.500; -502.000; -458.000
869.571; -224.500; -398.000; -430.000
869.818; -196.700; -485.000; -439.000
870.065; -172.000; -439.000; -513.000
870.311; -162.200; -456.000; -542.000
870.558; -138.800; -332.000; -311.000
870.805; -133.700; -320.000; -384.000
871.052; -178.300; -494.000; -369.000
871.298;  -91.800; -204.000; -131.000
871.545; -111.300; -151.000; -185.000
871.792; -137.200; -173.000; -222.000
872.038;  -87.800;   43.000; -126.000
872.285; -189.500; -496.000; -387.000
872.532; -121.600; -357.000; -387.000
872.778;   74.000;  556.000;  403.000
873.025; -140.200; -384.000; -359.000
873.271;   68.800;  501.000;  578.000
873.517;  -93.400; -133.000; -209.000
873.764;  -88.300; -193.000;  -80.000
874.010; -121.900; -143.000; -230.000
874.257;  -14.300;  123.000;   90.000
874.503; -240.300; -579.000; -479.000
874.749;  -82.800;   31.000;  275.000
874.995;  -79.800;  -80.000;  -20.000
875.242; -200.900; -540.000; -478.000
875.488; -183.400; -414.000; -439.000
875.734;  -82.500; -106.000; -234.000
875.980; -330.200; -872.000;-1032.000
876.226; -106.700; -157.000; -255.000
876.472;    2.200;  343.000;  237.000
876.718;   -6.000;  184.000;  158.000
876.964;  -59.900;   56.000;   55.000
877.210; -264.900; -547.000; -677.000
877.456; -213.300; -630.000; -557.000
877.702; -289.800; -821.000; -832.000
877.948; -170.300; -377.000; -497.000
878.193;   48.200;  361.000;  255.000
878.439; -186.600; -487.000; -472.000
878.685; -148.200; -272.000; -343.000
878.931; -228.100; -618.000; -676.000
879.176; -129.300; -201.000; -201.000
879.422; -334.200; -933.000; -820.000
879.668;   -2.300;   10.000;   79.000
879.913;  -46.700;   53.000;  137.000
880.159;  -86.700; -112.000;  -17.000
880.404;  -81.600; -152.000; -162.000
880.650;   -4.400;   91.000;  141.000
880.895; -288.100; -670.000; -710.000
881.141; -182.300; -454.000; -428.000
881.386; -251.800; -503.000; -658.000
881.631; -141.300; -311.000; -166.000
881.877;  -14.800;  112.000;  -13.000
882.122; -192.800; -684.000; -600.000
882.367; -124.100; -136.000; -186.000
882.612;  -67.700;  -80.000; -176.000
882.858; -292.800; -877.000; -823.000
883.103; -138.100; -297.000; -267.000
883.348; -271.300; -759.000; -852.000
883.593; -226.300; -677.000; -602.000
883.838; -104.300; -311.000;  -24.000
884.083;   19.300;  353.000;  288.000
884.328; -147.200; -564.000; -545.000
884.573; -111.100; -196.000; -143.000
884.818; -249.700; -694.000; -531.000
885.063; -163.000; -348.000; -315.000
885.308; -180.900; -475.000; -398.000
885.553;   38.100;  245.000;  325.000
885.797; -226.200; -545.000; -615.000
886.042;  -35.300;    8.000;   58.000
886.287; -129.500; -253.000; -211.000
886.532;  -32.700;   26.000;  204.000
886.776; -131.700; -407.000; -525.000
887.021; -237.000; -621.000; -574.000
887.265; -246.000; -685.000; -689.000
887.510; -214.400; -557.000; -496.000
887.755; -122.900; -194.000; -164.000
887.999; -243.500; -552.000; -575.000
888.244;  -66.500;  -58.000;  161.000
888.488;   74.200;  371.000;  393.000
888.732; -183.100; -368.000; -520.000
888.977; -211.500; -622.000; -567.000
889.221; -281.900; -683.000; -659.000
889.465; -243.000; -422.000; -566.000
889.710; -107.200;  -56.000; -299.000
889.954;   64.800;  579.000;  467.000
890.198; -246.900; -584.000; -707.000
890.442; -259.800; -716.000; -712.000
890.687; -279.700; -800.000; -753.000
890.931; -114.600; -273.000; -210.000
891.175; -253.300; -502.000; -500.000
891.419;  -89.800; -105.000; -110.000
891.663; -107.100; -239.000; -112.000
891.907; -274.300; -801.000; -545.000
892.151; -286.900; -920.000; -815.000
892.395; -145.900; -274.000; -387.000
892.638;   64.200;  408.000;  291.000
892.882; -303.300; -780.000; -867.000
893.126;  119.800;  758.000;  558.000
893.370; -106.300; -167.000; -168.000
893.614; -223.000; -714.000; -715.000
893.857; -139.700; -183.000; -197.000
894.101; -229.900; -527.000; -631.000
894.345;  -20.600;  300.000;  150.000
894.588;   90.200;  569.000;  380.000
894.832;  -86.700; -178.000;  -84.000
895.075;  -87.600;   15.000;  -92.000
895.319; -201.300; -552.000; -420.000
895.563; -171.000; -413.000; -353.000
895.806; -244.800; -628.000; -741.000
896.049; -201.400; -576.000; -368.000
896.293;   68.500;  527.000;  405.000
896.536; -213.400; -465.000; -468.000
896.779; -104.500; -149.000;   -1.000
897.023; -247.000; -751.000; -714.000
897.266;   -3.400;  325.000;  269.000
897.509; -330.000; -900.000; -901.000
897.752;  -38.200;  149.000;  171.000
897.996; -346.400; -972.000; -864.000
898.239;  -21.800;  168.000;  102.000
898.482; -208.800; -431.000; -453.000
898.725;  -98.300;  101.000;   53.000
898.968; -280.000; -609.000; -744.000
899.211; -201.900; -513.000; -361.000
899.454; -252.500; -633.000; -539.000
899.697;  -77.800;   90.000;  -43.000
899.940; -246.000; -761.000; -757.000
900.182; -161.000; -335.000; -405.000
900.425; -109.900; -150.000; -298.000
900.668;   50.700;  491.000;  350.000
900.911; -149.600; -292.000; -345.000
901.154;  -30.200;  141.000;   -3.000
901.396; -193.800; -407.000; -412.000
901.639; -224.900; -430.000; -496.000
901.882; -303.300; -790.000; -809.000
902.124; -115.900;  -29.000; -143.000
902.367; -199.000; -315.000; -361.000
902.609; -229.200; -476.000; -453.000
902.852; -142.600; -108.000; -260.000
903.094; -166.400; -458.000; -337.000
903.337;  -67.900;  -26.000;   53.000
903.579; -153.800; -228.000; -441.000
903.821; -257.100; -597.000; -744.000
904.064;  -73.500;   85.000;  127.000
904.306; -124.700; -126.000; -166.000
904.548; -155.100; -152.000; -366.000
904.790; -157.500; -195.000; -340.000
905.033; -221.800; -625.000; -577.000
905.275; -219.000; -513.000; -524.000
905.517;   13.100;  468.000;  256.000
905.759; -269.000; -667.000; -761.000
906.001; -212.500; -322.000; -369.000
906.243; -153.700; -162.000; -224.000
906.485; -125.500; -265.000; -207.000
906.727; -227.200; -499.000; -542.000
906.969;  -98.100;  -30.000; -135.000
907.211; -194.200; -316.000; -382.000
907.453;  -91.500; -188.000; -237.000
907.695; -163.200; -158.000; -385.000
907.936;  166.300;  818.000;  706.000
908.178;  -88.400;   92.000; -135.000
908.420; -129.800; -111.000; -162.000
908.662; -251.200; -633.000; -682.000
908.903; -163.200; -208.000; -123.000
909.145;  -97.800; -240.000; -305.000
909.386;  -16.800;  315.000;  280.000
909.628;   37.600;  363.000;  397.000
909.870;  -66.600;   29.000;  264.000
910.111; -331.700; -809.000; -949.000
910.353; -138.100; -123.000; -161.000
910.594; -256.400; -574.000; -606.000
910.835; -176.400; -265.000; -326.000
911.077; -247.100; -503.000; -604.000
911.318; -212.500; -505.000; -471.000
911.559; -316.100; -577.000; -880.000
911.801; -182.500; -284.000; -280.000
912.042; -106.800;  -50.000; -159.000
912.283;   54.200;  404.000;  371.000
912.524; -191.600; -396.000; -457.000
912.765; -111.900; -193.000;   79.000
913.006; -189.000; -307.000; -338.000
913.247; -189.100; -270.000; -290.000
913.488; -113.600;  -43.000;   30.000
913.729; -212.400; -373.000; -373.000
913.970; -157.200;  -96.000; -292.000
914.211; -136.200; -160.000; -198.000
914.452;  -91.300; -118.000;  -11.000
914.693;   45.000;  510.000;  592.000
914.934;   57.900;  510.000;  440.000
915.175;  -95.000;   53.000;  -95.000
915.415; -109.800; -137.000;   27.000
915.656;  -58.900;  -28.000;  192.000
915.897; -161.100; -252.000;  -82.000
916.137; -104.900;   74.000;   -9.000
916.378; -239.500; -573.000; -517.000
916.619; -113.500; -159.000;  -63.000
916.859;  -18.200;  303.000;  330.000
917.100;  340.800; 1655.000; 1070.000
917.340;  145.400;  930.000;  728.000
917.581;  125.700;  965.000;  789.000
917.821; -150.000; -171.000;  143.000
918.061; -157.900; -199.000;  -72.000
918.302; -139.100; -152.000; -211.000
918.542;  -84.500;  -22.000;    3.000
918.782;    7.200;  369.000;  377.000
919.023;   27.000;  360.000;  427.000
919.263; 2100.200; 8131.000;  202.000
919.503; -155.400; -137.000;  -54.000
919.743;    2.800;  390.000;  266.000
919.983;  -91.800; -134.000;  -26.000
920.223; -109.400;  135.000;   14.000
920.463;   50.700;  631.000;  554.000
920.703;  -42.500;   84.000;   39.000
920.943; -126.200; -110.000;   90.000
921.183; -243.800; -414.000; -405.000
921.423;   32.100;  307.000;  546.000
921.663; -183.500; -174.000; -257.000
921.903;  -45.400;  237.000;  173.000
922.143;  -17.200;  372.000;  389.000
922.383;  -71.500;  158.000;  115.000
922.622; -140.400; -120.000;  -15.000
922.862;  109.500;  796.000;  785.000
923.102; -124.700;  -51.000;   33.000
923.341; -108.900;   59.000;   74.000
923.581;   25.500;  450.000;  360.000
923.821;  -31.900;  301.000;  398.000
924.060;  -53.200;  351.000;  193.000
924.300; -122.700;  -16.000; -128.000
924.539;   -3.000;  584.000;  473.000
924.779;   82.200;  812.000;  597.000
925.018;  -58.700;  247.000;  353.000
925.257;   79.200;  595.000;  666.000
925.497;    1.300;  447.000;  412.000
925.736; -101.700;  -35.000;  102.000
925.975;   55.000;  687.000;  669.000
926.214;  104.800;  907.000;  850.000
926.454;  141.000;  706.000;  757.000
926.693;   29.800;  419.000;  543.000
926.932;  150.800; 1021.000;  825.000
927.171;  234.000; 1107.000; 1044.000
927.410;  200.800; 1144.000;  967.000
927.649;   84.600;  924.000;  742.000
927.888;   46.900;  590.000;  564.000
928.127;   25.900;  680.000;  678.000
928.366;   79.900;  842.000;  826.000
928.605;   64.500;  831.000;  737.000
928.844;  250.100; 1451.000; 1393.000
929.083;   49.400;  770.000;  613.000
929.321;  236.000; 1335.000; 1359.000
929.560;  231.400; 1158.000; 1122.000
929.799;  -23.000;  574.000;  475.000
930.038;  220.200; 1025.000; 1394.000
930.276;  -15.700;  334.000;  397.000
930.515;   63.600;  827.000;  681.000
930.753;   29.400;  614.000;  589.000
930.992;   29.200;  664.000;  717.000
931.230;   72.300;  847.000;  847.000
931.469;  431.700; 2162.000;  892.000
931.707;  232.000;  840.000;  751.000
931.946;  198.800; 1278.000; 1344.000
932.184;  182.100; 1437.000; 1175.000
932.423;  145.600; 1265.000;  963.000
932.661;  209.900; 1296.000; 1428.000
932.899;   50.600;  987.000;  821.000
933.137;   20.800;  754.000;  564.000
933.376;  234.500; 1664.000; 1335.000
933.614;  348.800; 1759.000; 1196.000
933.852;  105.800; 1357.000; 1171.000
934.090;  281.500; 1722.000; 1747.000
934.328;  203.900; 1252.000; 1457.000
934.566;  145.000; 1431.000; 1110.000
934.804;  173.100; 1263.000; 1309.000
935.042;  258.900; 1861.000; 1850.000
935.280;  354.000; 2088.000; 2063.000
935.518;  385.400; 2113.000; 2007.000
935.756;  375.200; 2481.000; 2316.000
935.994;  231.500; 1808.000; 1751.000
936.231;  612.100; 2890.000; 2950.000
936.469;  412.800; 2367.000; 2378.000
936.707;  416.700; 2220.000; 2167.000
936.945;  522.100; 2825.000; 2882.000
937.182;  448.700; 2679.000; 2741.000
937.420;  691.500; 3602.000; 3031.000
937.657;  699.600; 3365.000; 3478.000
937.895;  622.400; 3331.000; 3488.000
938.133;  667.700; 3540.000; 3528.000
938.370;  736.900; 3896.000; 4191.000
938.607;  876.600; 4488.000; 4205.000
938.845; 1227.700; 5587.000; 5549.000
939.082; 1011.600; 5387.000; 5177.000
939.320; 1186.500; 5799.000; 5728.000
939.557; 1405.700; 6549.000; 6491.000
939.794; 1559.500; 7285.000; 7097.000
940.031; 1782.800; 8421.000; 8368.000
940.269; 2023.500; 9552.000; 9107.000
940.506; 2229.200;10901.000;10507.000

