
Integration time [ms]: 200.000
Averaging Nr. [scans]: 10
Smoothing Nr. [pixels]: 0
Data measured with spectrometer [name]: 2101013U2
Wave   ;Sample   ;Dark     ;Reference
[nm]   ;[counts] ;[counts] ;[counts] 

394.013;   82.722; -450.257; -315.536
394.305;  376.918; -461.258; -419.536
394.596; 1952.064; -676.269; -527.514
394.887; 4741.789; -796.268; -654.518
395.178; 1806.135;  145.736;   11.476
395.470;  154.351; -210.263; -356.526
395.761;  369.311;  305.734;  394.479
396.052;  600.476; -545.284; -306.489
396.343;  527.681; -557.276; -454.503
396.634;  179.834; -200.279; -290.497
396.926;  138.385; -618.268; -565.517
397.217;  165.188;   11.725;  -17.504
397.508;   52.512; -366.273; -154.507
397.799;   38.734; -555.279; -571.497
398.090;  -81.074; -973.280; -902.495
398.381;  191.564;   11.708;  -11.473
398.672;  -57.834; -585.292; -742.473
398.963;   38.543; -348.279; -373.498
399.254;  147.679;   54.709; -209.475
399.545;  -80.094;-1017.266; -883.520
399.836;   85.865; -407.277; -343.501
400.127;   99.328; -205.295; -209.468
400.418;   70.103; -423.274; -392.506
400.709;   79.906; -359.281; -333.493
401.000;   75.885; -268.291; -309.476
401.290;  193.433;  225.698;  115.545
401.581;  107.150; -166.286; -228.485
401.872;   25.687; -542.298; -486.462
402.163;   50.617; -313.296; -252.467
402.454;  184.380; -123.291; -163.475
402.744;  103.204; -844.297; -813.465
403.035;  648.651; -226.293;  -86.471
403.326;  790.670; -366.292; -384.474
403.617;  620.178;  204.701;  165.539
403.907;  409.285; -593.283; -679.490
404.198; 4281.465; -545.307; -599.446
404.489;10737.892; -618.283; -588.491
404.779; 3589.939; -618.302; -660.456
405.070;  423.606;  -67.304; -174.451
405.360;  566.954; -259.293; -238.472
405.651;  667.155;  125.699;   98.542
405.942;  328.843;  209.714;  127.516
406.232;  381.365; -432.285; -413.487
406.523;  761.043;  641.706;  758.530
406.813;  139.947; -579.286; -644.484
407.104;  563.062;  261.708;  144.527
407.394;  230.580; -604.299; -591.462
407.685;  315.964;  336.715;  222.513
407.975;   98.390; -400.283; -382.490
408.265;  216.102; -134.289; -190.478
408.556;   91.076; -472.291; -459.475
408.846;  334.444;  474.706;  429.530
409.137;  191.714;   -1.288; -216.480
409.427;  117.665; -193.285; -271.487
409.717;   23.916; -776.273; -692.508
410.007;  259.055;    4.715; -170.486
410.298;  156.632; -360.295; -342.469
410.588;   98.061; -495.285; -510.486
410.878;   12.731; -792.287; -873.482
411.168;  197.190; -481.298; -478.463
411.459;  201.782; -295.283; -242.489
411.749;  101.774; -609.292; -507.474
412.039;   40.412; -755.289; -386.480
412.329;  381.954;   40.722;  132.501
412.619;  338.747;  -62.286; -148.485
412.909;  667.206;  639.711;  594.521
413.199;  536.026; -130.280; -251.495
413.490;  688.792;  521.710;  352.523
413.780;  224.332;-1013.279; -913.496
414.070;  623.182;  -46.276;  235.497
414.360;  599.748; -729.278; -666.498
414.650;  680.025; -726.288; -688.482
414.940;  855.531; -538.280; -441.496
415.230; 1598.821;   50.712;   74.519
415.520;10945.263;  155.730;   66.486
415.809;40985.406; -305.281; -125.493
416.099;32652.568; -388.277; -229.501
416.389; 9124.900;  435.726;  236.494
416.679; 5432.457;   91.738;   85.473
416.969;  947.338; -527.287; -503.483
417.259; 1041.635;  341.721;  171.503
417.549; 1212.704;  522.718;  318.508
417.838; 2931.388; -205.268; -147.518
418.128; 9526.100;  650.710;  492.522
418.418; 7911.926; -491.272; -579.509
418.708; 5478.900;    9.726;  -48.506
418.997;19983.494; -474.275; -480.505
419.287;21113.610; -733.273; -790.507
419.577;20270.581; -160.283; -123.489
419.866;63189.665; -588.277; -498.501
420.156;64174.557; -242.270;  -55.513
420.446;12419.046; -112.263;  -26.526
420.735; 1393.648; -376.271; -446.512
421.025; 1560.347; 1830.722;  315.502
421.314; 1102.045; -203.271; -226.512
421.604; 2025.877;   89.732;  233.484
421.893; 1163.039; -705.271; -602.511
422.183;  385.446; -487.263; -461.526
422.472;  659.242;  -36.271; -107.511
422.762;  717.015; -416.266; -379.521
423.051;  380.583; -916.276; -916.503
423.341;  472.513; -491.273; -439.507
423.630;  662.524; -121.265;   15.477
423.919;  639.493;   58.725;   49.495
424.209;  622.954;  -31.263;   56.473
424.498;  805.884;   68.732;  161.483
424.787; 1807.994; -535.267; -601.518
425.077; 5640.322;   34.735;   29.478
425.366; 7285.962; -734.262; -744.528
425.655;16765.314;  639.727;  259.493
425.945;37099.356; -313.247; -268.554
426.234;21290.397;  117.741;  300.467
426.523; 8788.404;  -86.259; -350.534
426.812;12067.909;  107.734;  159.480
427.101;17587.772; -127.269; -323.515
427.390;21750.063;  -55.270;  -86.514
427.680; 4517.734; -624.257; -411.538
427.969;  807.650; -330.255; -301.540
428.258;  497.821; -385.257; -477.536
428.547;  913.532;  449.728;  397.490
428.836; 1745.074; -421.253; -398.543
429.125; 2532.907; -199.259;  -72.534
429.414; 1237.608; -330.251; -294.548
429.703; 5479.208; -231.251; -213.548
429.992;15748.413; -938.250; -828.549
430.281;10603.835; -397.264; -331.524
430.570; 1026.994;  -21.252;   32.454
430.859;  938.803;  279.741;  352.466
431.148;  822.150;  636.752;  631.446
431.437;  544.093;  391.748;  367.454
431.725;  250.823; -544.257; -481.536
432.014;  174.285; -845.253; -756.545
432.303;  586.663; -149.239; -105.569
432.592;  955.745; -460.263; -178.525
432.881; 1707.451; -601.248; -437.554
433.169;10582.051; -343.255;  -61.540
433.458;21618.613;  445.765;  540.424
433.747; 9173.571; -397.261; -289.529
434.036; 1416.127; -275.242; -280.564
434.324; 3582.632; -395.249; -379.551
434.613; 6111.417;   40.757;  159.437
434.902; 2038.448;  333.760;  439.433
435.190;  780.861;   75.761;  295.431
435.479;  495.290;  -52.245;   83.441
435.767;  137.202; -411.244; -427.561
436.056;  346.320; -340.242; -294.563
436.345;  603.452; -372.240; -223.568
436.633;  672.925;   60.750;  383.450
436.922;  436.655;  208.760;  414.432
437.210;  789.798; -194.236;    1.426
437.499; 2377.211; -583.235; -432.576
437.787; 2685.798; -339.236;  -10.574
438.075;  789.669;   56.761;  162.430
438.364;  995.673;  -44.238;  250.429
438.652;  606.430; -286.226; -138.592
438.941;  240.976;    3.770;  269.415
439.229;  -25.010; -665.252; -466.545
439.517;   91.323; -160.234;  -85.577
439.806;  -35.647; -501.225; -290.595
440.094;  361.435;  377.766;  650.421
440.382;  201.840; -653.233; -302.580
440.670;  270.310; -361.235; -285.576
440.959;    3.680; -347.223; -170.599
441.247;  105.293; -151.229; -109.587
441.535;  154.021; -266.235;   31.423
441.823;   23.430; -497.234; -305.578
442.111;  324.600;  173.771;  327.412
442.400;  704.889; -628.245; -335.559
442.688; 1831.834; -111.234; -620.579
442.976; 1251.611; -786.213; -450.617
443.264;  159.163; -324.224; -364.597
443.552;  152.532; -258.226;   51.408
443.840;  321.219;  602.765;  876.423
444.128;  234.639;  265.767;  269.420
444.416;   -5.897; -694.228; -312.588
444.704;   29.824; -465.219;  -92.605
444.992;  107.136;   -0.226;  240.407
445.280;   75.177; -517.230;  -94.585
445.568;   21.116; -694.212; -396.618
445.856;  527.900; -174.221;  357.398
446.143;  935.018;  -54.220;   -7.604
446.431;  891.809;  -25.228;  625.411
446.719;  402.253;  489.783;  675.391
447.007;  317.069;  481.769;  705.416
447.295;  321.375;  597.777;  871.402
447.583;  109.190; -464.229;  -34.587
447.870;  200.795; -434.221; -202.601
448.158;  612.475; -104.230;  129.415
448.446;  430.420; -800.219; -338.604
448.733;  294.466;   13.776;  269.403
449.021;  344.216;   60.788;  341.382
449.309;  316.038; -296.210;  208.379
449.596;  364.747;  128.783;   59.392
449.884;  217.086; -571.222; -325.600
450.172;  221.517; -756.227; -406.590
450.459;  763.586;  645.786;  780.387
450.747; 4089.545; -411.218; -147.608
451.034;12749.011;  493.772;  889.411
451.322;10754.390; -413.214; -170.614
451.609;  959.168;  292.777;  508.403
451.897; 1032.132; -550.203; -183.634
452.184; 3054.775; -622.223; -400.598
452.472; 2868.570;   97.792;  269.375
452.759;  641.421;  512.781;  864.395
453.047;  174.912; -407.212; -125.617
453.334;  107.932; -732.219; -216.606
453.621;   92.294; -438.214; -161.615
453.909;  230.820;   13.796;  384.368
454.196;  215.588; -299.199; -123.641
454.483;  358.952;  317.798;  540.364
454.771;  194.175; -215.208;  196.374
455.058;   94.980; -316.207;  102.374
455.345;  204.971;   71.807;  344.347
455.632;  165.784; -128.207;  235.373
455.919;  129.422;  -82.196;  182.354
456.207; -123.205; -774.198; -450.642
456.494;  -35.130; -475.200;  -66.639
456.781;    2.945; -399.202; -198.635
457.068;   89.294; -253.206;  -29.628
457.355;  -23.804; -698.206; -401.629
457.642;    8.504; -552.205; -290.630
457.929;  -41.243; -778.194; -417.651
458.216;   67.812; -575.212; -354.617
458.503;  437.564; -173.193;  -19.652
458.790;  356.071; -864.208; -630.625
459.077;  451.653;  -77.202;  110.364
459.364; 1374.647; -350.195; -210.649
459.651; 2842.991;  -46.206;  220.372
459.938; 1277.057; -864.209; -665.623
460.225;  235.757;  132.799;  276.363
460.512; -117.982; -836.197; -688.645
460.799;  201.443;  -32.218;  320.392
461.086;  100.377; -370.200; -251.640
461.372;   56.495; -509.198; -279.642
461.659;  186.324; -165.196;  108.354
461.946;  105.462; -445.193;  -54.651
462.233;  436.673;  842.800;  888.361
462.519;  535.268; -814.201; -464.639
462.806; 1596.618; -768.197; -497.645
463.093; 1459.893; -445.191;  -66.656
463.380;  -68.845; -920.186; -824.664
463.666;   64.621; -259.197;  -18.646
463.953;  172.839; -406.195; -243.648
464.239;  316.739; -173.195;  -77.648
464.526;  663.555;  413.806;  743.350
464.813;  455.610; -565.190; -304.658
465.099;  571.764;  606.807;  607.348
465.386;  609.570;  903.807;  921.348
465.672;   18.719; -694.197; -522.645
465.959;   29.837; -598.188; -520.662
466.245;   -2.230; -468.193; -359.652
466.532;  162.036; -109.195;   63.352
466.818;  111.654; -357.186; -216.664
467.104;  -18.285; -488.182; -415.672
467.391;  -45.887; -628.189; -459.658
467.677;   89.660; -289.186;    9.335
467.964;   -3.477; -682.189; -471.660
468.250;  105.364; -331.186; -160.665
468.536;  146.115;   90.811;  180.341
468.822;  -53.818; -821.184; -574.668
469.109;  325.135;  351.827;  471.311
469.395;  395.584;  729.808;  787.346
469.681;  338.220;   46.811;  156.341
469.967; 2130.327; -699.188; -382.660
470.254; 4409.738; -494.188; -306.662
470.540; 2968.522; -601.196; -476.646
470.826;  405.531; -488.181; -397.675
471.112;  551.887;  288.816;  113.331
471.398;  151.594; -253.183;  -58.670
471.684;   51.673; -626.177; -447.680
471.970;  -78.163; -918.180; -981.675
472.256;   79.283; -521.192; -441.654
472.542;   10.752; -499.171; -434.691
472.828;  -11.691; -743.182; -607.672
473.114;   54.017; -380.166; -283.700
473.400;   44.698; -504.175; -293.684
473.686;   38.826; -452.166; -400.701
473.972;  108.120; -230.174; -131.687
474.258;  -87.565; -925.173; -843.689
474.544;  381.461; -183.178;   -2.679
474.830;  547.201;  -65.175;   45.316
475.116;  853.913; -123.190; -196.658
475.401; 1042.840; -558.180; -467.676
475.687;  383.939; -725.180; -718.676
475.973;    1.121; -673.181; -770.673
476.259;  471.504;  736.825;  764.315
476.544;  598.185; -539.176; -437.682
476.830; 1391.346; -398.172; -322.690
477.116; 1250.783; -430.177; -336.682
477.401;  306.940;  346.820;  358.324
477.687;  -39.602; -289.175; -405.684
477.973;   85.126;   21.819;   28.326
478.258;  -15.643; -448.163; -348.706
478.544;  106.772;   21.815;   61.334
478.829; -116.440; -818.171; -738.692
479.115;  -97.755; -749.172; -651.690
479.401;  -39.287; -444.174; -449.686
479.686;   48.238; -253.180;  -74.676
479.972;  -54.431; -886.178; -776.680
480.257;   79.219; -258.166;  -65.700
480.542;   -3.934; -614.170; -469.693
480.828;  490.896; 1288.824; 1392.317
481.113;  -57.408; -464.176; -426.683
481.399;   44.392; -236.161; -202.711
481.684; -112.982; -620.166; -462.700
481.969;   88.312; -158.159;  -73.713
482.255;    7.682; -439.169; -285.695
482.540;   22.669; -569.178; -441.680
482.825;   14.747; -395.187; -404.663
483.110;  202.887;  -85.169; -105.696
483.396;  315.445; -840.157; -652.718
483.681;  887.320;  543.826;  730.313
483.966;  266.603; -696.160; -700.712
484.251;    5.719; -404.174; -310.687
484.536;   33.234; -356.165; -378.703
484.822;   35.223; -205.173; -218.687
485.107;  -72.698; -599.152; -502.726
485.392;  317.443;  662.836;  541.296
485.677;  160.601;  354.832;  163.302
485.962;  208.341;  160.843;  270.283
486.247;  194.869;  -14.162;   -8.707
486.532;   79.821; -178.166; -325.701
486.817;  325.384;  381.839;  431.291
487.102;  195.476; -453.154; -514.722
487.387; 1137.447; -637.156; -652.718
487.672; 1987.650; -154.164;  -38.705
487.957; 1270.095; -394.160; -286.711
488.241;  366.927; -290.150; -314.729
488.526; 1239.404; -280.152; -148.726
488.811; 1931.672; -881.177; -818.680
489.096; 1540.180; -666.154; -702.723
489.381;  811.798;    3.847;  162.275
489.666;  621.792; -428.161; -510.710
489.950;  364.585;  558.846;  627.277
490.235;  -61.181; -480.151; -458.728
490.520;  -89.210; -756.161; -723.710
490.804; -158.650; -827.156; -736.719
491.089;   19.050; -469.149; -299.732
491.374;   85.548; -132.164;  -75.704
491.658;  -49.133; -817.147; -717.735
491.943;  229.510; -657.152; -609.727
492.227;  391.270; -178.155;  -38.721
492.512;   92.540; -294.157; -341.717
492.797; -118.359; -713.149; -716.731
493.081;  -72.028; -588.147; -598.735
493.366;  -62.207; -751.161; -635.711
493.650;  396.051;  831.859;  917.254
493.935;   49.366; -648.147; -447.734
494.219;  -71.368; -778.142; -687.743
494.503;  -96.166; -585.150; -487.730
494.788;   87.728;   46.842;   74.285
495.072;  231.829;  184.850;  434.271
495.356;  239.755; -463.148; -343.733
495.641;  647.281; -812.146; -736.736
495.925;  628.058; -976.156; -903.719
496.209;   44.649; -599.149; -451.732
496.494;  -99.867; -763.142; -544.744
496.778;   27.776; -364.154; -360.722
497.062; -116.643; -819.156; -627.719
497.346;  -67.303; -869.160; -640.711
497.631;  302.860;  580.852;  560.266
497.915;  139.497;  -64.145;  175.261
498.199;   80.845; -341.157; -277.718
498.483;   72.401; -562.152; -508.725
498.767;  374.430;  301.850;  300.271
499.051;  325.546; -126.149; -100.732
499.335;   61.643; -693.149; -739.731
499.619;  -63.798; -381.129; -423.767
499.903;   49.068; -272.155;  -65.721
500.187;   51.987; -588.153; -316.724
500.471;  -28.791; -796.152; -595.727
500.755;  219.191;   62.839;  -96.710
501.039;   34.469; -270.155; -357.721
501.323;  177.454;  -21.141;  264.254
501.607;   31.157; -447.163; -503.706
501.891;    2.747; -607.156; -512.718
502.174;  -89.586; -726.144; -585.741
502.458;  155.115;   89.849;  370.273
502.742;   86.789; -180.138; -191.751
503.026;  176.766; -412.147; -254.734
503.310;  288.311; -437.159; -375.713
503.593;  197.068; -464.147; -325.735
503.877;  200.249; -232.133; -156.760
504.161;  302.991;    2.847;  -50.724
504.444;  153.031; -841.158; -710.716
504.728;  757.047; -487.164; -522.704
505.012; 1166.826; -257.150;  -76.729
505.295;  900.692; -417.161; -212.711
505.579;  898.957; -256.156; -496.719
505.862; 1233.992; -555.145; -333.738
506.146; 1185.314; -681.159; -758.714
506.429;  752.715;  568.841;  461.286
506.713;  101.121; -732.151; -667.728
506.996;  571.376;   90.846;  295.278
507.280;  537.740; -633.165; -474.703
507.563;  419.066; -469.155; -261.721
507.847;  146.788; -423.153; -112.724
508.130;  129.794; -665.161; -456.711
508.413;  188.812; -758.167; -577.700
508.697;  459.213; -151.167;   12.300
508.980;  256.390; -422.153; -312.724
509.263;   10.361; -466.155; -450.720
509.547;   85.325; -124.150;   82.271
509.830;  107.297; -172.160;  140.289
510.113;  173.657;  128.844;  298.281
510.396;   37.799; -530.152; -300.725
510.680;  142.594; -818.145; -812.738
510.963;  797.182;  184.846;  180.277
511.246;  598.237; -493.150; -357.730
511.529;  411.001; -482.145;  -83.739
511.812;  587.644; -250.134;   10.241
512.095;  424.117; -740.151; -396.728
512.378;  118.474; -317.147; -245.736
512.661;   46.601; -703.137; -623.753
512.944;   34.335; -750.142; -637.744
513.227;  140.397; -170.137; -171.752
513.510;   40.614; -479.144; -671.741
513.793;   27.160; -485.140; -435.747
514.076;  206.733;  -43.127;  -39.771
514.359;  212.451; -294.149; -135.732
514.642;  133.639; -442.142; -567.744
514.925; 1317.758;  581.860;  561.253
515.208; 1588.939; -498.134; -443.758
515.491; 1101.060; -276.133; -182.761
515.773;  613.819; -410.143; -337.742
516.056; 3591.810;  249.864;  409.246
516.339; 4565.316; -754.136; -652.755
516.622; 2888.333; -518.150; -488.730
516.904; 1749.430;  882.857;  975.257
517.187;  734.295; -730.138; -523.752
517.470;  609.528; -568.143; -510.743
517.752;  677.620; -624.136; -470.756
518.035;  568.376; -708.139; -725.749
518.318;  613.716; -799.136; -744.755
518.600; 3954.765; -300.132; -325.762
518.883; 5490.338;  310.858;   88.256
519.165; 2701.284; -585.138; -426.751
519.448;  610.464;  -61.132;  -19.762
519.730;  292.444; -573.126; -415.773
520.013;  540.254;  588.867;  664.240
520.295; 1139.447;  -94.134;  -15.759
520.578; 2364.984; -335.131; -305.764
520.860; 2748.565; -254.132;   56.238
521.143; 1465.023; -763.135; -584.756
521.425;  731.864; -251.125; -279.775
521.707; 1102.234; -622.127; -380.771
521.990; 2967.834; -199.127;  167.229
522.272; 3240.463; -116.140;   -4.748
522.554; 1483.620; -237.143; -157.742
522.836;  558.844;  -24.134;   99.241
523.119;  316.964; -496.148; -189.734
523.401;  213.094; -448.130; -314.766
523.683;  115.901; -865.137; -693.753
523.965;  548.491;  408.862;  260.248
524.247;  470.095;   54.878;  170.220
524.529;  323.747; -451.134; -367.759
524.812;  584.597;   -3.130;  191.234
525.094; 1366.590; -773.138; -631.751
525.376; 2153.577; -143.124;   78.223
525.658; 1385.712; -441.136; -339.754
525.940;   35.579; -805.131; -671.764
526.222;   70.517; -188.136;  -88.755
526.504;  162.876; -190.131;   32.237
526.786;  181.650; -960.133; -647.760
527.068;  411.886; -124.123;  -67.778
527.349;  124.407; -865.137; -774.754
527.631;  212.864; -137.132;   22.238
527.913;  220.333; -664.127; -450.771
528.195;  267.253; -761.125; -639.774
528.477;  436.639;  -93.134;  -30.758
528.759;  215.497; -648.130; -522.766
529.040;   82.884; -569.123; -293.778
529.322;  104.157; -235.125;  -10.774
529.604;  250.600;  -47.130;   93.233
529.886;  131.644; -546.126; -302.773
530.167;  227.488;  232.870;  192.235
530.449;  102.974;    1.853;   63.265
530.731;    9.794; -572.122; -459.779
531.012;   92.025; -513.120; -216.784
531.294;  122.383; -118.116;  -43.792
531.575;  291.064;  290.875;  538.225
531.857;   92.632; -548.135; -266.757
532.138;  162.051; -113.141;   40.254
532.420;  322.126;  294.865;  403.244
532.701;  229.554; -722.133; -751.760
532.983;  538.958;  232.867;  182.239
533.264;  185.341; -243.126;  175.228
533.546;  -32.183; -491.136; -508.755
533.827;  101.849;  173.867;   -1.759
534.109;   18.131; -352.135;  -80.757
534.390;  109.570; -725.132; -582.762
534.671;  393.426; -270.135;  -82.756
534.953;  176.588; -751.123; -611.779
535.234;   32.661; -426.117; -255.789
535.515; -178.562; -891.119; -735.785
535.796;  -33.373; -431.128; -193.770
536.078; -236.423;-1050.124; -904.777
536.359;   44.589;  -22.123;    3.221
536.640;  -34.244; -480.125; -197.774
536.921;  290.408;  225.871;  143.232
537.202;  610.786;  -87.138;  -16.751
537.483;  739.083;  251.869;  377.236
537.764;  317.588;   17.870;   98.235
538.045;  -81.562; -543.134; -371.758
538.326;  -91.489; -596.129; -447.768
538.607;   15.335; -686.127; -476.771
538.888;  281.712;   98.879;    5.218
539.169;  261.604; -704.122; -535.781
539.450;  513.406;  236.871;   16.233
539.731;  358.318; -361.121; -182.783
540.012;  206.325;  199.880;  412.216
540.293;  192.469;   82.876;  158.224
540.574;  -36.186; -895.113; -717.796
540.855;  753.015;  435.879;  377.218
541.136;  830.300;   47.878;  139.220
541.416;  426.398; -161.130; -220.766
541.697;  324.676; -274.131; -170.763
541.978; 1709.129; -270.135; -315.757
542.259; 2081.535; -211.127; -236.771
542.539; 1033.474; -191.116; -186.790
542.820;  349.663;  461.875;  480.225
543.101;  191.596;  -52.145;  -77.738
543.381;  -19.066; -638.127; -591.771
543.662;  520.531;  159.873; -254.771
543.942;  890.328; -751.127; -830.770
544.223; 1738.202;  193.878;  161.219
544.504; 1059.776; -275.124; -182.777
544.784;  970.644; -592.126; -408.773
545.065; 2608.980;  104.884; -254.791
545.345; 3142.238;  227.881;   14.215
545.626; 2091.013;  -14.113; -108.796
545.906; 1439.287;   77.869;   98.235
546.186;  596.251;   92.874;  -95.773
546.467;  319.180;   99.877;  -95.778
546.747;  596.074;  264.884;  327.210
547.027;  646.874;   91.876;  111.223
547.308;  478.127; -376.127; -530.770
547.588;  686.912;  299.871;  371.232
547.868;  362.289;  458.870;  588.235
548.149;  362.491;  609.885;  593.207
548.429;  240.832; -347.127; -299.771
548.709;  282.625; -645.120; -461.784
548.989;  814.452;   84.882;   88.213
549.269; 3548.162;   10.868;  139.239
549.550; 7664.986;  215.877;  117.222
549.830; 7005.840; -758.111; -556.799
550.110; 1425.051; -468.110; -320.801
550.390; 1357.995; -128.122;  -56.779
550.670; 1760.507; -868.114; -783.795
550.950; 1294.515; -509.121; -471.782
551.230;  392.509;  549.879;  460.218
551.510;   19.213; -381.121; -326.782
551.790;  103.363; -173.109; -127.803
552.070;  540.480;  940.877; 1181.223
552.350;  634.544; -492.119; -377.786
552.630;  983.306;   -2.121;   77.219
552.909;  611.681;  181.884;   73.209
553.189;  432.472;  -49.132;   33.237
553.469;  264.043; -703.119; -514.786
553.749;  300.337; -469.127; -357.772
554.029;  269.967;   33.883;  -24.790
554.308;  253.897; -154.115;  -37.794
554.588;  105.025; -196.128; -204.770
554.868;   93.816; -366.121;  -47.782
555.147;  245.493; -114.115;  -46.793
555.427; 1013.284; -260.116; -250.792
555.707; 6353.490; -284.115; -200.793
555.986; 7476.245; -719.111; -538.800
556.266; 4109.272;   23.884;   72.210
556.546;  196.413; -888.121; -675.782
556.825;  376.804; -657.114; -556.794
557.105; 2926.522; -125.128;   17.230
557.384; 3372.379;  122.884;  187.209
557.664; 1285.483; -717.116; -508.792
557.943;  213.115; -557.121; -411.782
558.222;  264.657; -345.118; -344.788
558.502;  470.595; -116.115;  -76.793
558.781;  841.588;  194.885;  499.208
559.061;  646.156; -232.118; -227.788
559.340;  526.764;  302.883;  353.211
559.619; 1190.372;   93.884;  148.210
559.899; 1607.867; -239.117; -266.789
560.178; 1495.194; -778.115; -593.793
560.457; 5237.069; -623.117; -562.790
560.736; 6988.447; -472.111; -482.800
561.015; 4834.819; -500.128; -502.769
561.295;  671.193;  180.893;  215.193
561.574;  555.191;  119.885;  116.207
561.853;  783.569;  274.891;  303.197
562.132;  824.398;  -45.114;  182.206
562.411;  778.606;  396.879;  553.219
562.690;  193.088; -592.115; -458.792
562.969;  294.324;  472.888;  630.203
563.248;  995.603; 2966.878; 2487.219
563.527;  461.446; -290.111; -408.800
563.806;  597.832; -650.127; -521.771
564.085;  647.515; -297.105; -206.810
564.364;  394.371; -594.117; -405.790
564.643;  826.107; -276.121; -223.781
564.922; 3014.160;  221.890;  397.198
565.201; 3001.466; -640.109; -700.803
565.479; 1305.086; -297.115; -219.792
565.758;  506.522; -810.128; -712.770
566.037;  768.067; -155.109; -100.803
566.316;  382.080; -286.116;  -28.791
566.595;  139.590;  -17.115;  -12.793
566.873;  210.049; -166.111;  -79.801
567.152;  -66.277; -490.113; -590.797
567.431;   67.073; -113.116;    6.210
567.709;   53.193; -344.107; -212.807
567.988;  409.803; -810.114; -769.794
568.266;  833.790; -160.115;  -68.793
568.545;  576.585; -644.100; -514.819
568.824; 1014.485;  160.885;  356.208
569.102;  873.003; -351.114; -235.794
569.381;  390.284; -492.116; -407.792
569.659;  -59.782; -553.113; -553.796
569.938;   26.900; -743.122; -465.780
570.216;  170.271; -225.109; -225.804
570.494;  -22.692; -632.114; -572.795
570.773;  117.213;  202.879;  114.218
571.051;   44.085; -373.123; -357.778
571.330;   86.914; -221.113; -174.796
571.608;   82.612; -181.098; -173.823
571.886; -134.263; -671.111; -581.799
572.164; -125.584; -739.121; -621.782
572.443;  -91.179; -562.105; -512.811
572.721;  -42.031; -399.117; -289.790
572.999;  -50.740; -280.117; -168.788
573.277;  202.611;  379.894;  620.191
573.555;  516.714;   94.894;   37.190
573.834; 2202.359;  -86.117; -114.788
574.112; 2572.296;  880.893;  811.193
574.390;  814.048; -143.111;  -96.801
574.668;    9.625;  -91.112;  -61.797
574.946;   37.315; -165.106; -187.810
575.224;   49.966;   71.891;  -16.803
575.502;  -21.224; -200.116; -204.791
575.780; -144.173; -767.112; -829.798
576.058;  553.346; 1589.889; 1004.200
576.336;  -53.345; -210.110; -129.801
576.614;  -80.773; -511.112; -340.798
576.891;   79.197; -711.115; -823.794
577.169;  802.983; -158.108; -285.805
577.447;  951.396;  169.893;  202.193
577.725;  489.433;  629.888;  854.201
578.003;   44.030;  -71.112; -371.798
578.280;  156.434; -208.104; -242.812
578.558;   59.195; -450.115; -422.793
578.836;  197.607; -210.114; -145.795
579.114;   51.924; -630.112; -670.797
579.391;  170.862;   -6.117;  -18.789
579.669; -165.902; -595.114; -704.794
579.947;  305.291; -326.107; -127.806
580.224;  491.291; -692.107; -524.806
580.502;  549.997;  127.893;   76.193
580.779;   83.871;  -42.117;   75.210
581.057; -118.428; -584.109; -470.804
581.334; -206.644; -726.102; -695.815
581.612;  121.216;   54.895;  511.190
581.889;  -31.724;  -83.101; -129.818
582.167;  -37.903; -298.099; -190.821
582.444; -207.332; -845.102; -814.817
582.721;  259.469;  657.899;  715.183
582.999;  135.994; -326.100; -167.821
583.276;  791.891; -812.123; -713.779
583.553; 1169.761; -364.102; -294.816
583.831;  342.629; -607.104; -631.812
584.108;  156.880;  349.892;  174.195
584.385;   36.256; -122.102;  -98.815
584.662; -146.650; -651.111; -828.801
584.940;   80.748;  204.889;  204.199
585.217;  -19.283;  -73.113; -303.796
585.494;  107.462;   71.890;  118.198
585.771;  325.873; -250.109; -354.804
586.048;  772.817; -196.113;  -76.796
586.325;  488.053; -721.110; -773.801
586.602;  208.835;  230.896;  213.188
586.879;  -33.012; -499.100; -580.820
587.156;  112.717; -156.105; -331.810
587.433;  -86.235; -701.102; -667.817
587.710;  146.928;  152.888;  234.202
587.987;  477.625; -264.105; -236.811
588.264; 1245.430;  315.888;  387.202
588.541; 2228.838;  -61.104;   26.187
588.818; 4125.376;   72.892;  171.196
589.095; 3612.132; -163.104; -174.812
589.371;  622.270; -459.109; -414.804
589.648;   31.096; -581.107; -437.807
589.925;   52.409; -517.114; -621.795
590.202;    2.527; -741.112; -607.798
590.478;  143.727; -166.105;  -73.811
590.755;  425.385; -241.108; -132.806
591.032; 4070.456; -741.110; -699.802
591.308; 5167.372; -732.094; -790.831
591.585; 2846.056; -573.110; -560.802
591.862;  184.367;-1056.102; -950.817
592.138;  108.882; -475.108; -474.805
592.415;  254.236; -486.104; -495.813
592.691; 2392.333;  460.896;  518.188
592.968; 2940.315; -208.098; -123.824
593.244; 1362.874; -695.116; -595.790
593.521;  168.768; -105.102;  -42.817
593.797;  -34.303; -810.122; -720.780
594.074;  521.234; -611.096; -588.826
594.350; 1093.150;  828.905;  729.172
594.626;  456.550; -303.111; -283.801
594.903;  156.869; -643.101; -645.817
595.179;  353.042;  243.896;  418.187
595.455;   25.498; -136.107; -150.807
595.731;   30.744;  -19.103;  -38.814
596.008;  -51.459; -464.111; -434.800
596.284;   56.392; -187.100; -242.820
596.560;   60.582; -501.093; -493.833
596.836;  321.320; -173.105;  -70.810
597.112;  546.083; -582.108; -437.805
597.388;  486.831;  -49.097;  -48.826
597.665;  250.421;  437.887;  530.203
597.941; -124.175; -572.089; -658.839
598.217;   46.461; -323.110; -293.802
598.493;  422.675;   61.891; -204.804
598.769;  767.083; -175.100;  -50.819
599.045;  467.087; -490.108; -562.806
599.321;   80.890; -193.100; -261.820
599.597;  214.774; -355.109; -476.804
599.872;  784.338;  409.896;  429.187
600.148;  567.433;  -61.097; -172.826
600.424;  506.894;   91.893;  202.193
600.700;  344.298; -170.107; -280.807
600.976;  219.024; -442.097; -464.825
601.252;  378.769; -226.109; -272.803
601.527;  300.740; -833.104; -840.813
601.803;  212.928; -453.105; -404.812
602.079;  336.483; -124.100; -118.819
602.354;  825.796; -620.092; -531.835
602.630; 1301.217; -140.113; -482.796
602.906; 3942.776; -910.101; -863.818
603.181;10332.644; -627.119; -534.786
603.457; 8987.229;   98.903; -278.826
603.733; 1358.019; -605.120; -626.783
604.008; 1618.515; -245.106; -164.810
604.284; 4563.471; -636.101; -580.817
604.559; 4163.733;   -3.112;  -42.799
604.835;  811.420; -163.105; -225.810
605.110;  643.898; -732.099; -892.821
605.385; 1153.286;  224.907;  267.167
605.661; 1036.554; -625.095; -729.829
605.936; 1790.788; -664.108; -737.806
606.211; 1598.354;  -17.103; -170.815
606.487;  353.601; -329.114; -376.794
606.762;   10.244; -791.119; -745.786
607.037;   -0.580; -501.105; -433.810
607.313;  -97.955; -589.096; -574.828
607.588;   14.015; -375.106; -137.810
607.863;   62.676;  -28.101; -143.818
608.138;  370.959;  513.890;  516.198
608.413;   46.004; -576.099; -592.822
608.688;  102.982; -203.108; -267.805
608.964;  345.106; -509.106; -218.809
609.239;  414.816; -107.105; -212.810
609.514;  444.028;  281.895;  240.188
609.789; 1013.334; -187.104; -716.812
610.064; 1321.043; -435.096; -609.827
610.339; 1404.670; -855.109; -799.804
610.614; 1787.891; -131.100; -315.820
610.889; 1110.728;  215.895;  107.188
611.163;   60.229; -407.104; -591.812
611.438;  105.403;   81.886; -167.794
611.713;   -6.329; -467.101; -499.817
611.988;  119.274; -144.101; -328.818
612.263;  -65.344; -771.102; -717.815
612.538;  413.416;  385.887;  251.204
612.812;  223.093; -832.100; -911.820
613.087;  213.212; -358.098; -338.823
613.362; -115.802; -497.107; -557.807
613.637;  137.848;  261.897;  138.186
613.911;   18.197; -256.092; -345.835
614.186;  225.695; -249.107; -292.807
614.460; 1006.037; -842.081; -758.854
614.735; 1222.660;  -55.087;  -17.843
615.010;  296.545;   43.912;  -82.841
615.284;  480.081;  360.892;  246.195
615.559;  503.995; -792.092; -955.835
615.833;  481.501;  -76.099;  -87.822
616.108;   17.313; -225.090; -390.837
616.382;  324.562;  274.913;  402.156
616.656;  233.314; -241.090; -232.837
616.931;  781.102; -785.099; -700.822
617.205; 1614.940; -973.104; -979.813
617.480; 1544.460;  -91.125;    6.225
617.754;  273.657; -396.125; -128.774
618.028;   33.713; -369.129; -382.768
618.302;  130.279;   73.892;  -25.805
618.577;  -63.050; -371.103; -518.815
618.851; -112.035; -399.109; -600.803
619.125;  -55.253; -335.134; -378.759
619.399;  -44.859; -244.104; -374.813
619.673;  -65.115; -330.115; -515.792
619.947;  -43.193; -333.114; -448.795
620.222;   -3.349; -198.110; -204.801
620.496;   18.916;  -47.121;  -96.782
620.770;   49.603; -187.122;  -93.781
621.044;  335.817;  323.895;  346.190
621.318; 1141.420; -653.120; -614.783
621.592; 1003.617; -430.121; -409.783
621.866;  579.035; -476.112; -572.799
622.140;   49.076; -207.116; -356.791
622.413;  127.641;  138.889;  112.200
622.687;  -63.429; -746.101; -492.817
622.961;   95.279; -130.108; -143.805
623.235; -106.058; -633.111; -661.800
623.509; -179.173; -816.105; -848.811
623.783;   29.892;  -12.107;   48.193
624.056;  -17.879; -254.120; -280.783
624.330;   97.325;   63.888;   -3.797
624.604;   71.071; -271.116; -355.790
624.877;  145.958;  180.890;   26.198
625.151;  107.099; -249.114; -238.794
625.425;  -40.956; -150.103; -283.814
625.698;  -72.565; -367.119; -374.785
625.972; -151.639; -799.110; -765.802
626.245;  209.274;  685.884;  484.210
626.519;  -57.073; -426.120; -340.784
626.792;  -11.502; -192.107; -380.807
627.066; -180.907; -485.122; -662.779
627.339; -148.945; -736.110; -663.802
627.613;  106.025;  351.880;  148.216
627.886;  127.664;  187.891; -612.803
628.160;  -16.381;  312.880; -161.783
628.433; -133.535; -695.125; -703.775
628.706; -150.173; -517.120; -615.784
628.979;   68.274;  296.876;  117.223
629.253; -152.857; -785.119; -833.786
629.526;  571.041; -334.126; -253.772
629.799;  491.985; -641.123; -479.778
630.072;  253.015; -497.128; -516.769
630.346; -111.926;-1115.116;-1080.790
630.619;  708.499; -467.107; -545.808
630.892; 1033.843;  709.889;  593.200
631.165;  614.241;  790.896;  679.187
631.438; -165.070;-1092.112;-1055.798
631.711;  156.390;  453.877;  257.221
631.984;  -92.733; -523.117; -624.789
632.257; -115.738; -636.117; -681.789
632.530;  -41.264; -412.119; -433.785
632.803;   62.396; -109.115;    7.207
633.076; -114.520; -360.123; -422.777
633.349;   52.721;  173.872;  121.231
633.622;  -44.466; -187.119; -240.785
633.895; -246.179; -903.120; -823.783
634.167; -103.555; -496.126; -525.773
634.440;   23.583;  -19.116; -137.792
634.713;   24.341;  -22.119; -120.786
634.986;  204.206;  593.871;  453.233
635.258; -129.706; -507.115; -597.793
635.531;  284.756;  742.882; -343.788
635.804;  -61.635; -303.117; -318.789
636.077; -139.722; -830.116; -852.791
636.349;   -9.009; -586.115; -474.793
636.622;  746.440; 1695.874; 1392.228
636.894;  414.428; -474.120; -909.784
637.167;  251.131; -836.127; -789.771
637.439;   42.226; -278.128; -213.770
637.712;  -40.357; -312.126; -293.772
637.984; -158.721; -635.116; -707.791
638.257;  702.181;  515.877;  488.222
638.529;  744.266; -881.125; -924.776
638.802;  398.215; -508.128; -449.769
639.074; -205.898; -927.122; -952.781
639.346; -205.266; -942.135; -930.757
639.619;   26.537;  -79.142; -319.744
639.891;   22.693;  -83.122; -168.779
640.163; -138.105; -689.122; -756.780
640.435;   81.798;  273.878;  103.220
640.708;   60.301;  -72.122; -132.780
640.980;  -64.396; -366.122; -362.781
641.252;  366.306;  -25.121;  -71.781
641.524; 2917.409;  580.879;  573.219
641.796; 2721.612;-1094.121; -907.782
642.068;  542.214; -191.121; -300.782
642.340;  -87.983; -486.121; -566.783
642.613;  144.620;  294.880;  323.217
642.885; -159.977; -787.120; -878.783
643.157;  -92.075; -810.120; -658.784
643.428;  153.828;  170.880;  218.216
643.700; -112.669; -498.120; -425.784
643.972;  -32.166;  -16.119; -133.785
644.244; -134.264; -474.119; -559.785
644.516;  -69.561; -250.119; -114.786
644.788;  165.342;  662.881;  548.214
645.060;  -25.256;  -12.119; -124.786
645.332; -165.153; -525.118; -535.787
645.603;   93.150;  479.882;  342.213
645.875; -101.547; -334.118; -369.787
646.147;  380.055; 1487.882; 1242.212
646.418;  -88.742; -931.117; -918.788
646.690;  200.661; -714.117; -715.789
646.962;   68.364; -413.117; -451.789
647.233;   31.566;   15.883;   11.211
647.505; -177.831; -595.117; -475.790
647.776;   64.072;  328.884;  229.210
648.048;   25.575; -248.116; -418.790
648.320; -121.323; -752.116; -679.791
648.591; -251.720;-1055.116; -958.791
648.862; -153.917; -505.116; -577.792
649.134;   69.985;  115.885;  198.208
649.405;  -98.112; -661.115; -618.792
649.677; -103.209; -475.115; -598.793
649.948;    9.394; -181.115; -296.793
650.219;   41.996;  -37.115; -147.793
650.491;  -97.601; -431.114; -520.794
650.762; -200.398; -705.114; -731.794
651.033; -147.695; -437.114; -424.795
651.304; -178.493; -743.114; -728.795
651.576; -111.490; -680.114; -645.795
651.847;  -42.387; -250.113; -140.796
652.118;    4.315;  -32.113; -189.796
652.389; -180.782; -639.113; -722.796
652.660;  -47.079; -147.113;  -89.797
652.931; -251.176; -897.112; -871.797
653.202; -122.374; -382.112; -541.798
653.473;  -89.171; -633.112; -533.798
653.744;  222.232; -595.112; -590.798
654.015;  239.535; -356.112; -303.799
654.286; -160.963; -642.111; -663.799
654.557;  -92.460; -586.111; -521.799
654.828; -290.557;-1114.111;-1088.800
655.099;  -98.955; -404.111; -291.800
655.370; -151.252; -427.111; -543.801
655.641; -196.349; -656.110; -714.801
655.911; -176.446; -618.110; -638.801
656.182;  160.056;  437.890;  387.198
656.453;  209.959;  830.890;  746.198
656.724; -103.038; -466.110; -426.802
656.994; -108.735; -553.109; -568.803
657.265; -184.933; -862.109; -873.803
657.536; -123.730; -500.109; -377.804
657.806; -179.327; -561.109; -593.804
658.077; -244.425; -866.109; -950.804
658.347; -119.722; -523.108; -598.805
658.618; -223.719; -646.108; -694.805
658.888;   14.284;  -41.108;  112.195
659.159; -102.414; -432.108; -548.806
659.429;  -37.311; -292.108; -349.806
659.700;   14.992; -435.107; -390.807
659.970;  -17.105; -370.107; -359.807
660.241;   -7.203; -754.107; -921.807
660.511;  773.700; -147.107; -174.808
660.781;  105.503; -793.106; -748.808
661.052;  -48.395; -222.106; -381.808
661.322;   -6.592;   21.894;   -9.809
661.592;   70.211;  257.894;  148.191
661.862; -104.086; -369.106; -382.810
662.133; -160.484; -551.105; -502.810
662.403; -202.881; -770.105; -676.810
662.673;  -70.378; -256.105; -213.811
662.943; -167.375; -612.105; -551.811
663.213;  -14.473;  -85.105;  -81.811
663.483; -120.470; -593.104; -568.812
663.753;  -56.367; -194.104; -152.812
664.023;   -1.664;   68.896;  -32.813
664.293;  -77.362; -319.104; -126.813
664.563; -183.159; -694.104; -648.813
664.833; -172.256; -743.103; -608.814
665.103; -234.854; -730.103; -793.814
665.373; -175.751; -766.103; -806.814
665.643; -164.048; -863.103; -918.815
665.913;   54.955; -534.103; -714.815
666.182;  204.757; -685.102; -719.816
666.452;  421.360;  -22.102;  -89.816
666.722;  -33.537; -724.102; -784.816
666.992; -228.534; -948.102; -921.817
667.261; -179.832; -824.102; -808.817
667.531;  363.171;  134.899;   45.183
667.801;  765.174; -440.101; -412.818
668.070;  481.376;  714.899;  697.182
668.340; -176.021; -883.101; -840.819
668.609;  235.982;  588.900;  301.181
668.879; -114.615; -490.100; -558.819
669.149;  -89.913; -539.100; -516.820
669.418; -168.810; -698.100; -726.820
669.688;  -29.907; -482.100; -666.820
669.957;   80.896; -423.099; -546.821
670.226;   -3.802; -268.099; -331.821
670.496; -164.699; -431.099; -635.822
670.765; -106.296; -418.099; -501.822
671.034; -233.394; -872.099; -828.822
671.304;   50.109;   55.902; -111.823
671.573; -284.688;-1085.098; -957.823
671.842;  172.115; -380.098; -294.823
672.112;   24.217; -692.098; -586.824
672.381;   30.320; -239.098; -214.824
672.650; -239.977;-1005.097;-1021.825
672.919; -122.774; -631.097; -507.825
673.188; -174.872; -681.097; -878.825
673.457; -276.769;-1101.097;-1143.826
673.726; -136.166; -579.096; -646.826
673.995;  -44.864; -533.096; -479.826
674.265;  -28.861; -263.096; -333.827
674.534;   56.742; -183.096; -235.827
674.802;   -1.055; -618.096; -703.828
675.071; 1658.847; -886.095; -801.828
675.340; 5766.350; -464.095; -339.828
675.609; 2045.253;  103.905;   82.171
675.878;   72.556; -949.095; -893.829
676.147;   99.558;  -26.095;   -8.829
676.416;  189.561; -210.094; -294.830
676.685; 1245.964; 1000.906; -622.830
676.953;  175.967; -603.094; -452.831
677.222;  -37.431; -193.094; -273.831
677.491;   16.972;  -24.094; -127.831
677.759;   29.275;   11.907;  172.168
678.028;   -4.723; -279.093; -222.832
678.297;   37.580;   71.907;  197.168
678.565; -253.917; -898.093; -944.833
678.834;  -68.214; -311.093; -268.833
679.102; -104.212; -411.092; -391.834
679.371; -243.209; -898.092; -727.834
679.639; -240.406; -797.092; -786.834
679.908; -184.403; -794.092; -724.835
680.176; -282.501; -895.091; -941.835
680.445;  -80.498; -346.091; -352.835
680.713;   36.205;  -58.091;  -23.836
680.982; -114.493; -523.091; -525.836
681.250; -186.590; -578.091; -507.837
681.518; -168.487; -534.090; -751.837
681.787;   -0.284; -204.090; -167.837
682.055;  -88.182; -490.090; -422.838
682.323; -259.079; -993.090; -992.838
682.591;  110.424; -216.090; -538.838
682.859;  151.627;    9.911;  -35.839
683.128;   78.229;  232.911;  497.161
683.396; -300.768;-1102.089;-1122.840
683.664;    0.535; -241.089;   21.160
683.932;   54.537;  144.911;  -76.840
684.200; -110.960; -576.088; -320.841
684.468;  -24.357;  -73.088; -124.841
684.736;   -4.454; -214.088; -175.841
685.004; -231.952;-1024.088; -982.842
685.272;  -85.649; -880.088; -774.842
685.540;  -93.346; -499.087; -557.843
685.808; -119.543; -651.087; -682.843
686.076; -178.441; -894.087; -969.843
686.343;  -88.238; -601.087; -815.844
686.611;   46.665; -195.087; -224.844
686.879;  859.267; -530.086; -553.844
687.147; 4956.370; -483.086; -480.845
687.414; 1454.173;  -12.086; -169.845
687.682;  -20.724; -658.086; -757.846
687.950;  517.278;  259.915;  263.154
688.217;   -8.519; -792.085; -760.846
688.485;  -24.216; -632.085; -636.847
688.753;  797.487;  -11.085; -102.847
689.020;  237.189; -820.085; -851.847
689.288; -185.708; -853.084; -787.848
689.555;    7.995; -195.084; -148.848
689.823;  -88.403; -241.084; -345.849
690.090; -115.500; -546.084; -651.849
690.358; -270.397; -877.084; -897.849
690.625;   49.906;  120.917;   45.150
690.892; -126.092; -403.083; -369.850
691.160;   39.211;   72.917;  -35.850
691.427;   48.214;  141.917;  130.149
691.694; -215.083; -855.083; -929.851
691.962; -279.081;-1177.082;-1060.852
692.229;   90.022;  127.918;   56.148
692.496;  165.525;  130.918;  -49.852
692.763;   54.628; -164.082; -201.853
693.031; -125.670; -739.082; -716.853
693.298;  -29.767; -509.081; -368.853
693.565;  547.736; -155.081; -163.854
693.832; 1896.438;   -5.081;   -9.854
694.099;  200.641; -643.081; -642.855
694.366;  -64.156; -882.081; -896.855
694.633;  -88.053; -920.080; -633.855
694.900; 1555.249; 4367.920; -114.856
695.167;  631.252; -214.080; -380.856
695.434;  164.055; -646.080; -623.856
695.701;  384.158;  121.921;  -61.857
695.968;  740.160; -365.079; -361.857
696.234; 1798.163; -415.079; -646.858
696.501;16120.666; -776.079; -614.858
696.768; 7670.968; -554.079; -617.858
697.035;  551.171; -632.078; -667.859
697.302;   88.074; -448.078; -552.859
697.568;   48.977; -458.078; -497.859
697.835;  -63.721; -683.078; -624.860
698.102;   12.182; -498.078; -407.860
698.368;  177.185;  384.923;  396.139
698.635;  -17.312;  -47.077; -424.861
698.901;    8.090; -240.077; -348.861
699.168;  134.093; -534.077; -456.862
699.435;  131.296;  -72.077;  -13.862
699.701; -213.102; -868.076; -764.862
699.968;  -74.199;  144.924; -441.863
700.234; -138.096; -783.076; -822.863
700.500;  -39.493; -448.076; -539.864
700.767;   43.209;   -1.075;   26.136
701.033; -242.388;-1015.075; -963.864
701.299;  -24.285; -450.075; -483.865
701.566;  307.318;  950.925;  763.135
701.832;  112.520;  -31.075;  -76.865
702.098; -187.677;-1054.074;-1034.866
702.365; -155.874;-1098.074;-1030.866
702.631;  -79.572;-1038.074;-1063.867
702.897; 2164.231; -765.074; -676.867
703.163; 3236.434;  348.926;  254.133
703.429;  288.037; -256.073; -273.868
703.695;  -87.661; -796.073; -792.868
703.961;   94.142; -214.073; -210.868
704.227;  -94.155; -630.073; -725.869
704.493;  304.448;  613.927;  510.131
704.759;  -41.050; -565.072; -540.870
705.025;   90.753; -203.072; -194.870
705.291;   -9.144; -666.072; -562.870
705.557;  400.659;  719.928;   34.129
705.823;   62.161; -742.072; -694.871
706.089;  225.064; -307.071; -326.871
706.355;  649.067; -315.071; -244.872
706.620; 8734.669; -776.071; -729.872
706.886;11195.772; -309.071; -362.873
707.152; 1050.075; -818.070; -973.873
707.418;  -95.422;-1153.070;-1186.873
707.683;   51.380; -550.070; -530.874
707.949;  -48.317; -547.070; -578.874
708.215;   17.886; -129.070; -207.874
708.480;  -25.211; -520.069; -420.875
708.746;  214.591;   68.931;   28.125
709.011; -109.806; -578.069; -612.876
709.277; -118.303; -538.069; -543.876
709.542;  -43.201; -428.069; -387.876
709.808;   75.002;  -59.068;   89.123
710.073; -109.295; -577.068; -695.877
710.339;  -19.992; -242.068; -228.877
710.604;   96.910; -780.068; -845.878
710.869;  444.413; -277.068; -366.878
711.135; -121.884; -715.067; -628.879
711.400; -103.781; -507.067; -608.879
711.665;  -83.079; -404.067; -479.879
711.931; -129.676; -661.067; -677.880
712.196; -176.073; -876.067; -954.880
712.461;  184.229; -402.066; -490.880
712.726;  170.032; -727.066; -771.881
712.991; -148.465; -647.066; -664.881
713.256;  -33.162; -350.066; -332.882
713.521;  -55.860; -417.065; -381.882
713.787;  -83.457; -454.065; -472.882
714.052;  -31.154; -214.065; -400.883
714.317; -188.851;-1045.065; -981.883
714.581; 1628.651; -374.065; -268.883
714.846; 1912.654; -822.064; -888.884
715.111;  247.657;  261.936;  257.116
715.376;   -3.841;  -86.064; -223.885
715.641;   13.762; -365.064; -367.885
715.906;  441.765;   15.936; -551.885
716.171;  231.968;  221.937;  209.114
716.436;   91.270;  -78.063; -104.886
716.700; -159.727; -818.063; -692.886
716.965; -218.324; -794.063; -807.887
717.230; -110.321; -339.063; -392.887
717.494;   11.281;  -40.062; -134.888
717.759; -148.416; -784.062; -640.888
718.024;   82.687;  269.938;  250.112
718.288;  194.889;  685.938;  395.111
718.553; -238.708; -803.062; -977.889
718.817; -228.405; -883.061; -899.889
719.082;   -7.602; -115.061; -125.890
719.346; -226.500;-1000.061; -947.890
719.611;  -41.197; -300.061; -255.891
719.875; -133.194; -568.060; -537.891
720.140; -103.391; -453.060; -603.891
720.404;  131.711; -136.060; -249.892
720.668; 1277.614; -475.060; -411.892
720.933;  521.517;  146.940;  137.108
721.197; -146.680; -667.059; -600.893
721.461; -199.678; -851.059; -826.893
721.725;   15.725;  -21.059; -250.894
721.990;  -28.772; -284.059; -204.894
722.254;   -5.470;  -26.059; -108.894
722.518;  -78.467; -286.058; -442.895
722.782; -153.664; -743.058; -594.895
723.046;  295.039;  614.942;  570.105
723.310;  112.241;  374.942;  210.104
723.574; -132.856; -654.058; -614.896
723.838; -154.953; -576.057; -642.897
724.102;  -33.150; -226.057; -239.897
724.366; -228.648;-1032.057; -978.897
724.630; -117.445; -749.057; -571.898
724.894;  -84.642; -722.057; -514.898
725.158;   55.060;   38.944; -295.898
725.422;  -88.937; -394.056; -327.899
725.685;  -75.734; -441.056; -349.899
725.949; -113.831; -566.056; -519.900
726.213; -113.429; -732.056; -811.900
726.477;  236.674;-1020.055; -933.900
726.740;  246.777; -274.055; -104.901
727.004;  595.680; -384.055; -510.901
727.268; 4938.382; -442.055; -400.901
727.531; 1248.485; -961.055; -775.902
727.795;  -46.012; -713.054; -673.902
728.059;  -83.910; -552.054; -557.903
728.322; -124.107; -841.054; -669.903
728.586;   40.596; -692.054; -701.903
728.849; -118.801; -695.053; -756.904
729.112; -190.399; -812.053; -912.904
729.376; -192.096; -959.053; -905.904
729.639; -125.493; -536.053; -536.905
729.903; -170.690; -733.053; -699.905
730.166;  -43.488; -437.052; -399.906
730.429;  -30.385; -317.052; -468.906
730.693;  -87.582; -355.052; -894.906
730.956;  445.020;  810.948;  651.093
731.219; 1030.623; -310.052; -103.907
731.482;  172.226;-1003.051; -894.907
731.745;   72.629; -794.051; -935.908
732.009;   78.031;  -30.051;   50.092
732.272; -135.466; -904.051; -771.909
732.535;  -58.263; -300.051; -310.909
732.798; -267.960;-1083.050;-1166.909
733.061;  -70.958; -430.050; -456.910
733.324;   52.645;   31.950; -180.910
733.587;  182.448;  290.950;  365.090
733.850;  -98.349; -973.049;-1050.911
734.113;  117.153;   33.951;   32.089
734.376;   55.356; -328.049; -447.912
734.639;  488.059; 1188.951; 1011.088
734.901;  138.661; -180.049; -402.912
735.164;  846.464; -883.048; -837.913
735.427; 1864.867; -166.048; -355.913
735.690;  220.870; -205.048; -234.913
735.952;  -81.628; -923.048; -925.914
736.215;  -87.325;-1113.048;-1009.914
736.478;   37.478; -771.047; -774.915
736.740;  378.881;   33.953;  129.085
737.003; 1224.783; -658.047; -672.915
737.266; 6099.786;  -94.047;   46.084
737.528;  610.589; -682.047; -660.916
737.791;  538.991; -316.046; -327.916
738.053; 1426.494;  465.954;  649.083
738.316;17390.697; -162.046; -136.917
738.578;10596.800; -770.046; -736.918
738.841;  705.302; -382.046; -446.918
739.103;  298.505; -875.045; -777.918
739.365;  818.808;   79.955;  -69.919
739.628;   -8.189; -884.045; -805.919
739.890;  -18.087; -758.045; -710.919
740.152;  -41.084; -692.044; -754.920
740.414;   13.019; -408.044; -359.920
740.677;  -88.679; -785.044; -634.921
740.939;  -53.876; -587.044; -487.921
741.201;  398.227; -432.044; -572.921
741.463;   42.230; -689.043; -745.922
741.725;   59.932;  -21.043; -199.922
741.987;  188.035;  220.957;  116.078
742.249;   17.638; -751.043; -859.923
742.511;  326.341; -703.043; -794.923
742.773;   31.943; -546.042; -546.924
743.035;  293.146;  796.958;  533.076
743.297;  -63.051; -963.042;-1013.924
743.559; 1156.251; -278.042; -262.925
743.821;   51.954; -735.042; -744.925
744.083;   86.357;  -44.041; -149.925
744.345; -144.340; -869.041; -892.926
744.607;  133.662;   75.959;  122.074
744.868;  -84.735; -490.041; -554.927
745.130; -170.932; -994.041;-1008.927
745.392;  122.571;   -1.040;  -44.927
745.653;   -4.127; -411.040; -378.928
745.915;  365.176;  896.960;  631.072
746.177;  156.479;   35.960;  -43.928
746.438;   19.681; -428.040; -543.929
746.700;  -57.916; -947.039; -988.929
746.961;   20.487; -659.039; -740.930
747.223;  215.190; -190.039;  -74.930
747.484;  165.092; -391.039; -471.930
747.746;  296.695;  -23.038; -106.931
748.007;  195.098; -647.038; -689.931
748.269;  452.501; -468.038; -440.931
748.530;  709.803; -852.038; -638.932
748.791;  442.206; -354.038; -420.932
749.053;  747.909;  286.963;  163.067
749.314;  729.412; -236.037; -169.933
749.575;  754.714; -945.037; -905.933
749.836; 1385.517; -217.037;   86.066
750.098; 4395.320;  -60.037;  -21.934
750.359;54246.222;  414.964;  555.066
750.620;12417.425; -121.036; -220.935
750.881; 1658.128; -585.036; -513.935
751.142; 2207.231; -950.036; -938.936
751.403;26271.133; -789.036; -705.936
751.664; 9949.836;-1034.035; -999.936
751.925;  805.239; -175.035; -262.937
752.186;  509.342; -298.035; -278.937
752.447;  241.444; -590.035; -445.937
752.708;   92.947; -532.035; -648.938
752.969;   13.850; -566.034; -576.938
753.230;    3.352; -777.034; -672.939
753.491;   12.355; -650.034; -631.939
753.751;  157.458;  109.966;   19.061
754.012;  248.561;  258.967;  181.060
754.273;  133.863; -174.033;  -71.940
754.534;   41.666; -487.033; -580.940
754.794; -137.231; -926.033; -911.941
755.055;  388.572; 1051.967;  881.059
755.316;  -61.926; -700.032; -566.942
755.576;   -9.823; -606.032; -576.942
755.837;  -70.920; -527.032; -695.942
756.097;  -15.118; -530.032; -564.943
756.358;  -96.915; -725.032; -770.943
756.618;  -28.612; -705.031; -641.943
756.879;   61.791; -254.031; -349.944
757.139; -207.107;-1098.031;-1116.944
757.400;  -65.304; -538.031; -553.945
757.660;   55.799; -365.031; -401.945
757.920;   16.002; -266.030; -228.945
758.181;    9.604; -468.030; -351.946
758.441; -165.493; -870.030; -809.946
758.701;   19.110; -308.030; -215.946
758.961;   -1.888; -220.030; -278.947
759.222;  -50.585; -574.029; -502.947
759.482;  -89.982; -683.029; -723.948
759.742; -127.379; -706.029; -547.948
760.002;   59.723;  -83.029; -143.948
760.262;  100.026;   50.972;  182.051
760.522;  -42.571; -498.028; -574.949
760.782;  -60.668; -738.028; -612.949
761.042;  -25.366; -618.028; -573.950
761.302;  139.637;   55.972;  -18.950
761.562;  127.340; -164.027; -154.951
761.822;  176.843; -710.027; -551.951
762.082;  -63.055;-1104.027;-1093.951
762.342;  170.148; -328.027; -403.952
762.601;  164.551; -567.027; -506.952
762.861;  632.453; -281.026; -207.952
763.121;  801.356; -406.026; -411.953
763.381;13674.459; -499.026; -485.953
763.640;12333.362; -139.026; -307.954
763.900;  663.364; -242.026; -203.954
764.160;  174.967; -458.025; -491.954
764.419;   -7.230; -726.025; -782.955
764.679; -108.027; -795.025; -726.955
764.939;   54.775; -124.025; -210.955
765.198; -119.622; -608.025; -563.956
765.458; -118.419; -710.024; -612.956
765.717;  -99.817; -454.024; -590.957
765.976;  -37.314; -428.024; -411.957
766.236; -128.111; -475.024; -610.957
766.495;  124.092;  260.977;   73.042
766.755; -164.906;-1090.023; -987.958
767.014;   31.897; -594.023; -665.958
767.273;  -87.500; -373.023; -397.959
767.533;    6.703; -228.023; -307.959
767.792;  -13.395; -151.022; -188.960
768.051;  -40.292; -228.022; -276.960
768.310;  -94.189; -546.022; -650.960
768.569;   44.413; -161.022;    4.039
768.828;   -8.484; -285.022; -363.961
769.088; -211.181;-1050.021; -942.961
769.347; -140.978; -755.021; -599.962
769.606; -130.276; -876.021; -857.962
769.865; -217.573;-1016.021;-1033.963
770.124;   45.530; -411.021; -336.963
770.383;  -69.267; -778.020; -910.963
770.641;   37.935; -398.020; -400.964
770.900; -136.062; -953.020; -846.964
771.159;  -96.459; -851.020; -951.964
771.418;  -31.257; -917.020; -779.965
771.677;  221.446; -224.019; -293.965
771.936;  240.449; -794.019; -865.966
772.194; 4202.052; -465.019; -437.966
772.453;16228.554; -213.019; -391.966
772.712; 1224.557;  416.982;  329.033
772.970;  275.760;   32.982;   63.033
773.229;  196.363;  -22.018;  102.033
773.488; -160.735; -814.018; -770.968
773.746;  154.368;  296.982;  335.032
774.005;   76.271;  190.983;  -22.969
774.263;   94.373;  243.983;  177.031
774.522; -140.224; -422.017; -548.969
774.780; -107.621; -484.017; -417.970
775.039; -116.418; -551.017; -531.970
775.297;   13.584; -135.016; -351.970
775.555; -157.813; -489.016; -612.971
775.814; -160.310; -618.016; -570.971
776.072; -171.607; -749.016; -740.971
776.330; -147.305; -630.016; -520.972
776.589; -169.402; -703.015; -721.972
776.847; -174.199; -645.015; -624.973
777.105; -277.596;-1016.015;-1032.973
777.363;  -91.494; -459.015; -454.973
777.621; -190.891; -660.015; -717.974
777.879;   38.712;  -42.014;   32.026
778.138; -123.886; -554.014; -717.974
778.396; -138.083; -585.014; -526.975
778.654; -259.480;-1015.014; -970.975
778.912;  -99.577; -269.014; -371.976
779.170; -205.675; -880.013; -803.976
779.427; -243.972; -922.013; -897.976
779.685; -203.869; -880.013; -832.977
779.943; -118.266; -654.013; -593.977
780.201; -300.964; -964.012; -883.978
780.459; -179.861; -651.012; -610.978
780.717; -122.758; -440.012; -390.978
780.974; -136.756; -449.012; -490.979
781.232;  -67.953; -358.012; -338.979
781.490; -103.650; -551.011; -472.979
781.747; -150.347; -555.011; -476.980
782.005;  123.355;  462.989;  254.020
782.263; -290.642; -542.011;-1004.981
782.520; -108.139; -326.011; -501.981
782.778; -272.236;-1013.010;-1051.981
783.035; -287.034; -962.010; -938.982
783.293;  -57.031; -248.010; -206.982
783.550;  -51.428; -134.010; -198.982
783.808; -179.726; -764.010; -776.983
784.065; -240.923; -745.009; -874.983
784.322;  -15.720;   25.991;  -86.984
784.580; -220.417; -915.009; -771.984
784.837; -132.715; -392.009; -466.984
785.094; -211.212; -783.009; -762.985
785.352;  -79.209; -304.008; -404.985
785.609; -186.906; -934.008; -839.985
785.866;  -81.704; -345.008; -401.986
786.123; -130.501; -639.008; -583.986
786.380; -148.598; -665.008; -604.987
786.637;   -8.496; -225.007; -380.987
786.895;  -30.993; -456.007; -543.987
787.152;   -0.790; -135.007; -267.988
787.409;  -22.887; -123.007; -225.988
787.666; -129.385; -299.006; -378.988
787.923; -133.482; -616.006; -695.989
788.179; -147.279; -551.006; -584.989
788.436; -179.076; -585.006; -585.990
788.693;  -14.074;  -92.006;  -87.990
788.950;  309.429; -125.005; -112.990
789.207;  331.732; -381.005; -372.991
789.464;  -49.365; -161.005; -301.991
789.720;   54.437;  150.995;  110.009
789.977; -275.960;-1003.005; -671.992
790.234;   -0.557;   44.996;  -66.992
790.490; -234.455; -884.004;-1031.993
790.747;   40.048;  -85.004;   22.007
791.004;  -21.649; -426.004; -348.993
791.260;  -75.446; -430.004; -560.994
791.517; -163.944; -843.003; -788.994
791.773;  -50.141; -379.003; -342.994
792.030; -146.938; -596.003; -660.995
792.286; -144.435; -686.003; -636.995
792.543;   55.667;  -74.002; -159.995
792.799;  -42.230; -584.002; -382.996
793.055; -290.627;-1179.002;-1210.996
793.312; -113.225; -827.002; -816.997
793.568;  -84.122; -746.002; -599.997
793.824;   83.781; -226.001; -284.997
794.081;   49.684; -447.001; -508.998
794.337;  160.186; -664.001; -561.998
794.593; 2680.489; -319.001; -271.999
794.849;10402.792; -746.001; -772.999
795.105;  527.895; -270.000; -261.999
795.361;   94.597; -490.000; -457.000
795.617;  -79.500; -875.000; -945.000
795.873;  -58.400; -360.000; -407.000
796.129;  -20.500; -368.000; -306.000
796.385;   27.600; -124.000; -156.000
796.641;  180.100;  412.000;  550.000
796.897;  -93.600; -666.000; -635.000
797.153;  197.000;  453.000;  357.000
797.409; -158.500; -785.000; -868.000
797.665;  -94.100; -625.000; -732.000
797.921;  -98.500; -775.000; -762.000
798.176; -121.000; -744.000; -747.000
798.432;  -75.500; -824.000; -596.000
798.688; -152.400;-1174.000;-1078.000
798.943;  164.100; -165.000; -147.000
799.199;    0.300;-1005.000; -959.000
799.455;  451.600;  369.000;  316.000
799.710;  207.100; -813.000; -380.000
799.966;  518.900; -162.000; -160.000
800.221;  733.700; -638.000; -721.000
800.477;17628.500; -743.000; -710.000
800.732;12231.100; -773.000; -800.000
800.988; 1040.100;  205.000;  -19.000
801.243; 3481.700; -454.000; -344.000
801.498;11462.700; -814.000; -739.000
801.754;  685.900; -289.000; -163.000
802.009;  231.700; -257.000; -335.000
802.264;  -98.900; -967.000;-1033.000
802.520;  100.500;  222.000;   -3.000
802.775;  -59.200; -524.000; -359.000
803.030;  150.400;  395.000;  356.000
803.285; -177.700; -840.000; -903.000
803.540;  -72.700; -686.000; -699.000
803.795;  -48.100; -648.000; -583.000
804.051;    2.000; -279.000; -346.000
804.306;  127.100;  168.000;  128.000
804.561;  326.900;  451.000;  362.000
804.816;  323.400;  714.000;  861.000
805.071;   92.200; -185.000; -280.000
805.325;  345.800; -257.000; -427.000
805.580; -146.600; -841.000; -877.000
805.835;   42.500; -204.000; -297.000
806.090;  -92.800; -760.000; -676.000
806.345;    4.400; -344.000; -264.000
806.600;    9.000; -549.000; -632.000
806.854;  -39.600; -408.000; -538.000
807.109;    8.800; -493.000; -577.000
807.364;   72.400; -407.000; -328.000
807.618;   43.600; -415.000; -381.000
807.873;  100.600; -470.000; -494.000
808.128;  230.200; -257.000; -518.000
808.382;  198.900; -224.000; -332.000
808.637;  154.500; -440.000; -511.000
808.891;  358.200; -257.000; -180.000
809.146;  178.700; -902.000; -794.000
809.400;  412.900; -848.000; -923.000
809.654;  539.100; -779.000; -551.000
809.909;  799.800; -841.000; -927.000
810.163;12732.200; -813.000; -651.000
810.418;25493.400; -940.000; -861.000
810.672; 1642.300; -685.000; -690.000
810.926; 1216.300; -993.000; -973.000
811.180; 2644.000; -439.000; -372.000
811.434;55226.100;  240.000;  135.000
811.689;17167.400; -231.000; -365.000
811.943;  953.000; -936.000; -953.000
812.197;  581.300; -893.000; -671.000
812.451;  226.000; -379.000; -514.000
812.705;   17.200; -809.000; -619.000
812.959;  -49.600; -263.000; -388.000
813.213;   61.800; -283.000; -209.000
813.467;  210.200;  470.000;  253.000
813.721; -147.800; -764.000; -792.000
813.975; -181.300; -826.000; -877.000
814.229;  169.100;  430.000;  353.000
814.482; -111.600; -517.000; -566.000
814.736; -164.600; -766.000; -744.000
814.990; -204.800; -779.000; -872.000
815.244;  -27.900; -228.000; -285.000
815.497; -126.900; -636.000; -601.000
815.751;   46.100; -141.000;   82.000
816.005; -147.500; -470.000; -586.000
816.258;  -88.300; -510.000; -363.000
816.512; -147.100; -693.000; -610.000
816.766;  114.600;  121.000;  157.000
817.019;   98.200;  148.000;  149.000
817.273; -178.900;-1000.000; -802.000
817.526;  -16.200; -206.000; -173.000
817.779;  -49.200;-1049.000; -960.000
818.033; -108.600; -693.000; -807.000
818.286; -137.800; -725.000; -792.000
818.540; -152.300; -403.000; -403.000
818.793;  -83.600; -402.000; -489.000
819.046; -153.400; -582.000; -520.000
819.299;   34.000; -157.000; -166.000
819.553; -155.100; -552.000; -592.000
819.806; -251.900;-1016.000; -838.000
820.059;  -51.000; -334.000; -354.000
820.312;   99.100;  152.000;  185.000
820.565;   73.300;  110.000;  -27.000
820.818;   -9.100;  -59.000; -173.000
821.071; -277.100;-1041.000; -957.000
821.324; -145.900; -536.000; -540.000
821.577; -123.000; -457.000; -483.000
821.830;  -52.800; -270.000; -172.000
822.083; -185.800; -733.000; -288.000
822.336;  -32.900; -261.000; -167.000
822.589; -218.700; -805.000; -688.000
822.842; -219.800; -875.000; -770.000
823.094; -309.400;-1076.000;-1114.000
823.347; -211.200; -925.000; -729.000
823.600;   95.300;  402.000;  187.000
823.853;  -21.800; -311.000; -267.000
824.105; -134.700; -331.000; -575.000
824.358; -161.800; -617.000; -716.000
824.611;   74.600;  234.000;   40.000
824.863;  -57.300; -612.000; -591.000
825.116;  113.100;  -33.000;   27.000
825.368;  181.900; -366.000; -372.000
825.621;  271.000; -186.000; -240.000
825.873;  127.000; -704.000; -737.000
826.126; 1155.400; -669.000; -641.000
826.378;18706.100; -389.000; -505.000
826.630; 3258.600; -890.000; -898.000
826.883;   74.600; -754.000; -693.000
827.135;   97.900; -279.000; -270.000
827.387; -190.100; -893.000; -839.000
827.639;  -18.900;  -86.000;   32.000
827.892; -191.300; -742.000; -582.000
828.144; -234.700; -848.000; -804.000
828.396;    6.600;  104.000;  -80.000
828.648; -123.700; -440.000; -333.000
828.900; -223.300; -702.000; -795.000
829.152; -165.700; -684.000; -683.000
829.404;  -76.800; -215.000; -267.000
829.656;   -9.100;  321.000;  214.000
829.908;   50.300;  393.000;  229.000
830.160; -283.200;-1064.000;-1047.000
830.412; -106.400; -481.000; -430.000
830.664; -186.100; -557.000; -665.000
830.916;  -72.300; -268.000; -206.000
831.167; -281.500;-1073.000; -951.000
831.419; -124.900; -623.000; -566.000
831.671; -222.100; -764.000; -809.000
831.923; -111.300; -311.000; -447.000
832.174;  -81.000; -273.000; -331.000
832.426; -167.600; -493.000; -582.000
832.678; -344.400;-1043.000;-1091.000
832.929; -261.900; -947.000; -935.000
833.181;  -97.500; -575.000; -677.000
833.432;  -24.000;  -59.000; -186.000
833.684;   51.800;  112.000;  -27.000
833.935; -167.700; -610.000; -566.000
834.187; -198.200; -829.000; -823.000
834.438;   -5.400;  -58.000;  -25.000
834.689;  -43.700; -255.000; -123.000
834.941;   -0.700; -343.000; -244.000
835.192; -105.600; -590.000; -533.000
835.443; -106.800; -419.000; -506.000
835.695;   52.600;  138.000;  -16.000
835.946; -108.300; -608.000; -378.000
836.197; -166.000; -599.000; -622.000
836.448; -106.900; -528.000; -395.000
836.699;  -57.300; -253.000; -341.000
836.950;   52.800;   72.000;    7.000
837.201; -265.800;-1003.000; -987.000
837.452;  -33.000; -356.000; -170.000
837.703; -169.900; -791.000; -737.000
837.954;    3.300; -205.000; -365.000
838.205; -114.300;-1029.000;-1008.000
838.456;  250.700; -196.000; -282.000
838.707;   52.500; -423.000; -519.000
838.958;   66.200; -634.000; -647.000
839.209;  461.100;   18.000;   40.000
839.460;  219.800; -439.000; -201.000
839.710;  306.000; -135.000; -297.000
839.961;  736.200;  730.000;  612.000
840.212;  556.600; -382.000; -497.000
840.462; 2061.100; -328.000; -277.000
840.713;30415.000; -571.000; -536.000
840.964; 9161.100;  -62.000; -143.000
841.214;  764.500; -384.000; -624.000
841.465;  977.100; -214.000; -141.000
841.715;  830.000; -417.000; -380.000
841.966; 1132.700; -746.000; -685.000
842.216;18864.000; -330.000; -431.000
842.466;54070.000; -169.000; -313.000
842.717; 2144.100; -964.000; -952.000
842.967;  609.100; -635.000; -641.000
843.217;  498.300;   20.000;   28.000
843.468;  184.500; -104.000; -132.000
843.718;  -74.100; -718.000; -726.000
843.968; -106.000; -837.000; -765.000
844.218;   95.800; -315.000; -262.000
844.469;  -58.500; -577.000; -561.000
844.719; -144.000; -537.000; -682.000
844.969; -112.900; -550.000; -580.000
845.219; -226.400; -814.000; -862.000
845.469;  -58.900; -392.000; -342.000
845.719; -209.800; -792.000; -884.000
845.969;   77.300;  119.000;  174.000
846.219; -197.800; -738.000; -720.000
846.469;  136.500;  464.000;  432.000
846.718;  -33.600; -115.000;   31.000
846.968; -204.700; -827.000; -827.000
847.218;  -33.100; -224.000; -371.000
847.468; -144.800; -586.000; -555.000
847.718; -230.500; -827.000; -798.000
847.967; -201.400; -826.000; -915.000
848.217; -105.400; -449.000; -569.000
848.467;  -89.300; -405.000; -376.000
848.716; -159.500; -708.000; -725.000
848.966;   42.400; -372.000; -358.000
849.215; -103.400; -428.000; -419.000
849.465;  -92.500; -785.000; -615.000
849.714; -260.700;-1132.000;-1150.000
849.964;  -68.600; -551.000; -613.000
850.213;   -8.000; -393.000; -355.000
850.463;  215.500;  137.000;  340.000
850.712;    6.700; -542.000; -567.000
850.961;   57.700; -739.000; -678.000
851.211;  189.100; -513.000; -504.000
851.460;  272.500; -635.000; -650.000
851.709;  948.900;  -25.000;   18.000
851.958;18596.100; -912.000; -750.000
852.208;17173.100; -859.000; -879.000
852.457;  657.300; -181.000;  -13.000
852.706;  137.200; -791.000; -823.000
852.955;   55.600; -507.000; -528.000
853.204;  -93.000; -521.000; -461.000
853.453; -106.700; -418.000; -458.000
853.702; -200.600; -660.000; -750.000
853.951; -134.200; -532.000; -520.000
854.200; -143.700; -613.000; -562.000
854.449; -178.800; -695.000; -661.000
854.698;  -98.900; -340.000; -279.000
854.946;  -45.400; -181.000; -284.000
855.195; -217.100; -843.000; -868.000
855.444; -124.200; -395.000; -420.000
855.693; -181.300; -345.000; -432.000
855.941; -126.000; -387.000; -516.000
856.190;  -34.700; -256.000; -382.000
856.439; -212.100; -652.000; -703.000
856.687;  -62.800;  -99.000;  -72.000
856.936; -157.600; -621.000; -323.000
857.184; -304.600;-1067.000;-1020.000
857.433; -113.800; -423.000; -512.000
857.681; -259.600; -989.000; -953.000
857.930; -102.600; -282.000; -433.000
858.178; -284.700; -856.000; -929.000
858.427; -230.300; -802.000; -781.000
858.675; -155.700; -377.000; -544.000
858.923; -141.700; -527.000; -819.000
859.172; -311.000;-1094.000;-1070.000
859.420; -102.000; -339.000; -239.000
859.668; -216.400; -624.000; -628.000
859.916;   12.200;  109.000;  115.000
860.164; -183.700; -699.000; -603.000
860.413;  539.300; -878.000; -696.000
860.661;  275.500; -709.000; -577.000
860.909; -114.500; -339.000; -325.000
861.157; -124.900; -277.000; -444.000
861.405; -175.900; -534.000; -670.000
861.653;  101.500;  310.000;  310.000
861.901;  319.800; -543.000; -613.000
862.149;  -73.000; -801.000; -824.000
862.396;  -84.700; -297.000; -187.000
862.644; -104.500; -368.000; -347.000
862.892;   27.800;   98.000;  138.000
863.140; -144.800; -549.000; -530.000
863.388; -234.800; -815.000; -759.000
863.635; -176.700; -642.000; -601.000
863.883;   73.700;  231.000;  190.000
864.131; -129.300; -288.000; -357.000
864.378; -175.600; -675.000; -540.000
864.626; -119.500; -347.000; -415.000
864.873; -161.100; -556.000; -505.000
865.121; -246.100; -714.000; -799.000
865.368;   -5.400; -173.000;   75.000
865.616;  -28.300;  -33.000;  -40.000
865.863;  -74.700; -462.000; -506.000
866.111; -204.100; -795.000; -824.000
866.358;   97.800; -426.000; -420.000
866.605; 3906.600;  -64.000; -804.000
866.853; 2923.800; -621.000; -537.000
867.100;  -96.000; -728.000; -775.000
867.347; -128.900; -672.000; -611.000
867.594; -102.100; -740.000; -714.000
867.841;  196.800;   97.000;   17.000
868.089; -236.500; -746.000; -698.000
868.336; -135.600; -477.000; -420.000
868.583; -211.300; -637.000; -741.000
868.830;   19.700; -131.000; -170.000
869.077; -257.100; -859.000; -787.000
869.324; -161.900; -502.000; -458.000
869.571; -195.100; -398.000; -430.000
869.818; -176.100; -485.000; -439.000
870.065; -151.200; -439.000; -513.000
870.311; -156.800; -456.000; -542.000
870.558; -135.100; -332.000; -311.000
870.805; -106.700; -320.000; -384.000
871.052; -156.400; -494.000; -369.000
871.298;  -15.600; -204.000; -131.000
871.545;  -60.100; -151.000; -185.000
871.792; -105.100; -173.000; -222.000
872.038;  -62.700;   43.000; -126.000
872.285; -180.900; -496.000; -387.000
872.532; -104.600; -357.000; -387.000
872.778;  114.500;  556.000;  403.000
873.025; -115.500; -384.000; -359.000
873.271;  126.000;  501.000;  578.000
873.517;  -23.400; -133.000; -209.000
873.764;   -1.100; -193.000;  -80.000
874.010;  -50.100; -143.000; -230.000
874.257;   14.400;  123.000;   90.000
874.503; -210.700; -579.000; -479.000
874.749;  -31.000;   31.000;  275.000
874.995;  -62.400;  -80.000;  -20.000
875.242; -156.800; -540.000; -478.000
875.488; -149.100; -414.000; -439.000
875.734;   20.300; -106.000; -234.000
875.980;  371.200; -872.000;-1032.000
876.226;  554.900; -157.000; -255.000
876.472;   57.800;  343.000;  237.000
876.718;   17.700;  184.000;  158.000
876.964;  -15.400;   56.000;   55.000
877.210; -182.500; -547.000; -677.000
877.456; -212.300; -630.000; -557.000
877.702; -277.200; -821.000; -832.000
877.948; -136.100; -377.000; -497.000
878.193;  106.000;  361.000;  255.000
878.439; -108.400; -487.000; -472.000
878.685; -108.600; -272.000; -343.000
878.931; -196.500; -618.000; -676.000
879.176;  -90.800; -201.000; -201.000
879.422; -289.300; -933.000; -820.000
879.668;  215.400;   10.000;   79.000
879.913;  280.200;   53.000;  137.000
880.159;  -53.500; -112.000;  -17.000
880.404;  -80.200; -152.000; -162.000
880.650;  -17.900;   91.000;  141.000
880.895; -263.500; -670.000; -710.000
881.141; -131.300; -454.000; -428.000
881.386; -211.200; -503.000; -658.000
881.631;  -97.000; -311.000; -166.000
881.877;   32.900;  112.000;  -13.000
882.122; -209.700; -684.000; -600.000
882.367; -122.500; -136.000; -186.000
882.612;  -67.900;  -80.000; -176.000
882.858; -282.400; -877.000; -823.000
883.103; -125.000; -297.000; -267.000
883.348; -246.200; -759.000; -852.000
883.593; -214.100; -677.000; -602.000
883.838;  -55.400; -311.000;  -24.000
884.083;   81.700;  353.000;  288.000
884.328; -125.500; -564.000; -545.000
884.573;  -13.800; -196.000; -143.000
884.818;  393.900; -694.000; -531.000
885.063;  304.500; -348.000; -315.000
885.308; -154.200; -475.000; -398.000
885.553;   87.200;  245.000;  325.000
885.797; -195.200; -545.000; -615.000
886.042;  -34.700;    8.000;   58.000
886.287;  -85.600; -253.000; -211.000
886.532;  -14.100;   26.000;  204.000
886.776; -155.500; -407.000; -525.000
887.021; -190.500; -621.000; -574.000
887.265; -219.800; -685.000; -689.000
887.510; -179.500; -557.000; -496.000
887.755;  -99.700; -194.000; -164.000
887.999; -173.800; -552.000; -575.000
888.244;  -51.100;  -58.000;  161.000
888.488;   97.500;  371.000;  393.000
888.732; -192.500; -368.000; -520.000
888.977; -202.300; -622.000; -567.000
889.221; -274.600; -683.000; -659.000
889.465; -163.500; -422.000; -566.000
889.710;  -63.600;  -56.000; -299.000
889.954;   90.000;  579.000;  467.000
890.198; -223.000; -584.000; -707.000
890.442; -212.200; -716.000; -712.000
890.687; -244.000; -800.000; -753.000
890.931;  -74.700; -273.000; -210.000
891.175; -220.500; -502.000; -500.000
891.419;  -59.300; -105.000; -110.000
891.663;  -95.200; -239.000; -112.000
891.907; -249.300; -801.000; -545.000
892.151; -300.400; -920.000; -815.000
892.395; -138.700; -274.000; -387.000
892.638;   46.700;  408.000;  291.000
892.882; -276.000; -780.000; -867.000
893.126;  126.800;  758.000;  558.000
893.370;  -80.600; -167.000; -168.000
893.614; -209.200; -714.000; -715.000
893.857; -109.200; -183.000; -197.000
894.101; -211.500; -527.000; -631.000
894.345;  -47.800;  300.000;  150.000
894.588;  132.900;  569.000;  380.000
894.832;  -77.400; -178.000;  -84.000
895.075;  -94.900;   15.000;  -92.000
895.319; -169.800; -552.000; -420.000
895.563; -132.500; -413.000; -353.000
895.806; -222.200; -628.000; -741.000
896.049;  -74.800; -576.000; -368.000
896.293;  241.500;  527.000;  405.000
896.536; -140.500; -465.000; -468.000
896.779;  -33.500; -149.000;   -1.000
897.023; -223.500; -751.000; -714.000
897.266;   22.800;  325.000;  269.000
897.509; -282.700; -900.000; -901.000
897.752;   -8.100;  149.000;  171.000
897.996; -339.200; -972.000; -864.000
898.239;   26.400;  168.000;  102.000
898.482; -194.100; -431.000; -453.000
898.725;   17.500;  101.000;   53.000
898.968; -236.400; -609.000; -744.000
899.211; -119.200; -513.000; -361.000
899.454; -214.100; -633.000; -539.000
899.697;  -42.200;   90.000;  -43.000
899.940; -280.700; -761.000; -757.000
900.182; -100.300; -335.000; -405.000
900.425; -101.300; -150.000; -298.000
900.668;   69.300;  491.000;  350.000
900.911; -137.500; -292.000; -345.000
901.154;  -17.500;  141.000;   -3.000
901.396; -189.400; -407.000; -412.000
901.639; -207.400; -430.000; -496.000
901.882; -287.300; -790.000; -809.000
902.124;  -82.300;  -29.000; -143.000
902.367; -153.000; -315.000; -361.000
902.609; -187.300; -476.000; -453.000
902.852; -114.000; -108.000; -260.000
903.094; -162.400; -458.000; -337.000
903.337;  -14.800;  -26.000;   53.000
903.579; -110.500; -228.000; -441.000
903.821; -226.400; -597.000; -744.000
904.064;  -13.300;   85.000;  127.000
904.306; -102.000; -126.000; -166.000
904.548;  -92.900; -152.000; -366.000
904.790; -148.600; -195.000; -340.000
905.033; -165.000; -625.000; -577.000
905.275; -177.900; -513.000; -524.000
905.517;  173.400;  468.000;  256.000
905.759; -135.700; -667.000; -761.000
906.001; -120.600; -322.000; -369.000
906.243;  -73.000; -162.000; -224.000
906.485;  314.400; -265.000; -207.000
906.727;  138.500; -499.000; -542.000
906.969;    1.100;  -30.000; -135.000
907.211;  270.200; -316.000; -382.000
907.453;  477.500; -188.000; -237.000
907.695;   34.000; -158.000; -385.000
907.936;  183.000;  818.000;  706.000
908.178;  -48.100;   92.000; -135.000
908.420;  -63.600; -111.000; -162.000
908.662; -204.300; -633.000; -682.000
908.903; -105.300; -208.000; -123.000
909.145;  -63.200; -240.000; -305.000
909.386;  121.100;  315.000;  280.000
909.628;  162.700;  363.000;  397.000
909.870;   81.700;   29.000;  264.000
910.111; -163.100; -809.000; -949.000
910.353;   69.600; -123.000; -161.000
910.594;   24.800; -574.000; -606.000
910.835;  200.600; -265.000; -326.000
911.077;  307.100; -503.000; -604.000
911.318;  570.300; -505.000; -471.000
911.559;  798.600; -577.000; -880.000
911.801; 2673.100; -284.000; -280.000
912.042;22922.300;  -50.000; -159.000
912.283;47109.100;  404.000;  371.000
912.524; 5585.600; -396.000; -457.000
912.765;  901.400; -193.000;   79.000
913.006;  508.300; -307.000; -338.000
913.247;  137.600; -270.000; -290.000
913.488;   43.600;  -43.000;   30.000
913.729; -127.800; -373.000; -373.000
913.970;  -77.300;  -96.000; -292.000
914.211;  -68.000; -160.000; -198.000
914.452;  -46.000; -118.000;  -11.000
914.693;  125.600;  510.000;  592.000
914.934;   81.200;  510.000;  440.000
915.175;  -37.500;   53.000;  -95.000
915.415;  -93.000; -137.000;   27.000
915.656;  -70.300;  -28.000;  192.000
915.897; -111.900; -252.000;  -82.000
916.137;  -34.100;   74.000;   -9.000
916.378; -175.500; -573.000; -517.000
916.619; -107.700; -159.000;  -63.000
916.859;   36.800;  303.000;  330.000
917.100;  390.200; 1655.000; 1070.000
917.340;  154.400;  930.000;  728.000
917.581;  164.700;  965.000;  789.000
917.821;    7.100; -171.000;  143.000
918.061;   80.900; -199.000;  -72.000
918.302;  -59.400; -152.000; -211.000
918.542;   31.600;  -22.000;    3.000
918.782;  113.400;  369.000;  377.000
919.023;  309.100;  360.000;  427.000
919.263; 2774.100; 8131.000;  202.000
919.503; 1717.400; -137.000;  -54.000
919.743; 1158.400;  390.000;  266.000
919.983;  425.700; -134.000;  -26.000
920.223;  138.400;  135.000;   14.000
920.463;  302.700;  631.000;  554.000
920.703;  223.800;   84.000;   39.000
920.943;  301.900; -110.000;   90.000
921.183;  420.200; -414.000; -405.000
921.423;  918.700;  307.000;  546.000
921.663; 1207.800; -174.000; -257.000
921.903; 2823.200;  237.000;  173.000
922.143;16894.300;  372.000;  389.000
922.383;56834.500;  158.000;  115.000
922.622;14700.700; -120.000;  -15.000
922.862; 1859.900;  796.000;  785.000
923.102;  732.900;  -51.000;   33.000
923.341;  324.700;   59.000;   74.000
923.581;  166.500;  450.000;  360.000
923.821;   99.100;  301.000;  398.000
924.060;   74.500;  351.000;  193.000
924.300;  -32.300;  -16.000; -128.000
924.539;   63.700;  584.000;  473.000
924.779;   92.200;  812.000;  597.000
925.018;  -29.700;  247.000;  353.000
925.257;   82.600;  595.000;  666.000
925.497;    9.800;  447.000;  412.000
925.736;  -45.700;  -35.000;  102.000
925.975;   92.300;  687.000;  669.000
926.214;  164.100;  907.000;  850.000
926.454;  150.500;  706.000;  757.000
926.693;   50.100;  419.000;  543.000
926.932;  158.100; 1021.000;  825.000
927.171;  245.400; 1107.000; 1044.000
927.410;  192.600; 1144.000;  967.000
927.649;  165.100;  924.000;  742.000
927.888;   72.900;  590.000;  564.000
928.127;   89.000;  680.000;  678.000
928.366;  144.200;  842.000;  826.000
928.605;  183.000;  831.000;  737.000
928.844;  554.800; 1451.000; 1393.000
929.083; 1124.000;  770.000;  613.000
929.321;  554.600; 1335.000; 1359.000
929.560;  274.600; 1158.000; 1122.000
929.799;   63.000;  574.000;  475.000
930.038;  257.500; 1025.000; 1394.000
930.276;   -1.600;  334.000;  397.000
930.515;   86.500;  827.000;  681.000
930.753;   46.800;  614.000;  589.000
930.992;   52.600;  664.000;  717.000
931.230;   75.500;  847.000;  847.000
931.469;  467.300; 2162.000;  892.000
931.707;  257.400;  840.000;  751.000
931.946;  215.400; 1278.000; 1344.000
932.184;  217.800; 1437.000; 1175.000
932.423;  177.500; 1265.000;  963.000
932.661;  279.700; 1296.000; 1428.000
932.899;   75.600;  987.000;  821.000
933.137;   64.500;  754.000;  564.000
933.376;  379.200; 1664.000; 1335.000
933.614;  393.100; 1759.000; 1196.000
933.852;  235.100; 1357.000; 1171.000
934.090;  361.600; 1722.000; 1747.000
934.328;  266.400; 1252.000; 1457.000
934.566;  247.400; 1431.000; 1110.000
934.804;  300.000; 1263.000; 1309.000
935.042;  850.800; 1861.000; 1850.000
935.280; 3304.500; 2088.000; 2063.000
935.518; 2563.000; 2113.000; 2007.000
935.756;  652.500; 2481.000; 2316.000
935.994;  376.500; 1808.000; 1751.000
936.231;  771.200; 2890.000; 2950.000
936.469;  468.000; 2367.000; 2378.000
936.707;  451.300; 2220.000; 2167.000
936.945;  571.600; 2825.000; 2882.000
937.182;  519.300; 2679.000; 2741.000
937.420;  680.100; 3602.000; 3031.000
937.657;  928.500; 3365.000; 3478.000
937.895;  754.700; 3331.000; 3488.000
938.133;  722.000; 3540.000; 3528.000
938.370;  810.000; 3896.000; 4191.000
938.607;  922.500; 4488.000; 4205.000
938.845; 1216.500; 5587.000; 5549.000
939.082; 1067.200; 5387.000; 5177.000
939.320; 1165.200; 5799.000; 5728.000
939.557; 1377.100; 6549.000; 6491.000
939.794; 1535.300; 7285.000; 7097.000
940.031; 1934.600; 8421.000; 8368.000
940.269; 2302.000; 9552.000; 9107.000
940.506; 2366.900;10901.000;10507.000

