
Integration time [ms]: 100.000
Averaging Nr. [scans]: 40
Smoothing Nr. [pixels]: 0
Data measured with spectrometer [name]: 2101013U2
Wave   ;Sample   ;Dark     ;Reference
[nm]   ;[counts] ;[counts] ;[counts] 

394.013;   43.016; -450.257; -315.536
394.305;  207.789; -461.258; -419.536
394.596; 1137.162; -676.269; -527.514
394.887; 2801.653; -796.268; -654.518
395.178; 1079.333;  145.736;   11.476
395.470;   76.594; -210.263; -356.526
395.761;  189.493;  305.734;  394.479
396.052;  264.437; -545.284; -306.489
396.343;  267.332; -557.276; -454.503
396.634;   89.276; -200.279; -290.497
396.926;   71.425; -618.268; -565.517
397.217;   75.036;   11.725;  -17.504
397.508;   39.927; -366.273; -154.507
397.799;   24.501; -555.279; -571.497
398.090;   -7.905; -973.280; -902.495
398.381;  108.963;   11.708;  -11.473
398.672;  -11.861; -585.292; -742.473
398.963;   32.757; -348.279; -373.498
399.254;   96.198;   54.709; -209.475
399.545;  -36.611;-1017.266; -883.520
399.836;   51.646; -407.277; -343.501
400.127;   41.840; -205.295; -209.468
400.418;   53.771; -423.274; -392.506
400.709;   30.557; -359.281; -333.493
401.000;   41.977; -268.291; -309.476
401.290;   92.302;  225.698;  115.545
401.581;   57.620; -166.286; -228.485
401.872;   10.787; -542.298; -486.462
402.163;   41.907; -313.296; -252.467
402.454;   86.899; -123.291; -163.475
402.744;   58.223; -844.297; -813.465
403.035;  383.754; -226.293;  -86.471
403.326;  497.217; -366.292; -384.474
403.617;  349.906;  204.701;  165.539
403.907;  251.693; -593.283; -679.490
404.198; 2487.256; -545.307; -599.446
404.489; 6395.048; -618.283; -588.491
404.779; 2047.730; -618.302; -660.456
405.070;  213.609;  -67.304; -174.451
405.360;  332.856; -259.293; -238.472
405.651;  366.516;  125.699;   98.542
405.942;  163.291;  209.714;  127.516
406.232;  207.805; -432.285; -413.487
406.523;  419.924;  641.706;  758.530
406.813;   69.868; -579.286; -644.484
407.104;  299.262;  261.708;  144.527
407.394;  149.608; -604.299; -591.462
407.685;  152.404;  336.715;  222.513
407.975;   41.047; -400.283; -382.490
408.265;   92.413; -134.289; -190.478
408.556;   46.671; -472.291; -459.475
408.846;  163.925;  474.706;  429.530
409.137;   81.321;   -1.288; -216.480
409.427;   53.005; -193.285; -271.487
409.717;   25.155; -776.273; -692.508
410.007;  125.273;    4.715; -170.486
410.298;   89.292; -360.295; -342.469
410.588;   63.652; -495.285; -510.486
410.878;   26.307; -792.287; -873.482
411.168;   94.564; -481.298; -478.463
411.459;  114.716; -295.283; -242.489
411.749;   57.769; -609.292; -507.474
412.039;   45.920; -755.289; -386.480
412.329;  180.364;   40.722;  132.501
412.619;  196.943;  -62.286; -148.485
412.909;  346.991;  639.711;  594.521
413.199;  305.795; -130.280; -251.495
413.490;  374.507;  521.710;  352.523
413.780;  151.399;-1013.279; -913.496
414.070;  314.083;  -46.276;  235.497
414.360;  350.385; -729.278; -666.498
414.650;  396.379; -726.288; -688.482
414.940;  535.049; -538.280; -441.496
415.230;  935.826;   50.712;   74.519
415.520; 6137.661;  155.730;   66.486
415.809;24388.132; -305.281; -125.493
416.099;18826.848; -388.277; -229.501
416.389; 5377.594;  435.726;  236.494
416.679; 3183.248;   91.738;   85.473
416.969;  544.662; -527.287; -503.483
417.259;  480.126;  341.721;  171.503
417.549;  692.706;  522.718;  318.508
417.838; 1693.077; -205.268; -147.518
418.128; 5637.287;  650.710;  492.522
418.418; 4682.661; -491.272; -579.509
418.708; 3193.269;    9.726;  -48.506
418.997;12061.390; -474.275; -480.505
419.287;12509.401; -733.273; -790.507
419.577;11966.941; -160.283; -123.489
419.866;39562.946; -588.277; -498.501
420.156;40054.832; -242.270;  -55.513
420.446; 7043.765; -112.263;  -26.526
420.735;  818.926; -376.271; -446.512
421.025;  815.184; 1830.722;  315.502
421.314;  611.249; -203.271; -226.512
421.604; 1194.495;   89.732;  233.484
421.893;  702.570; -705.271; -602.511
422.183;  228.166; -487.263; -461.526
422.472;  370.472;  -36.271; -107.511
422.762;  437.470; -416.266; -379.521
423.051;  241.808; -916.276; -916.503
423.341;  303.078; -491.273; -439.507
423.630;  391.276; -121.265;   15.477
423.919;  380.089;   58.725;   49.495
424.209;  362.571;  -31.263;   56.473
424.498;  488.875;   68.732;  161.483
424.787; 1104.256; -535.267; -601.518
425.077; 3382.000;   34.735;   29.478
425.366; 4564.102; -734.262; -744.528
425.655;10178.479;  639.727;  259.493
425.945;23031.404; -313.247; -268.554
426.234;12635.274;  117.741;  300.467
426.523; 5156.054;  -86.259; -350.534
426.812; 7055.791;  107.734;  159.480
427.101;10519.742; -127.269; -323.515
427.390;13151.436;  -55.270;  -86.514
427.680; 2738.924; -624.257; -411.538
427.969;  461.485; -330.255; -301.540
428.258;  314.040; -385.257; -477.536
428.547;  522.540;  449.728;  397.490
428.836; 1124.450; -421.253; -398.543
429.125; 1605.606; -199.259;  -72.534
429.414;  742.923; -330.251; -294.548
429.703; 3156.448; -231.251; -213.548
429.992; 9585.926; -938.250; -828.549
430.281; 6265.434; -397.264; -331.524
430.570;  560.214;  -21.252;   32.454
430.859;  494.829;  279.741;  352.466
431.148;  408.500;  636.752;  631.446
431.437;  254.613;  391.748;  367.454
431.725;  147.942; -544.257; -481.536
432.014;  134.883; -845.253; -756.545
432.303;  360.775; -149.239; -105.569
432.592;  544.015; -460.263; -178.525
432.881; 1037.101; -601.248; -437.554
433.169; 6415.035; -343.255;  -61.540
433.458;13020.159;  445.765;  540.424
433.747; 5392.657; -397.261; -289.529
434.036;  832.751; -275.242; -280.564
434.324; 2102.364; -395.249; -379.551
434.613; 3749.395;   40.757;  159.437
434.902; 1195.715;  333.760;  439.433
435.190;  449.874;   75.761;  295.431
435.479;  274.952;  -52.245;   83.441
435.767;  104.385; -411.244; -427.561
436.056;  173.972; -340.242; -294.563
436.345;  377.068; -372.240; -223.568
436.633;  361.809;   60.750;  383.450
436.922;  216.345;  208.760;  414.432
437.210;  466.224; -194.236;    1.426
437.499; 1464.632; -583.235; -432.576
437.787; 1624.448; -339.236;  -10.574
438.075;  429.680;   56.761;  162.430
438.364;  568.407;  -44.238;  250.429
438.652;  339.886; -286.226; -138.592
438.941;  114.975;    3.770;  269.415
439.229;   -9.014; -665.252; -466.545
439.517;   30.015; -160.234;  -85.577
439.806;   -7.349; -501.225; -290.595
440.094;  141.248;  377.766;  650.421
440.382;  148.676; -653.233; -302.580
440.670;  145.631; -361.235; -285.576
440.959;   19.694; -347.223; -170.599
441.247;   59.762; -151.229; -109.587
441.535;   81.988; -266.235;   31.423
441.823;   15.995; -497.234; -305.578
442.111;  163.466;  173.771;  327.412
442.400;  428.501; -628.245; -335.559
442.688; 1122.897; -111.234; -620.579
442.976;  746.930; -786.213; -450.617
443.264;   81.358; -324.224; -364.597
443.552;   85.362; -258.226;   51.408
443.840;  150.962;  602.765;  876.423
444.128;  100.401;  265.767;  269.420
444.416;   -9.557; -694.228; -312.588
444.704;   19.148; -465.219;  -92.605
444.992;   66.290;   -0.226;  240.407
445.280;   41.926; -517.230;  -94.585
445.568;   28.159; -694.212; -396.618
445.856;  281.982; -174.221;  357.398
446.143;  621.119;  -54.220;   -7.604
446.431;  507.222;  -25.228;  625.411
446.719;  202.167;  489.783;  675.391
447.007;  175.020;  481.769;  705.416
447.295;  169.716;  597.777;  871.402
447.583;   78.709; -464.229;  -34.587
447.870;  128.229; -434.221; -202.601
448.158;  344.450; -104.230;  129.415
448.446;  267.145; -800.219; -338.604
448.733;  150.609;   13.776;  269.403
449.021;  228.209;   60.788;  341.382
449.309;  173.948; -296.210;  208.379
449.596;  202.388;  128.783;   59.392
449.884;  144.223; -571.222; -325.600
450.172;  161.752; -756.227; -406.590
450.459;  445.464;  645.786;  780.387
450.747; 2511.962; -411.218; -147.608
451.034; 8059.523;  493.772;  889.411
451.322; 6580.167; -413.214; -170.614
451.609;  531.661;  292.777;  508.403
451.897;  607.986; -550.203; -183.634
452.184; 1850.216; -622.223; -400.598
452.472; 1723.495;   97.792;  269.375
452.759;  329.496;  512.781;  864.395
453.047;   93.606; -407.212; -125.617
453.334;   36.604; -732.219; -216.606
453.621;   55.494; -438.214; -161.615
453.909;  100.728;   13.796;  384.368
454.196;   91.548; -299.199; -123.641
454.483;  194.149;  317.798;  540.364
454.771;  120.048; -215.208;  196.374
455.058;   41.251; -316.207;  102.374
455.345;   95.327;   71.807;  344.347
455.632;   97.329; -128.207;  235.373
455.919;   44.920;  -82.196;  182.354
456.207;  -60.423; -774.198; -450.642
456.494;  -24.889; -475.200;  -66.639
456.781;    2.794; -399.202; -198.635
457.068;   45.411; -253.206;  -29.628
457.355;  -18.113; -698.206; -401.629
457.642;   -3.683; -552.205; -290.630
457.929;    3.768; -778.194; -417.651
458.216;   59.606; -575.212; -354.617
458.503;  236.948; -173.193;  -19.652
458.790;  253.595; -864.208; -630.625
459.077;  268.849;  -77.202;  110.364
459.364;  809.611; -350.195; -210.649
459.651; 1734.458;  -46.206;  220.372
459.938;  817.386; -864.209; -665.623
460.225;  125.152;  132.799;  276.363
460.512;  -45.983; -836.197; -688.645
460.799;   98.161;  -32.218;  320.392
461.086;   59.215; -370.200; -251.640
461.372;   31.503; -509.198; -279.642
461.659;   77.646; -165.196;  108.354
461.946;   39.797; -445.193;  -54.651
462.233;  224.288;  842.800;  888.361
462.519;  342.860; -814.201; -464.639
462.806; 1016.868; -768.197; -497.645
463.093;  893.667; -445.191;  -66.656
463.380;  -31.817; -920.186; -824.664
463.666;   42.269; -259.197;  -18.646
463.953;   81.356; -406.195; -243.648
464.239;  188.556; -173.195;  -77.648
464.526;  363.342;  413.806;  743.350
464.813;  306.429; -565.190; -304.658
465.099;  322.873;  606.807;  607.348
465.386;  306.677;  903.807;  921.348
465.672;   11.868; -694.197; -522.645
465.959;    7.521; -598.188; -520.662
466.245;   -2.573; -468.193; -359.652
466.532;   81.104; -109.195;   63.352
466.818;   48.758; -357.186; -216.664
467.104;  -20.128; -488.182; -415.672
467.391;  -22.695; -628.189; -459.658
467.677;   17.486; -289.186;    9.335
467.964;   -3.488; -682.189; -471.660
468.250;   43.914; -331.186; -160.665
468.536;   76.807;   90.811;  180.341
468.822;  -37.349; -821.184; -574.668
469.109;  130.952;  351.827;  471.311
469.395;  178.436;  729.808;  787.346
469.681;  192.660;   46.811;  156.341
469.967; 1279.614; -699.188; -382.660
470.254; 2751.247; -494.188; -306.662
470.540; 1768.895; -601.196; -476.646
470.826;  261.933; -488.181; -397.675
471.112;  288.129;  288.816;  113.331
471.398;   77.209; -253.183;  -58.670
471.684;   22.036; -626.177; -447.680
471.970;   -6.313; -918.180; -981.675
472.256;   15.185; -521.192; -441.654
472.542;    2.113; -499.171; -434.691
472.828;    6.093; -743.182; -607.672
473.114;   17.681; -380.166; -283.700
473.400;   -6.372; -504.175; -293.684
473.686;   23.512; -452.166; -400.701
473.972;   46.267; -230.174; -131.687
474.258;  -47.998; -925.173; -843.689
474.544;  227.778; -183.178;   -2.679
474.830;  321.629;  -65.175;   45.316
475.116;  516.255; -123.190; -196.658
475.401;  706.614; -558.180; -467.676
475.687;  205.288; -725.180; -718.676
475.973;  -13.374; -673.181; -770.673
476.259;  237.132;  736.825;  764.315
476.544;  365.494; -539.176; -437.682
476.830;  886.009; -398.172; -322.690
477.116;  773.368; -430.177; -336.682
477.401;  139.339;  346.820;  358.324
477.687;  -28.222; -289.175; -405.684
477.973;   37.705;   21.819;   28.326
478.258;  -14.592; -448.163; -348.706
478.544;   42.044;   21.815;   61.334
478.829;  -58.256; -818.171; -738.692
479.115;  -53.266; -749.172; -651.690
479.401;  -12.537; -444.174; -449.686
479.686;   47.138; -253.180;  -74.676
479.972;  -30.767; -886.178; -776.680
480.257;   21.558; -258.166;  -65.700
480.542;   -8.078; -614.170; -469.693
480.828;  223.451; 1288.824; 1392.317
481.113;  -42.251; -464.176; -426.683
481.399;  -17.844; -236.161; -202.711
481.684;  -66.143; -620.166; -462.700
481.969;   12.619; -158.159;  -73.713
482.255;  -12.567; -439.169; -285.695
482.540;   -6.366; -569.178; -441.680
482.825;   -3.497; -395.187; -404.663
483.110;  101.336;  -85.169; -105.696
483.396;  210.241; -840.157; -652.718
483.681;  506.067;  543.826;  730.313
483.966;  162.513; -696.160; -700.712
484.251;  -19.284; -404.174; -310.687
484.536;   -3.507; -356.165; -378.703
484.822;    7.094; -205.173; -218.687
485.107;  -44.722; -599.152; -502.726
485.392;  118.373;  662.836;  541.296
485.677;   72.821;  354.832;  163.302
485.962;   93.513;  160.843;  270.283
486.247;   89.940;  -14.162;   -8.707
486.532;   44.034; -178.166; -325.701
486.817;  153.701;  381.839;  431.291
487.102;  100.212; -453.154; -514.722
487.387;  713.168; -637.156; -652.718
487.672; 1257.128; -154.164;  -38.705
487.957;  792.383; -394.160; -286.711
488.241;  188.620; -290.150; -314.729
488.526;  787.980; -280.152; -148.726
488.811; 1271.435; -881.177; -818.680
489.096;  948.239; -666.154; -702.723
489.381;  509.676;    3.847;  162.275
489.666;  409.181; -428.161; -510.710
489.950;  171.867;  558.846;  627.277
490.235;  -37.760; -480.151; -458.728
490.520;  -52.470; -756.161; -723.710
490.804;  -63.955; -827.156; -736.719
491.089;   -5.889; -469.149; -299.732
491.374;   37.602; -132.164;  -75.704
491.658;  -18.703; -817.147; -717.735
491.943;  158.109; -657.152; -609.727
492.227;  230.933; -178.155;  -38.721
492.512;   35.588; -294.157; -341.717
492.797;  -72.545; -713.149; -716.731
493.081;  -60.700; -588.147; -598.735
493.366;  -50.044; -751.161; -635.711
493.650;  187.177;  831.859;  917.254
493.935;   16.921; -648.147; -447.734
494.219;  -45.860; -778.142; -687.743
494.503;  -40.400; -585.150; -487.730
494.788;   35.580;   46.842;   74.285
495.072;   99.446;  184.850;  434.271
495.356;  182.764; -463.148; -343.733
495.641;  439.581; -812.146; -736.736
495.925;  431.399; -976.156; -903.719
496.209;   14.685; -599.149; -451.732
496.494;  -54.735; -763.142; -544.744
496.778;  -17.838; -364.154; -360.722
497.062;  -57.301; -819.156; -627.719
497.346;  -34.641; -869.160; -640.711
497.631;  136.817;  580.852;  560.266
497.915;   78.516;  -64.145;  175.261
498.199;   38.716; -341.157; -277.718
498.483;   35.278; -562.152; -508.725
498.767;  193.472;  301.850;  300.271
499.051;  181.583; -126.149; -100.732
499.335;   27.406; -693.149; -739.731
499.619;  -39.173; -381.129; -423.767
499.903;   14.356; -272.155;  -65.721
500.187;   45.094; -588.153; -316.724
500.471;   10.708; -796.152; -595.727
500.755;   87.455;   62.839;  -96.710
501.039;   11.507; -270.155; -357.721
501.323;   77.204;  -21.141;  264.254
501.607;   18.133; -447.163; -503.706
501.891;  -10.808; -607.156; -512.718
502.174;  -37.547; -726.144; -585.741
502.458;   56.212;   89.849;  370.273
502.742;   31.152; -180.138; -191.751
503.026;  103.121; -412.147; -254.734
503.310;  181.943; -437.159; -375.713
503.593;  134.073; -464.147; -325.735
503.877;  104.592; -232.133; -156.760
504.161;  184.346;    2.847;  -50.724
504.444;  127.807; -841.158; -710.716
504.728;  476.076; -487.164; -522.704
505.012;  743.694; -257.150;  -76.729
505.295;  536.456; -417.161; -212.711
505.579;  566.299; -256.156; -496.719
505.862;  807.963; -555.145; -333.738
506.146;  798.596; -681.159; -758.714
506.429;  422.746;  568.841;  461.286
506.713;   62.816; -732.151; -667.728
506.996;  333.961;   90.846;  295.278
507.280;  354.996; -633.165; -474.703
507.563;  256.355; -469.155; -261.721
507.847;   93.970; -423.153; -112.724
508.130;   91.257; -665.161; -456.711
508.413;  133.878; -758.167; -577.700
508.697;  262.628; -151.167;   12.300
508.980;  164.771; -422.153; -312.724
509.263;  -23.949; -466.155; -450.720
509.547;   33.544; -124.150;   82.271
509.830;   52.459; -172.160;  140.289
510.113;   83.699;  128.844;  298.281
510.396;   31.477; -530.152; -300.725
510.680;  121.464; -818.145; -812.738
510.963;  484.166;  184.846;  180.277
511.246;  414.977; -493.150; -357.730
511.529;  231.569; -482.145;  -83.739
511.812;  398.289; -250.134;   10.241
512.095;  294.314; -740.151; -396.728
512.378;   72.352; -317.147; -245.736
512.661;   30.235; -703.137; -623.753
512.944;   31.267; -750.142; -637.744
513.227;   62.782; -170.137; -171.752
513.510;   30.903; -479.144; -671.741
513.793;   25.858; -485.140; -435.747
514.076;  130.248;  -43.127;  -39.771
514.359;  103.336; -294.149; -135.732
514.642;   82.994; -442.142; -567.744
514.925;  790.907;  581.860;  561.253
515.208; 1077.985; -498.134; -443.758
515.491;  691.174; -276.133; -182.761
515.773;  382.181; -410.143; -337.742
516.056; 2227.416;  249.864;  409.246
516.339; 2983.970; -754.136; -652.755
516.622; 1841.249; -518.150; -488.730
516.904; 1056.638;  882.857;  975.257
517.187;  470.706; -730.138; -523.752
517.470;  396.187; -568.143; -510.743
517.752;  466.223; -624.136; -470.756
518.035;  355.594; -708.139; -725.749
518.318;  408.020; -799.136; -744.755
518.600; 2633.352; -300.132; -325.762
518.883; 3601.294;  310.858;   88.256
519.165; 1714.174; -585.138; -426.751
519.448;  373.502;  -61.132;  -19.762
519.730;  184.680; -573.126; -415.773
520.013;  288.720;  588.867;  664.240
520.295;  688.166;  -94.134;  -15.759
520.578; 1541.040; -335.131; -305.764
520.860; 1773.702; -254.132;   56.238
521.143;  949.650; -763.135; -584.756
521.425;  500.293; -251.125; -279.775
521.707;  702.048; -622.127; -380.771
521.990; 1899.849; -199.127;  167.229
522.272; 2143.535; -116.140;   -4.748
522.554;  940.132; -237.143; -157.742
522.836;  320.013;  -24.134;   99.241
523.119;  198.845; -496.148; -189.734
523.401;  143.372; -448.130; -314.766
523.683;   94.635; -865.137; -693.753
523.965;  287.329;  408.862;  260.248
524.247;  286.889;   54.878;  170.220
524.529;  216.265; -451.134; -367.759
524.812;  366.424;   -3.130;  191.234
525.094;  928.578; -773.138; -631.751
525.376; 1449.102; -143.124;   78.223
525.658;  893.867; -441.136; -339.754
525.940;   26.512; -805.131; -671.764
526.222;   24.021; -188.136;  -88.755
526.504;  106.035; -190.131;   32.237
526.786;  143.193; -960.133; -647.760
527.068;  265.207; -124.123;  -67.778
527.349;   90.764; -865.137; -774.754
527.631;  116.702; -137.132;   22.238
527.913;  137.897; -664.127; -450.771
528.195;  178.036; -761.125; -639.774
528.477;  251.060;  -93.134;  -30.758
528.759;  145.249; -648.130; -522.766
529.040;   68.806; -569.123; -293.778
529.322;   57.439; -235.125;  -10.774
529.604;  133.801;  -47.130;   93.233
529.886;  118.105; -546.126; -302.773
530.167;  107.768;  232.870;  192.235
530.449;   32.376;    1.853;   63.265
530.731;   18.938; -572.122; -459.779
531.012;   73.134; -513.120; -216.784
531.294;   78.622; -118.116;  -43.792
531.575;  151.518;  290.875;  538.225
531.857;   63.430; -548.135; -266.757
532.138;  105.252; -113.141;   40.254
532.420;  163.052;  294.865;  403.244
532.701;  190.470; -722.133; -751.760
532.983;  311.048;  232.867;  182.239
533.264;  102.978; -243.126;  175.228
533.546;  -46.754; -491.136; -508.755
533.827;   31.192;  173.867;   -1.759
534.109;   26.305; -352.135;  -80.757
534.390;   71.431; -725.132; -582.762
534.671;  250.201; -270.135;  -82.756
534.953;  138.559; -751.123; -611.779
535.234;   16.432; -426.117; -255.789
535.515;  -80.033; -891.119; -735.785
535.796;  -26.457; -431.128; -193.770
536.078; -116.249;-1050.124; -904.777
536.359;    9.259;  -22.123;    3.221
536.640;   -8.413; -480.125; -197.774
536.921;  151.131;  225.871;  143.232
537.202;  367.275;  -87.138;  -16.751
537.483;  483.890;  251.869;  377.236
537.764;  159.218;   17.870;   98.235
538.045;  -47.690; -543.134; -371.758
538.326;  -45.667; -596.129; -447.768
538.607;   10.674; -686.127; -476.771
538.888;  183.375;   98.879;    5.218
539.169;  189.969; -704.122; -535.781
539.450;  326.630;  236.871;   16.233
539.731;  215.354; -361.121; -182.783
540.012;  129.309;  199.880;  412.216
540.293;   73.021;   82.876;  158.224
540.574;   -5.932; -895.113; -717.796
540.855;  427.727;  435.879;  377.218
541.136;  543.592;   47.878;  139.220
541.416;  279.149; -161.130; -220.766
541.697;  195.035; -274.131; -170.763
541.978; 1118.104; -270.135; -315.757
542.259; 1426.574; -211.127; -236.771
542.539;  668.466; -191.116; -186.790
542.820;  196.592;  461.875;  480.225
543.101;  115.766;  -52.145;  -77.738
543.381;   27.498; -638.127; -591.771
543.662;  256.196;  159.873; -254.771
543.942;  622.544; -751.127; -830.770
544.223; 1109.493;  193.878;  161.219
544.504;  723.101; -275.124; -182.777
544.784;  596.780; -592.126; -408.773
545.065; 1714.445;  104.884; -254.791
545.345; 2054.992;  227.881;   14.215
545.626; 1328.542;  -14.113; -108.796
545.906;  923.492;   77.869;   98.235
546.186;  390.534;   92.874;  -95.773
546.467;  205.379;   99.877;  -95.778
546.747;  331.491;  264.884;  327.210
547.027;  396.600;   91.876;  111.223
547.308;  341.494; -376.127; -530.770
547.588;  420.308;  299.871;  371.232
547.868;  194.268;  458.870;  588.235
548.149;  210.527;  609.885;  593.207
548.429;  133.247; -347.127; -299.771
548.709;  207.358; -645.120; -461.784
548.989;  525.626;   84.882;   88.213
549.269; 2261.801;   10.868;  139.239
549.550; 5172.658;  215.877;  117.222
549.830; 4634.860; -758.111; -556.799
550.110;  925.767; -468.110; -320.801
550.390;  875.188; -128.122;  -56.779
550.670; 1220.538; -868.114; -783.795
550.950;  854.927; -509.121; -471.782
551.230;  180.798;  549.879;  460.218
551.510;   -2.549; -381.121; -326.782
551.790;   39.750; -173.109; -127.803
552.070;  260.504;  940.877; 1181.223
552.350;  430.371; -492.119; -377.786
552.630;  642.421;   -2.121;   77.219
552.909;  378.770;  181.884;   73.209
553.189;  244.557;  -49.132;   33.237
553.469;  205.570; -703.119; -514.786
553.749;  194.675; -469.127; -357.772
554.029;  179.611;   33.883;  -24.790
554.308;  149.931; -154.115;  -37.794
554.588;   61.917; -196.128; -204.770
554.868;   67.452; -366.121;  -47.782
555.147;  168.778; -114.115;  -46.793
555.427;  643.198; -260.116; -250.792
555.707; 4159.776; -284.115; -200.793
555.986; 5036.613; -719.111; -538.800
556.266; 2663.315;   23.884;   72.210
556.546;  136.526; -888.121; -675.782
556.825;  258.011; -657.114; -556.794
557.105; 1913.740; -125.128;   17.230
557.384; 2238.794;  122.884;  187.209
557.664;  855.622; -717.116; -508.792
557.943;  113.927; -557.121; -411.782
558.222;  214.004; -345.118; -344.788
558.502;  285.205; -116.115;  -76.793
558.781;  516.825;  194.885;  499.208
559.061;  426.779; -232.118; -227.788
559.340;  317.884;  302.883;  353.211
559.619;  764.264;   93.884;  148.210
559.899; 1105.136; -239.117; -266.789
560.178; 1003.429; -778.115; -593.793
560.457; 3338.512; -623.117; -562.790
560.736; 4697.389; -472.111; -482.800
561.015; 3096.563; -500.128; -502.769
561.295;  409.619;  180.893;  215.193
561.574;  345.877;  119.885;  116.207
561.853;  514.629;  274.891;  303.197
562.132;  523.907;  -45.114;  182.206
562.411;  473.621;  396.879;  553.219
562.690;  145.450; -592.115; -458.792
562.969;  149.149;  472.888;  630.203
563.248;  519.869; 2966.878; 2487.219
563.527;  285.913; -290.111; -408.800
563.806;  391.672; -650.127; -521.771
564.085;  447.009; -297.105; -206.810
564.364;  268.014; -594.117; -405.790
564.643;  544.772; -276.121; -223.781
564.922; 2067.598;  221.890;  397.198
565.201; 2037.776; -640.109; -700.803
565.479;  874.449; -297.115; -219.792
565.758;  347.291; -810.128; -712.770
566.037;  471.703; -155.109; -100.803
566.316;  246.569; -286.116;  -28.791
566.595;   47.002;  -17.115;  -12.793
566.873;   96.040; -166.111;  -79.801
567.152;  -52.677; -490.113; -590.797
567.431;   10.165; -113.116;    6.210
567.709;   17.445; -344.107; -212.807
567.988;  277.510; -810.114; -769.794
568.266;  570.201; -160.115;  -68.793
568.545;  408.781; -644.100; -514.819
568.824;  625.223;  160.885;  356.208
569.102;  611.935; -351.114; -235.794
569.381;  253.547; -492.116; -407.792
569.659;  -47.005; -553.113; -553.796
569.938;   47.192; -743.122; -465.780
570.216;  108.155; -225.109; -225.804
570.494;  -16.487; -632.114; -572.795
570.773;   27.000;  202.879;  114.218
571.051;    0.507; -373.123; -357.778
571.330;   75.817; -221.113; -174.796
571.608;   37.873; -181.098; -173.823
571.886;  -64.667; -671.111; -581.799
572.164;  -55.223; -739.121; -621.782
572.443;  -45.037; -562.105; -512.811
572.721;  -39.162; -399.117; -289.790
572.999;  -28.719; -280.117; -168.788
573.277;   92.207;  379.894;  620.191
573.555;  306.259;   94.894;   37.190
573.834; 1451.006;  -86.117; -114.788
574.112; 1694.022;  880.893;  811.193
574.390;  512.564; -143.111;  -96.801
574.668;    5.700;  -91.112;  -61.797
574.946;    1.859; -165.106; -187.810
575.224;    4.026;   71.891;  -16.803
575.502;  -26.058; -200.116; -204.791
575.780;  -74.124; -767.112; -829.798
576.058;  228.414; 1589.889; 1004.200
576.336;  -22.756; -210.110; -129.801
576.614;  -63.849; -511.112; -340.798
576.891;   57.606; -711.115; -823.794
577.169;  520.438; -158.108; -285.805
577.447;  622.171;  169.893;  202.193
577.725;  278.455;  629.888;  854.201
578.003;   17.053;  -71.112; -371.798
578.280;   88.272; -208.104; -242.812
578.558;   51.605; -450.115; -422.793
578.836;  120.763; -210.114; -145.795
579.114;   52.399; -630.112; -670.797
579.391;   54.733;   -6.117;  -18.789
579.669;  -87.918; -595.114; -704.794
579.947;  173.843; -326.107; -127.806
580.224;  351.993; -692.107; -524.806
580.502;  330.572;  127.893;   76.193
580.779;   18.939;  -42.117;   75.210
581.057;  -77.319; -584.109; -470.804
581.334;  -97.539; -726.102; -695.815
581.612;   32.910;   54.895;  511.190
581.889;  -45.900;  -83.101; -129.818
582.167;  -39.561; -298.099; -190.821
582.444; -107.581; -845.102; -814.817
582.721;   90.995;  657.899;  715.183
582.999;   53.111; -326.100; -167.821
583.276;  559.161; -812.123; -713.779
583.553;  772.590; -364.102; -294.816
583.831;  251.019; -607.104; -631.812
584.108;   52.861;  349.892;  174.195
584.385;   14.936; -122.102;  -98.815
584.662;  -67.534; -651.111; -828.801
584.940;   28.515;  204.889;  204.199
585.217;  -29.581;  -73.113; -303.796
585.494;   26.999;   71.890;  118.198
585.771;  216.981; -250.109; -354.804
586.048;  534.669; -196.113;  -76.796
586.325;  335.268; -721.110; -773.801
586.602;   93.922;  230.896;  213.188
586.879;  -17.442; -499.100; -580.820
587.156;   50.685; -156.105; -331.810
587.433;  -33.383; -701.102; -667.817
587.710;   66.801;  152.888;  234.202
587.987;  302.341; -264.105; -236.811
588.264;  812.078;  315.888;  387.202
588.541; 1429.525;  -61.104;   26.187
588.818; 2794.208;   72.892;  171.196
589.095; 2397.470; -163.104; -174.812
589.371;  388.779; -459.109; -414.804
589.648;    9.922; -581.107; -437.807
589.925;   27.814; -517.114; -621.795
590.202;   21.601; -741.112; -607.798
590.478;   86.442; -166.105;  -73.811
590.755;  276.214; -241.108; -132.806
591.032; 2641.620; -741.110; -699.802
591.308; 3619.413; -732.094; -790.831
591.585; 1897.770; -573.110; -560.802
591.862;  173.719;-1056.102; -950.817
592.138;   61.812; -475.108; -474.805
592.415;  153.423; -486.104; -495.813
592.691; 1486.646;  460.896;  518.188
592.968; 1936.875; -208.098; -123.824
593.244;  925.516; -695.116; -595.790
593.521;   80.744; -105.102;  -42.817
593.797;   -6.410; -810.122; -720.780
594.074;  334.863; -611.096; -588.826
594.350;  676.274;  828.905;  729.172
594.626;  309.541; -303.111; -283.801
594.903;  122.620; -643.101; -645.817
595.179;  203.877;  243.896;  418.187
595.455;   13.773; -136.107; -150.807
595.731;  -16.797;  -19.103;  -38.814
596.008;  -42.440; -464.111; -434.800
596.284;   31.785; -187.100; -242.820
596.560;   65.644; -501.093; -493.833
596.836;  215.137; -173.105;  -70.810
597.112;  372.913; -582.108; -437.805
597.388;  309.136;  -49.097;  -48.826
597.665;  121.597;  437.887;  530.203
597.941;  -56.302; -572.089; -658.839
598.217;    8.473; -323.110; -293.802
598.493;  276.708;   61.891; -204.804
598.769;  530.179; -175.100;  -50.819
599.045;  336.341; -490.108; -562.806
599.321;   45.684; -193.100; -261.820
599.597;  151.682; -355.109; -476.804
599.872;  494.724;  409.896;  429.187
600.148;  375.987;  -61.097; -172.826
600.424;  311.095;   91.893;  202.193
600.700;  247.773; -170.107; -280.807
600.976;  124.606; -442.097; -464.825
601.252;  267.329; -226.109; -272.803
601.527;  230.300; -833.104; -840.813
601.803;  170.143; -453.105; -404.812
602.079;  195.929; -124.100; -118.819
602.354;  590.754; -620.092; -531.835
602.630;  862.069; -140.113; -482.796
602.906; 2427.950; -910.101; -863.818
603.181; 7109.021; -627.119; -534.786
603.457; 6077.685;   98.903; -278.826
603.733;  868.929; -605.120; -626.783
604.008; 1003.009; -245.106; -164.810
604.284; 3212.971; -636.101; -580.817
604.559; 2790.205;   -3.112;  -42.799
604.835;  509.362; -163.105; -225.810
605.110;  424.989; -732.099; -892.821
605.385;  712.597;  224.907;  267.167
605.661;  700.751; -625.095; -729.829
605.936; 1247.216; -664.108; -737.806
606.211; 1045.185;  -17.103; -170.815
606.487;  215.709; -329.114; -376.794
606.762;   28.146; -791.119; -745.786
607.037;  -12.138; -501.105; -433.810
607.313;  -49.130; -589.096; -574.828
607.588;  -13.416; -375.106; -137.810
607.863;   30.574;  -28.101; -143.818
608.138;  182.372;  513.890;  516.198
608.413;   37.393; -576.099; -592.822
608.688;   49.212; -203.108; -267.805
608.964;  224.303; -509.106; -218.809
609.239;  262.485; -107.105; -212.810
609.514;  258.618;  281.895;  240.188
609.789;  669.197; -187.104; -716.812
610.064;  918.193; -435.096; -609.827
610.339;  939.479; -855.109; -799.804
610.614; 1296.934; -131.100; -315.820
610.889;  706.643;  215.895;  107.188
611.163;   63.093; -407.104; -591.812
611.438;   64.485;   81.886; -167.794
611.713;    1.921; -467.101; -499.817
611.988;   62.073; -144.101; -328.818
612.263;    0.836; -771.102; -717.815
612.538;  217.294;  385.887;  251.204
612.812;  194.011; -832.100; -911.820
613.087;  151.998; -358.098; -338.823
613.362;  -54.327; -497.107; -557.807
613.637;   39.881;  261.897;  138.186
613.911;  -16.170; -256.092; -345.835
614.186;  124.046; -249.107; -292.807
614.460;  732.247; -842.081; -758.854
614.735;  830.696;  -55.087;  -17.843
615.010;  161.186;   43.912;  -82.841
615.284;  260.312;  360.892;  246.195
615.559;  377.728; -792.092; -955.835
615.833;  283.566;  -76.099;  -87.822
616.108;   10.940; -225.090; -390.837
616.382;  136.798;  274.913;  402.156
616.656;  146.315; -241.090; -232.837
616.931;  527.567; -785.099; -700.822
617.205; 1127.776; -973.104; -979.813
617.480; 1035.341;  -91.125;    6.225
617.754;  176.863; -396.125; -128.774
618.028;   12.384; -369.129; -382.768
618.302;   62.210;   73.892;  -25.805
618.577;  -60.868; -371.103; -518.815
618.851;  -61.724; -399.109; -600.803
619.125;  -46.285; -335.134; -378.759
619.399;  -27.074; -244.104; -374.813
619.673;  -34.902; -330.115; -515.792
619.947;  -54.312; -333.114; -448.795
620.222;  -21.583; -198.110; -204.801
620.496;  -13.323;  -47.121;  -96.782
620.770;   20.669; -187.122;  -93.781
621.044;  214.160;  323.895;  346.190
621.318;  752.755; -653.120; -614.783
621.592;  691.978; -430.121; -409.783
621.866;  390.556; -476.112; -572.799
622.140;   29.667; -207.116; -356.791
622.413;   49.810;  138.889;  112.200
622.687;  -34.454; -746.101; -492.817
622.961;    2.560; -130.108; -143.805
623.235;  -70.589; -633.111; -661.800
623.509; -106.733; -816.105; -848.811
623.783;   16.494;  -12.107;   48.193
624.056;  -28.269; -254.120; -280.783
624.330;   38.600;   63.888;   -3.797
624.604;   57.714; -271.116; -355.790
624.877;   83.371;  180.890;   26.198
625.151;   26.083; -249.114; -238.794
625.425;  -30.497; -150.103; -283.814
625.698;  -69.710; -367.119; -374.785
625.972;  -90.302; -799.110; -765.802
626.245;   56.341;  685.884;  484.210
626.519;  -51.515; -426.120; -340.784
626.792;  -40.727; -192.107; -380.807
627.066;  -91.713; -485.122; -662.779
627.339; -100.931; -736.110; -663.802
627.613;   42.059;  351.880;  148.216
627.886;   52.750;  187.891; -612.803
628.160;  -19.870;  312.880; -161.783
628.433;  -97.732; -695.125; -703.775
628.706;  -84.740; -517.120; -615.784
628.979;   21.850;  296.876;  117.223
629.253;  -81.930; -785.119; -833.786
629.526;  384.353; -334.126; -253.772
629.799;  387.857; -641.123; -479.778
630.072;  183.986; -497.128; -516.769
630.346;  -58.259;-1115.116;-1080.790
630.619;  483.323; -467.107; -545.808
630.892;  660.587;  709.889;  593.200
631.165;  352.701;  790.896;  679.187
631.438;  -76.047;-1092.112;-1055.798
631.711;   50.785;  453.877;  257.221
631.984;  -55.989; -523.117; -624.789
632.257;  -56.567; -636.117; -681.789
632.530;  -54.185; -412.119; -433.785
632.803;   13.756; -109.115;    7.207
633.076;  -57.921; -360.123; -422.777
633.349;    2.590;  173.872;  121.231
633.622;  -49.636; -187.119; -240.785
633.895; -134.894; -903.120; -823.783
634.167;  -77.145; -496.126; -525.773
634.440;  -21.453;  -19.116; -137.792
634.713;   -4.131;  -22.119; -120.786
634.986;   90.480;  593.871;  453.233
635.258;  -74.846; -507.115; -597.793
635.531;   93.529;  742.882; -343.788
635.804;  -28.815; -303.117; -318.789
636.077;  -98.657; -830.116; -852.791
636.349;    2.452; -586.115; -474.793
636.622;  392.077; 1695.874; 1392.228
636.894;  260.860; -474.120; -909.784
637.167;  167.547; -836.127; -789.771
637.439;   25.868; -278.128; -213.770
637.712;  -58.646; -312.126; -293.772
637.984;  -75.731; -635.116; -707.791
638.257;  367.554;  515.877;  488.222
638.529;  588.869; -881.125; -924.776
638.802;  242.461; -508.128; -449.769
639.074; -111.257; -927.122; -952.781
639.346; -121.518; -942.135; -930.757
639.619;   -6.182;  -79.142; -319.744
639.891;   -7.713;  -83.122; -168.779
640.163;  -95.211; -689.122; -756.780
640.435;   23.191;  273.878;  103.220
640.708;    9.842;  -72.122; -132.780
640.980;  -46.356; -366.122; -362.781
641.252;  181.446;  -25.121;  -71.781
641.524; 1795.048;  580.879;  573.219
641.796; 1828.200;-1094.121; -907.782
642.068;  312.601; -191.121; -300.782
642.340;  -72.247; -486.121; -566.783
642.613;   28.580;  294.880;  323.217
642.885; -101.193; -787.120; -878.783
643.157;  -42.091; -810.120; -658.784
643.428;   51.960;  170.880;  218.216
643.700;  -80.588; -498.120; -425.784
643.972;  -38.961;  -16.119; -133.785
644.244;  -90.584; -474.119; -559.785
644.516;  -54.782; -250.119; -114.786
644.788;   58.369;  662.881;  548.214
645.060;  -28.104;  -12.119; -124.786
645.332; -100.077; -525.118; -535.787
645.603;   32.000;  479.882;  342.213
645.875;  -77.323; -334.118; -369.787
646.147;  155.029; 1487.882; 1242.212
646.418;  -68.120; -931.117; -918.788
646.690;  148.432; -714.117; -715.789
646.962;   35.784; -413.117; -451.789
647.233;   -2.464;   15.883;   11.211
647.505; -116.212; -595.117; -475.790
647.776;   26.039;  328.884;  229.210
648.048;   -4.459; -248.116; -418.790
648.320;  -81.407; -752.116; -679.791
648.591; -153.080;-1055.116; -958.791
648.862;  -87.603; -505.116; -577.792
649.134;   21.148;  115.885;  198.208
649.405;  -45.475; -661.115; -618.792
649.677;  -55.948; -475.115; -598.793
649.948;    0.629; -181.115; -296.793
650.219;   -6.594;  -37.115; -147.793
650.491;  -90.493; -431.114; -520.794
650.762; -134.116; -705.114; -731.794
651.033;  -90.814; -437.114; -424.795
651.304; -106.387; -743.114; -728.795
651.576;  -62.110; -680.114; -645.795
651.847;  -54.409; -250.113; -140.796
652.118;  -45.482;  -32.113; -189.796
652.389; -107.355; -639.113; -722.796
652.660;  -35.628; -147.113;  -89.797
652.931; -135.926; -897.112; -871.797
653.202;  -87.175; -382.112; -541.798
653.473;  -54.323; -633.112; -533.798
653.744;  159.879; -595.112; -590.798
654.015;  132.681; -356.112; -303.799
654.286;  -61.967; -642.111; -663.799
654.557;  -55.791; -586.111; -521.799
654.828; -159.764;-1114.111;-1088.800
655.099;  -85.912; -404.111; -291.800
655.370;  -96.210; -427.111; -543.801
655.641; -124.158; -656.110; -714.801
655.911; -107.632; -618.110; -638.801
656.182;   25.820;  437.890;  387.198
656.453;   67.297;  830.890;  746.198
656.724;  -76.951; -466.110; -426.802
656.994;  -93.124; -553.109; -568.803
657.265; -108.998; -862.109; -873.803
657.536;  -79.896; -500.109; -377.804
657.806; -108.194; -561.109; -593.804
658.077; -142.342; -866.109; -950.804
658.347;  -95.840; -523.108; -598.805
658.618; -116.413; -646.108; -694.805
658.888;  -41.387;  -41.108;  112.195
659.159;  -74.810; -432.108; -548.806
659.429;  -28.383; -292.108; -349.806
659.700;   10.619; -435.107; -390.807
659.970;   -5.079; -370.107; -359.807
660.241;   19.422; -754.107; -921.807
660.511;  507.999; -147.107; -174.808
660.781;  103.676; -793.106; -748.808
661.052;  -46.172; -222.106; -381.808
661.322;  -24.495;   21.894;   -9.809
661.592;    5.831;  257.894;  148.191
661.862;  -81.042; -369.106; -382.810
662.133;  -98.690; -551.105; -502.810
662.403; -108.413; -770.105; -676.810
662.673;  -61.136; -256.105; -213.811
662.943;  -94.310; -612.105; -551.811
663.213;   -8.158;  -85.105;  -81.811
663.483;  -87.106; -593.104; -568.812
663.753;  -49.829; -194.104; -152.812
664.023;  -20.352;   68.896;  -32.813
664.293;  -66.951; -319.104; -126.813
664.563; -113.774; -694.104; -648.813
664.833; -128.997; -743.103; -608.814
665.103; -139.170; -730.103; -793.814
665.373; -124.418; -766.103; -806.814
665.643;  -77.392; -863.103; -918.815
665.913;   20.785; -534.103; -714.815
666.182;  150.712; -685.102; -719.816
666.452;  259.839;  -22.102;  -89.816
666.722;  -31.684; -724.102; -784.816
666.992; -133.233; -948.102; -921.817
667.261; -107.781; -824.102; -808.817
667.531;  192.971;  134.899;   45.183
667.801;  558.148; -440.101; -412.818
668.070;  228.225;  714.899;  697.182
668.340; -101.974; -883.101; -840.819
668.609;   93.428;  588.900;  301.181
668.879;  -76.395; -490.100; -558.819
669.149;  -74.918; -539.100; -516.820
669.418; -103.641; -698.100; -726.820
669.688;  -37.739; -482.100; -666.820
669.957;   86.837; -423.099; -546.821
670.226;  -33.761; -268.099; -331.821
670.496;  -99.359; -431.099; -635.822
670.765;  -79.707; -418.099; -501.822
671.034; -133.830; -872.099; -828.822
671.304;  -11.504;   55.902; -111.823
671.573; -154.152;-1085.098; -957.823
671.842;   71.100; -380.098; -294.823
672.112;   35.577; -692.098; -586.824
672.381;   -2.821; -239.098; -214.824
672.650; -135.620;-1005.097;-1021.825
672.919;  -99.493; -631.097; -507.825
673.188;  -88.316; -681.097; -878.825
673.457; -146.089;-1101.097;-1143.826
673.726;  -82.562; -579.096; -646.826
673.995;  -41.786; -533.096; -479.826
674.265;   -9.784; -263.096; -333.827
674.534;   16.593; -183.096; -235.827
674.802;   12.945; -618.096; -703.828
675.071; 1037.872; -886.095; -801.828
675.340; 4150.248; -464.095; -339.828
675.609; 1398.575;  103.905;   82.171
675.878;   87.777; -949.095; -893.829
676.147;   29.054;  -26.095;   -8.829
676.416;   92.456; -210.094; -294.830
676.685;  755.682; 1000.906; -622.830
676.953;  127.359; -603.094; -452.831
677.222;  -34.314; -193.094; -273.831
677.491;  -39.162;  -24.094; -127.831
677.759;  -17.035;   11.907;  172.168
678.028;   -6.534; -279.093; -222.832
678.297;   -7.632;   71.907;  197.168
678.565; -139.330; -898.093; -944.833
678.834;  -66.578; -311.093; -268.833
679.102;  -72.301; -411.092; -391.834
679.371; -148.175; -898.092; -727.834
679.639; -131.273; -797.092; -786.834
679.908; -123.721; -794.092; -724.835
680.176; -144.744; -895.091; -941.835
680.445;  -83.692; -346.091; -352.835
680.713;  -17.515;  -58.091;  -23.836
680.982;  -97.989; -523.091; -525.836
681.250; -111.937; -578.091; -507.837
681.518; -100.860; -534.090; -751.837
681.787;  -12.233; -204.090; -167.837
682.055;  -68.681; -490.090; -422.838
682.323; -147.305; -993.090; -992.838
682.591;   39.422; -216.090; -538.838
682.859;  113.624;    9.911;  -35.839
683.128;   19.001;  232.911;  497.161
683.396; -170.372;-1102.089;-1122.840
683.664;  -52.821; -241.089;   21.160
683.932;    8.856;  144.911;  -76.840
684.200;  -87.292; -576.088; -320.841
684.468;  -18.215;  -73.088; -124.841
684.736;  -35.463; -214.088; -175.841
685.004; -120.787;-1024.088; -982.842
685.272;  -36.260; -880.088; -774.842
685.540;  -60.758; -499.087; -557.843
685.808;  -85.031; -651.087; -682.843
686.076; -103.079; -894.087; -969.843
686.343;  -62.678; -601.087; -815.844
686.611;   43.099; -195.087; -224.844
686.879;  471.651; -530.086; -553.844
687.147; 3476.353; -483.086; -480.845
687.414;  966.005;  -12.086; -169.845
687.682;   -0.894; -658.086; -757.846
687.950;  314.158;  259.915;  263.154
688.217;   14.860; -792.085; -760.846
688.485;   12.262; -632.085; -636.847
688.753;  538.264;  -11.085; -102.847
689.020;  178.765; -820.085; -851.847
689.288;  -88.033; -853.084; -787.848
689.555;  -19.731; -195.084; -148.848
689.823;  -47.829; -241.084; -345.849
690.090;  -79.802; -546.084; -651.849
690.358; -142.276; -877.084; -897.849
690.625;   -7.699;  120.917;   45.150
690.892;  -75.722; -403.083; -369.850
691.160;  -31.170;   72.917;  -35.850
691.427;   -6.768;  141.917;  130.149
691.694; -128.216; -855.083; -929.851
691.962; -133.290;-1177.082;-1060.852
692.229;   10.862;  127.918;   56.148
692.496;   74.964;  130.918;  -49.852
692.763;    6.616; -164.082; -201.853
693.031;  -74.732; -739.082; -716.853
693.298;  -63.706; -509.081; -368.853
693.565;  313.696; -155.081; -163.854
693.832; 1349.898;   -5.081;   -9.854
694.099;  159.450; -643.081; -642.855
694.366;  -56.098; -882.081; -896.855
694.633;  -60.197; -920.080; -633.855
694.900;  738.355; 4367.920; -114.856
695.167;  437.757; -214.080; -380.856
695.434;   96.059; -646.080; -623.856
695.701;  181.211;  121.921;  -61.857
695.968;  493.287; -365.079; -361.857
696.234;  967.814; -415.079; -646.858
696.501; 9963.241; -776.079; -614.858
696.768; 5170.743; -554.079; -617.858
697.035;  296.370; -632.078; -667.859
697.302;   14.996; -448.078; -552.859
697.568;    8.573; -458.078; -497.859
697.835;  -44.450; -683.078; -624.860
698.102;  -15.798; -498.078; -407.860
698.368;   73.654;  384.923;  396.139
698.635;  -42.120;  -47.077; -424.861
698.901;  -31.668; -240.077; -348.861
699.168;   68.959; -534.077; -456.862
699.435;   63.861;  -72.077;  -13.862
699.701; -119.637; -868.076; -764.862
699.968;    9.139;  144.924; -441.863
700.234; -102.059; -783.076; -822.863
700.500;  -56.257; -448.076; -539.864
700.767;   -5.555;   -1.075;   26.136
701.033; -113.653;-1015.075; -963.864
701.299;  -49.102; -450.075; -483.865
701.566;  119.550;  950.925;  763.135
701.832;   24.427;  -31.075;  -76.865
702.098; -101.746;-1054.074;-1034.866
702.365;  -95.669;-1098.074;-1030.866
702.631;  -21.442;-1038.074;-1063.867
702.897; 1358.059; -765.074; -676.867
703.163; 2320.311;  348.926;  254.133
703.429;  156.538; -256.073; -273.868
703.695;  -33.160; -796.073; -792.868
703.961;   12.017; -214.073; -210.868
704.227;  -58.857; -630.073; -725.869
704.493;  110.145;  613.927;  510.131
704.759;  -34.053; -565.072; -540.870
705.025;   20.474; -203.072; -194.870
705.291;  -27.249; -666.072; -562.870
705.557;  175.752;  719.928;   34.129
705.823;   17.804; -742.072; -694.871
706.089;  135.506; -307.071; -326.871
706.355;  325.358; -315.071; -244.872
706.620; 5092.885; -776.071; -729.872
706.886; 7453.536; -309.071; -362.873
707.152;  708.738; -818.070; -973.873
707.418;  -33.910;-1153.070;-1186.873
707.683;  -11.633; -550.070; -530.874
707.949;  -47.606; -547.070; -578.874
708.215;   -5.080; -129.070; -207.874
708.480;  -20.478; -520.069; -420.875
708.746;   80.799;   68.931;   28.125
709.011;  -49.974; -578.069; -612.876
709.277;  -73.522; -538.069; -543.876
709.542;  -43.171; -428.069; -387.876
709.808;    0.406;  -59.068;   89.123
710.073;  -81.642; -577.068; -695.877
710.339;  -31.190; -242.068; -228.877
710.604;   79.037; -780.068; -845.878
710.869;  327.338; -277.068; -366.878
711.135;  -82.035; -715.067; -628.879
711.400;  -89.933; -507.067; -608.879
711.665;  -70.606; -404.067; -479.879
711.931; -101.329; -661.067; -677.880
712.196; -128.228; -876.067; -954.880
712.461;  100.899; -402.066; -490.880
712.726;  136.901; -727.066; -771.881
712.991;  -87.397; -647.066; -664.881
713.256;  -51.170; -350.066; -332.882
713.521;  -61.944; -417.065; -381.882
713.787;  -67.467; -454.065; -472.882
714.052;  -34.390; -214.065; -400.883
714.317; -117.763;-1045.065; -981.883
714.581;  926.439; -374.065; -268.883
714.846; 1363.341; -822.064; -888.884
715.111;  110.092;  261.936;  257.116
715.376;  -28.281;  -86.064; -223.885
715.641;  -18.279; -365.064; -367.885
715.906;  306.823;   15.936; -551.885
716.171;  141.925;  221.937;  209.114
716.436;   46.276;  -78.063; -104.886
716.700; -120.072; -818.063; -692.886
716.965; -127.095; -794.063; -807.887
717.230;  -71.118; -339.063; -392.887
717.494;  -35.791;  -40.062; -134.888
717.759;  -99.340; -784.062; -640.888
718.024;    8.212;  269.938;  250.112
718.288;   70.114;  685.938;  395.111
718.553; -142.559; -803.062; -977.889
718.817; -150.957; -883.061; -899.889
719.082;  -32.906; -115.061; -125.890
719.346; -135.879;-1000.061; -947.890
719.611;  -43.952; -300.061; -255.891
719.875;  -96.600; -568.060; -537.891
720.140;  -69.298; -453.060; -603.891
720.404;   26.828; -136.060; -249.892
720.668;  888.605; -475.060; -411.892
720.933;  338.132;  146.940;  137.108
721.197; -112.591; -667.059; -600.893
721.461; -141.189; -851.059; -826.893
721.725;  -15.938;  -21.059; -250.894
721.990;  -66.511; -284.059; -204.894
722.254;  -37.759;  -26.059; -108.894
722.518;  -67.307; -286.058; -442.895
722.782;  -94.780; -743.058; -594.895
723.046;  111.646;  614.942;  570.105
723.310;   12.273;  374.942;  210.104
723.574;  -89.900; -654.058; -614.896
723.838;  -99.973; -576.057; -642.897
724.102;  -46.196; -226.057; -239.897
724.366; -137.470;-1032.057; -978.897
724.630;  -96.568; -749.057; -571.898
724.894;  -70.016; -722.057; -514.898
725.158;    5.086;   38.944; -295.898
725.422;  -49.587; -394.056; -327.899
725.685;  -75.685; -441.056; -349.899
725.949;  -73.409; -566.056; -519.900
726.213;  -80.207; -732.056; -811.900
726.477;  182.320;-1020.055; -933.900
726.740;  145.997; -274.055; -104.901
727.004;  309.899; -384.055; -510.901
727.268; 3146.825; -442.055; -400.901
727.531;  888.102; -961.055; -775.902
727.795;  -52.746; -713.054; -673.902
728.059;  -53.644; -552.054; -557.903
728.322;  -71.692; -841.054; -669.903
728.586;   37.809; -692.054; -701.903
728.849;  -87.864; -695.053; -756.904
729.112; -110.687; -812.053; -912.904
729.376; -131.085; -959.053; -905.904
729.639;  -72.933; -536.053; -536.905
729.903; -108.282; -733.053; -699.905
730.166;  -39.930; -437.052; -399.906
730.429;  -33.203; -317.052; -468.906
730.693;  -76.776; -355.052; -894.906
730.956;  208.651;  810.948;  651.093
731.219;  712.277; -310.052; -103.907
731.482;  130.129;-1003.051; -894.907
731.745;  110.156; -794.051; -935.908
732.009;    7.383;  -30.051;   50.092
732.272; -101.090; -904.051; -771.909
732.535;  -50.139; -300.051; -310.909
732.798; -152.787;-1083.050;-1166.909
733.061;  -60.135; -430.050; -456.910
733.324;    3.767;   31.950; -180.910
733.587;   60.719;  290.950;  365.090
733.850;  -67.155; -973.049;-1050.911
734.113;   29.222;   33.951;   32.089
734.376;    6.724; -328.049; -447.912
734.639;  207.101; 1188.951; 1011.088
734.901;   55.428; -180.049; -402.912
735.164;  517.629; -883.048; -837.913
735.427; 1360.706; -166.048; -355.913
735.690;  125.133; -205.048; -234.913
735.952;  -24.515; -923.048; -925.914
736.215;  -20.538;-1113.048;-1009.914
736.478;   34.989; -771.047; -774.915
736.740;  202.315;   33.953;  129.085
737.003;  683.117; -658.047; -672.915
737.266; 4251.744;  -94.047;   46.084
737.528;  468.246; -682.047; -660.916
737.791;  311.298; -316.046; -327.916
738.053;  765.724;  465.954;  649.083
738.316;10373.401; -162.046; -136.917
738.578; 7527.878; -770.046; -736.918
738.841;  433.705; -382.046; -446.918
739.103;  179.107; -875.045; -777.918
739.365;  503.958;   79.955;  -69.919
739.628;   -5.365; -884.045; -805.919
739.890;  -26.388; -758.045; -710.919
740.152;  -51.636; -692.044; -754.920
740.414;  -16.234; -408.044; -359.920
740.677;  -36.483; -785.044; -634.921
740.939;  -51.081; -587.044; -487.921
741.201;  283.121; -432.044; -572.921
741.463;   52.623; -689.043; -745.922
741.725;   -0.125;  -21.043; -199.922
741.987;   44.526;  220.957;  116.078
742.249;   -1.622; -751.043; -859.923
742.511;  217.305; -703.043; -794.923
742.773;   12.082; -546.042; -546.924
743.035;  123.834;  796.958;  533.076
743.297;  -38.840; -963.042;-1013.924
743.559;  768.962; -278.042; -262.925
743.821;   63.514; -735.042; -744.925
744.083;   20.241;  -44.041; -149.925
744.345;  -89.432; -869.041; -892.926
744.607;   36.569;   75.959;  122.074
744.868;  -49.954; -490.041; -554.927
745.130; -108.827; -994.041;-1008.927
745.392;   33.275;   -1.040;  -44.927
745.653;  -11.048; -411.040; -378.928
745.915;  154.653;  896.960;  631.072
746.177;   45.430;   35.960;  -43.928
746.438;   -3.743; -428.040; -543.929
746.700;  -50.591; -947.039; -988.929
746.961;   -2.339; -659.039; -740.930
747.223;  128.313; -190.039;  -74.930
747.484;   81.664; -391.039; -471.930
747.746;  138.366;  -23.038; -106.931
748.007;  116.068; -647.038; -689.931
748.269;  296.795; -468.038; -440.931
748.530;  497.472; -852.038; -638.932
748.791;  255.973; -354.038; -420.932
749.053;  449.125;  286.963;  163.067
749.314;  454.102; -236.037; -169.933
749.575;  518.754; -945.037; -905.933
749.836;  879.956; -217.037;   86.066
750.098; 2426.282;  -60.037;  -21.934
750.359;36967.084;  414.964;  555.066
750.620; 9767.986; -121.036; -220.935
750.881; 1039.938; -585.036; -513.935
751.142; 1369.590; -950.036; -938.936
751.403;16481.491; -789.036; -705.936
751.664; 7541.918;-1034.035; -999.936
751.925;  516.995; -175.035; -262.937
752.186;  275.597; -298.035; -278.937
752.447;  130.149; -590.035; -445.937
752.708;   56.425; -532.035; -648.938
752.969;    4.702; -566.034; -576.938
753.230;  -16.646; -777.034; -672.939
753.491;   -1.344; -650.034; -631.939
753.751;   64.758;  109.966;   19.061
754.012;   82.884;  258.967;  181.060
754.273;   41.561; -174.033;  -71.940
754.534;   -4.137; -487.033; -580.940
754.794;  -84.310; -926.033; -911.941
755.055;  154.242; 1051.967;  881.059
755.316;  -62.807; -700.032; -566.942
755.576;  -28.405; -606.032; -576.942
755.837;  -44.153; -527.032; -695.942
756.097;  -37.801; -530.032; -564.943
756.358;  -65.099; -725.032; -770.943
756.618;  -49.973; -705.031; -641.943
756.879;   -7.471; -254.031; -349.944
757.139; -132.219;-1098.031;-1116.944
757.400;  -58.542; -538.031; -553.945
757.660;  -20.165; -365.031; -401.945
757.920;   23.587; -266.030; -228.945
758.181;  -20.337; -468.030; -351.946
758.441;  -83.235; -870.030; -809.946
758.701;  -22.708; -308.030; -215.946
758.961;  -21.856; -220.030; -278.947
759.222;  -51.779; -574.029; -502.947
759.482;  -87.403; -683.029; -723.948
759.742;  -88.876; -706.029; -547.948
760.002;    7.751;  -83.029; -143.948
760.262;   33.503;   50.972;  182.051
760.522;  -40.445; -498.028; -574.949
760.782;  -53.569; -738.028; -612.949
761.042;  -30.467; -618.028; -573.950
761.302;   56.560;   55.972;  -18.950
761.562;   45.512; -164.027; -154.951
761.822;   91.214; -710.027; -551.951
762.082;  -44.685;-1104.027;-1093.951
762.342;   64.992; -328.027; -403.952
762.601;   75.644; -567.027; -506.952
762.861;  367.296; -281.026; -207.952
763.121;  395.948; -406.026; -411.953
763.381; 7052.824; -499.026; -485.953
763.640; 8125.726; -139.026; -307.954
763.900;  343.378; -242.026; -203.954
764.160;   83.605; -458.025; -491.954
764.419;  -18.768; -726.025; -782.955
764.679;  -68.492; -795.025; -726.955
764.939;   -9.215; -124.025; -210.955
765.198;  -79.763; -608.025; -563.956
765.458;  -79.586; -710.024; -612.956
765.717;  -81.234; -454.024; -590.957
765.976;  -66.408; -428.024; -411.957
766.236;  -69.481; -475.024; -610.957
766.495;    7.421;  260.977;   73.042
766.755;  -93.027;-1090.023; -987.958
767.014;   10.900; -594.023; -665.958
767.273;  -64.874; -373.023; -397.959
767.533;  -62.772; -228.023; -307.959
767.792;  -38.995; -151.022; -188.960
768.051;  -48.918; -228.022; -276.960
768.310;  -83.266; -546.022; -650.960
768.569;   -4.515; -161.022;    4.039
768.828;  -32.138; -285.022; -363.961
769.088; -124.361;-1050.021; -942.961
769.347;  -75.509; -755.021; -599.962
769.606;  -99.257; -876.021; -857.962
769.865; -118.205;-1016.021;-1033.963
770.124;   -8.829; -411.021; -336.963
770.383;  -54.752; -778.020; -910.963
770.641;   -6.600; -398.020; -400.964
770.900;  -71.423; -953.020; -846.964
771.159;  -49.871; -851.020; -951.964
771.418;  -30.445; -917.020; -779.965
771.677;  117.682; -224.019; -293.965
771.936;  125.834; -794.019; -865.966
772.194; 1991.386; -465.019; -437.966
772.453;10639.563; -213.019; -391.966
772.712;  754.664;  416.982;  329.033
772.970;  111.841;   32.982;   63.033
773.229;   61.393;  -22.018;  102.033
773.488;  -87.155; -814.018; -770.968
773.746;   40.597;  296.982;  335.032
774.005;   17.198;  190.983;  -22.969
774.263;   10.725;  243.983;  177.031
774.522;  -37.823; -422.017; -548.969
774.780;  -70.746; -484.017; -417.970
775.039;  -99.294; -551.017; -531.970
775.297;  -29.168; -135.016; -351.970
775.555; -110.241; -489.016; -612.971
775.814; -124.464; -618.016; -570.971
776.072; -121.787; -749.016; -740.971
776.330; -108.685; -630.016; -520.972
776.589; -122.884; -703.015; -721.972
776.847; -127.207; -645.015; -624.973
777.105; -177.330;-1016.015;-1032.973
777.363;  -75.178; -459.015; -454.973
777.621; -135.426; -660.015; -717.974
777.879;  -29.300;  -42.014;   32.026
778.138; -101.898; -554.014; -717.974
778.396;  -97.846; -585.014; -526.975
778.654; -168.869;-1015.014; -970.975
778.912;  -75.692; -269.014; -371.976
779.170; -131.741; -880.013; -803.976
779.427; -155.664; -922.013; -897.976
779.685; -132.412; -880.013; -832.977
779.943;  -85.835; -654.013; -593.977
780.201; -162.483; -964.012; -883.978
780.459; -107.356; -651.012; -610.978
780.717;  -90.430; -440.012; -390.978
780.974; -104.453; -449.012; -490.979
781.232;  -59.651; -358.012; -338.979
781.490;  -74.874; -551.011; -472.979
781.747;  -98.872; -555.011; -476.980
782.005;   25.604;  462.989;  254.020
782.263; -171.469; -542.011;-1004.981
782.520;  -97.067; -326.011; -501.981
782.778; -162.940;-1013.010;-1051.981
783.035; -165.738; -962.010; -938.982
783.293;  -62.462; -248.010; -206.982
783.550;  -62.410; -134.010; -198.982
783.808; -138.658; -764.010; -776.983
784.065; -164.106; -745.009; -874.983
784.322;  -41.854;   25.991;  -86.984
784.580; -134.878; -915.009; -771.984
784.837;  -87.626; -392.009; -466.984
785.094; -138.424; -783.009; -762.985
785.352;  -66.097; -304.008; -404.985
785.609;  -96.520; -934.008; -839.985
785.866;  -81.844; -345.008; -401.986
786.123;  -75.317; -639.008; -583.986
786.380; -116.315; -665.008; -604.987
786.637;  -43.938; -225.007; -380.987
786.895;  -12.261; -456.007; -543.987
787.152;  -55.410; -135.007; -267.988
787.409;  -42.883; -123.007; -225.988
787.666;  -87.256; -299.006; -378.988
787.923; -113.504; -616.006; -695.989
788.179; -110.652; -551.006; -584.989
788.436; -109.201; -585.006; -585.990
788.693;  -42.224;  -92.006;  -87.990
788.950;  154.353; -125.005; -112.990
789.207;  241.480; -381.005; -372.991
789.464;  -56.768; -161.005; -301.991
789.720;  -22.042;  150.995;  110.009
789.977; -154.490;-1003.005; -671.992
790.234;  -34.713;   44.996;  -66.992
790.490; -144.961; -884.004;-1031.993
790.747;  -34.759;  -85.004;   22.007
791.004;  -28.657; -426.004; -348.993
791.260;  -90.281; -430.004; -560.994
791.517; -102.504; -843.003; -788.994
791.773;  -46.702; -379.003; -342.994
792.030; -118.375; -596.003; -660.995
792.286;  -99.523; -686.003; -636.995
792.543;  -17.072;  -74.002; -159.995
792.799;  -56.370; -584.002; -382.996
793.055; -163.318;-1179.002;-1210.996
793.312; -100.366; -827.002; -816.997
793.568;  -57.314; -746.002; -599.997
793.824;    8.812; -226.001; -284.997
794.081;    7.339; -447.001; -508.998
794.337;   51.966; -664.001; -561.998
794.593; 1213.843; -319.001; -271.999
794.849; 6496.970; -746.001; -772.999
795.105;  323.496; -270.000; -261.999
795.361;    9.948; -490.000; -457.000
795.617;  -64.375; -875.000; -945.000
795.873;  -59.950; -360.000; -407.000
796.129;  -53.475; -368.000; -306.000
796.385;  -25.075; -124.000; -156.000
796.641;   72.500;  412.000;  550.000
796.897;  -81.125; -666.000; -635.000
797.153;   71.000;  453.000;  357.000
797.409; -112.500; -785.000; -868.000
797.665;  -78.300; -625.000; -732.000
797.921;  -88.775; -775.000; -762.000
798.176;  -74.775; -744.000; -747.000
798.432;  -65.200; -824.000; -596.000
798.688;  -95.350;-1174.000;-1078.000
798.943;   63.400; -165.000; -147.000
799.199;  -14.650;-1005.000; -959.000
799.455;  219.725;  369.000;  316.000
799.710;  109.900; -813.000; -380.000
799.966;  295.625; -162.000; -160.000
800.221;  456.025; -638.000; -721.000
800.477; 9846.225; -743.000; -710.000
800.732; 9314.375; -773.000; -800.000
800.988;  590.350;  205.000;  -19.000
801.243; 1558.400; -454.000; -344.000
801.498; 7093.450; -814.000; -739.000
801.754;  414.325; -289.000; -163.000
802.009;   71.100; -257.000; -335.000
802.264;  -61.450; -967.000;-1033.000
802.520;   19.950;  222.000;   -3.000
802.775;  -57.525; -524.000; -359.000
803.030;   50.000;  395.000;  356.000
803.285; -114.575; -840.000; -903.000
803.540;  -64.325; -686.000; -699.000
803.795;  -40.675; -648.000; -583.000
804.051;  -40.200; -279.000; -346.000
804.306;   16.475;  168.000;  128.000
804.561;  133.225;  451.000;  362.000
804.816;  130.950;  714.000;  861.000
805.071;    2.875; -185.000; -280.000
805.325;  217.100; -257.000; -427.000
805.580;  -98.075; -841.000; -877.000
805.835;  -21.600; -204.000; -297.000
806.090;  -78.275; -760.000; -676.000
806.345;  -24.000; -344.000; -264.000
806.600;  -17.725; -549.000; -632.000
806.854;  -37.175; -408.000; -538.000
807.109;  -18.625; -493.000; -577.000
807.364;   10.625; -407.000; -328.000
807.618;  -10.500; -415.000; -381.000
807.873;   60.600; -470.000; -494.000
808.128;   90.225; -257.000; -518.000
808.382;  105.225; -224.000; -332.000
808.637;   63.000; -440.000; -511.000
808.891;  178.825; -257.000; -180.000
809.146;   98.000; -902.000; -794.000
809.400;  264.975; -848.000; -923.000
809.654;  342.025; -779.000; -551.000
809.909;  497.400; -841.000; -927.000
810.163; 6404.450; -813.000; -651.000
810.418;17879.750; -940.000; -861.000
810.672; 1070.950; -685.000; -690.000
810.926;  706.675; -993.000; -973.000
811.180; 1322.825; -439.000; -372.000
811.434;29753.575;  240.000;  135.000
811.689;12796.875; -231.000; -365.000
811.943;  653.775; -936.000; -953.000
812.197;  298.825; -893.000; -671.000
812.451;  117.000; -379.000; -514.000
812.705;  -18.725; -809.000; -619.000
812.959;   -1.300; -263.000; -388.000
813.213;  -12.175; -283.000; -209.000
813.467;   49.475;  470.000;  253.000
813.721; -106.400; -764.000; -792.000
813.975; -128.975; -826.000; -877.000
814.229;   41.550;  430.000;  353.000
814.482;  -79.350; -517.000; -566.000
814.736; -115.375; -766.000; -744.000
814.990; -133.625; -779.000; -872.000
815.244;  -44.550; -228.000; -285.000
815.497; -101.100; -636.000; -601.000
815.751;  -29.425; -141.000;   82.000
816.005;  -84.375; -470.000; -586.000
816.258;  -54.450; -510.000; -363.000
816.512; -103.575; -693.000; -610.000
816.766;   -8.525;  121.000;  157.000
817.019;   13.975;  148.000;  149.000
817.273; -114.750;-1000.000; -802.000
817.526;  -44.200; -206.000; -173.000
817.779;  -34.600;-1049.000; -960.000
818.033;  -68.775; -693.000; -807.000
818.286; -122.500; -725.000; -792.000
818.540;  -92.475; -403.000; -403.000
818.793;  -77.775; -402.000; -489.000
819.046; -106.900; -582.000; -520.000
819.299;  -32.200; -157.000; -166.000
819.553; -109.250; -552.000; -592.000
819.806; -156.925;-1016.000; -838.000
820.059;  -69.600; -334.000; -354.000
820.312;   13.400;  152.000;  185.000
820.565;  -18.325;  110.000;  -27.000
820.818;  -56.600;  -59.000; -173.000
821.071; -156.925;-1041.000; -957.000
821.324; -106.800; -536.000; -540.000
821.577; -107.175; -457.000; -483.000
821.830;  -67.000; -270.000; -172.000
822.083; -127.750; -733.000; -288.000
822.336;  -66.600; -261.000; -167.000
822.589; -143.975; -805.000; -688.000
822.842; -140.575; -875.000; -770.000
823.094; -182.725;-1076.000;-1114.000
823.347; -132.075; -925.000; -729.000
823.600;    8.525;  402.000;  187.000
823.853;  -57.350; -311.000; -267.000
824.105;  -69.825; -331.000; -575.000
824.358; -114.750; -617.000; -716.000
824.611;   36.100;  234.000;   40.000
824.863;  -57.525; -612.000; -591.000
825.116;   45.875;  -33.000;   27.000
825.368;   74.125; -366.000; -372.000
825.621;  164.850; -186.000; -240.000
825.873;   84.350; -704.000; -737.000
826.126;  549.500; -669.000; -641.000
826.378;11345.400; -389.000; -505.000
826.630; 2993.425; -890.000; -898.000
826.883;   37.175; -754.000; -693.000
827.135;   23.025; -279.000; -270.000
827.387; -105.975; -893.000; -839.000
827.639;  -30.850;  -86.000;   32.000
827.892; -124.875; -742.000; -582.000
828.144; -148.825; -848.000; -804.000
828.396;  -37.075;  104.000;  -80.000
828.648; -104.775; -440.000; -333.000
828.900; -146.350; -702.000; -795.000
829.152; -107.550; -684.000; -683.000
829.404;  -73.625; -215.000; -267.000
829.656;  -57.250;  321.000;  214.000
829.908;  -31.925;  393.000;  229.000
830.160; -168.950;-1064.000;-1047.000
830.412;  -93.250; -481.000; -430.000
830.664; -122.425; -557.000; -665.000
830.916;  -78.575; -268.000; -206.000
831.167; -176.025;-1073.000; -951.000
831.419; -115.675; -623.000; -566.000
831.671; -155.825; -764.000; -809.000
831.923;  -88.750; -311.000; -447.000
832.174;  -71.775; -273.000; -331.000
832.426; -125.375; -493.000; -582.000
832.678; -188.475;-1043.000;-1091.000
832.929; -162.200; -947.000; -935.000
833.181;  -60.975; -575.000; -677.000
833.432;  -49.900;  -59.000; -186.000
833.684;  -20.750;  112.000;  -27.000
833.935; -109.175; -610.000; -566.000
834.187; -123.800; -829.000; -823.000
834.438;  -56.425;  -58.000;  -25.000
834.689;  -56.025; -255.000; -123.000
834.941;  -62.600; -343.000; -244.000
835.192; -103.650; -590.000; -533.000
835.443; -103.325; -419.000; -506.000
835.695;  -14.525;  138.000;  -16.000
835.946; -102.550; -608.000; -378.000
836.197; -101.500; -599.000; -622.000
836.448;  -95.625; -528.000; -395.000
836.699;  -65.225; -253.000; -341.000
836.950;  -18.050;   72.000;    7.000
837.201; -147.000;-1003.000; -987.000
837.452;  -59.525; -356.000; -170.000
837.703; -112.100; -791.000; -737.000
837.954;  -53.650; -205.000; -365.000
838.205;  -75.475;-1029.000;-1008.000
838.456;  173.075; -196.000; -282.000
838.707;   27.400; -423.000; -519.000
838.958;   -0.225; -634.000; -647.000
839.209;  281.850;   18.000;   40.000
839.460;  105.500; -439.000; -201.000
839.710;  159.850; -135.000; -297.000
839.961;  411.725;  730.000;  612.000
840.212;  343.250; -382.000; -497.000
840.462; 1085.650; -328.000; -277.000
840.713;17444.275; -571.000; -536.000
840.964; 7582.900;  -62.000; -143.000
841.214;  514.075; -384.000; -624.000
841.465;  567.900; -214.000; -141.000
841.715;  544.925; -417.000; -380.000
841.966;  646.050; -746.000; -685.000
842.216; 8871.075; -330.000; -431.000
842.466;36399.200; -169.000; -313.000
842.717; 2180.925; -964.000; -952.000
842.967;  329.300; -635.000; -641.000
843.217;  287.950;   20.000;   28.000
843.468;   70.450; -104.000; -132.000
843.718;  -32.900; -718.000; -726.000
843.968;  -95.975; -837.000; -765.000
844.218;    8.650; -315.000; -262.000
844.469;  -49.050; -577.000; -561.000
844.719; -118.175; -537.000; -682.000
844.969; -104.350; -550.000; -580.000
845.219; -138.275; -814.000; -862.000
845.469;  -66.075; -392.000; -342.000
845.719; -147.950; -792.000; -884.000
845.969;  -24.700;  119.000;  174.000
846.219; -124.650; -738.000; -720.000
846.469;   10.200;  464.000;  432.000
846.718;  -43.725; -115.000;   31.000
846.968; -145.925; -827.000; -827.000
847.218;  -48.275; -224.000; -371.000
847.468; -120.575; -586.000; -555.000
847.718; -145.875; -827.000; -798.000
847.967; -145.825; -826.000; -915.000
848.217;  -86.975; -449.000; -569.000
848.467;  -71.625; -405.000; -376.000
848.716; -113.950; -708.000; -725.000
848.966;    4.625; -372.000; -358.000
849.215;  -46.600; -428.000; -419.000
849.465;  -96.325; -785.000; -615.000
849.714; -144.550;-1132.000;-1150.000
849.964;  -80.500; -551.000; -613.000
850.213;  -29.300; -393.000; -355.000
850.463;   65.700;  137.000;  340.000
850.712;   18.525; -542.000; -567.000
850.961;   26.200; -739.000; -678.000
851.211;   86.400; -513.000; -504.000
851.460;  143.575; -635.000; -650.000
851.709;  551.425;  -25.000;   18.000
851.958; 9871.300; -912.000; -750.000
852.208;12918.325; -859.000; -879.000
852.457;  484.975; -181.000;  -13.000
852.706;   64.275; -791.000; -823.000
852.955;   10.600; -507.000; -528.000
853.204;  -83.050; -521.000; -461.000
853.453;  -83.350; -418.000; -458.000
853.702; -135.800; -660.000; -750.000
853.951; -109.100; -532.000; -520.000
854.200; -112.125; -613.000; -562.000
854.449; -135.000; -695.000; -661.000
854.698;  -92.375; -340.000; -279.000
854.946;  -72.225; -181.000; -284.000
855.195; -149.875; -843.000; -868.000
855.444; -100.750; -395.000; -420.000
855.693; -120.575; -345.000; -432.000
855.941; -119.550; -387.000; -516.000
856.190;  -66.875; -256.000; -382.000
856.439; -135.400; -652.000; -703.000
856.687;  -69.100;  -99.000;  -72.000
856.936; -120.750; -621.000; -323.000
857.184; -184.625;-1067.000;-1020.000
857.433; -118.850; -423.000; -512.000
857.681; -155.650; -989.000; -953.000
857.930;  -63.800; -282.000; -433.000
858.178; -172.325; -856.000; -929.000
858.427; -165.125; -802.000; -781.000
858.675; -125.275; -377.000; -544.000
858.923;  -99.925; -527.000; -819.000
859.172; -175.150;-1094.000;-1070.000
859.420;  -85.550; -339.000; -239.000
859.668; -127.475; -624.000; -628.000
859.916;  -23.850;  109.000;  115.000
860.164; -119.825; -699.000; -603.000
860.413;  289.100; -878.000; -696.000
860.661;  258.725; -709.000; -577.000
860.909;  -77.825; -339.000; -325.000
861.157;  -91.800; -277.000; -444.000
861.405; -133.125; -534.000; -670.000
861.653;   16.075;  310.000;  310.000
861.901;  194.825; -543.000; -613.000
862.149;   12.050; -801.000; -824.000
862.396;  -87.225; -297.000; -187.000
862.644;  -98.675; -368.000; -347.000
862.892;  -44.350;   98.000;  138.000
863.140; -135.350; -549.000; -530.000
863.388; -163.625; -815.000; -759.000
863.635; -126.875; -642.000; -601.000
863.883;  -27.425;  231.000;  190.000
864.131;  -94.475; -288.000; -357.000
864.378; -141.650; -675.000; -540.000
864.626; -105.025; -347.000; -415.000
864.873; -126.975; -556.000; -505.000
865.121; -151.650; -714.000; -799.000
865.368;  -57.850; -173.000;   75.000
865.616;  -54.225;  -33.000;  -40.000
865.863;  -72.925; -462.000; -506.000
866.111; -112.225; -795.000; -824.000
866.358;   18.100; -426.000; -420.000
866.605; 1997.700;  -64.000; -804.000
866.853; 2174.100; -621.000; -537.000
867.100;  -45.250; -728.000; -775.000
867.347; -108.625; -672.000; -611.000
867.594;  -87.975; -740.000; -714.000
867.841;   85.800;   97.000;   17.000
868.089; -159.500; -746.000; -698.000
868.336; -121.350; -477.000; -420.000
868.583; -148.675; -637.000; -741.000
868.830;  -59.350; -131.000; -170.000
869.077; -159.425; -859.000; -787.000
869.324; -134.475; -502.000; -458.000
869.571; -143.300; -398.000; -430.000
869.818; -127.475; -485.000; -439.000
870.065; -114.600; -439.000; -513.000
870.311; -119.550; -456.000; -542.000
870.558;  -96.850; -332.000; -311.000
870.805; -103.025; -320.000; -384.000
871.052; -113.200; -494.000; -369.000
871.298;  -61.525; -204.000; -131.000
871.545;  -80.275; -151.000; -185.000
871.792;  -89.975; -173.000; -222.000
872.038;  -79.125;   43.000; -126.000
872.285; -138.625; -496.000; -387.000
872.532; -104.700; -357.000; -387.000
872.778;   -0.825;  556.000;  403.000
873.025;  -97.975; -384.000; -359.000
873.271;   16.950;  501.000;  578.000
873.517;  -38.325; -133.000; -209.000
873.764;  -46.575; -193.000;  -80.000
874.010;  -67.125; -143.000; -230.000
874.257;  -56.150;  123.000;   90.000
874.503; -132.575; -579.000; -479.000
874.749;  -74.250;   31.000;  275.000
874.995;  -59.300;  -80.000;  -20.000
875.242; -132.000; -540.000; -478.000
875.488; -117.825; -414.000; -439.000
875.734;  -55.850; -106.000; -234.000
875.980;  183.175; -872.000;-1032.000
876.226;  386.175; -157.000; -255.000
876.472;   -5.400;  343.000;  237.000
876.718;  -45.425;  184.000;  158.000
876.964;  -43.400;   56.000;   55.000
877.210; -142.075; -547.000; -677.000
877.456; -150.000; -630.000; -557.000
877.702; -188.050; -821.000; -832.000
877.948; -113.875; -377.000; -497.000
878.193;  -14.350;  361.000;  255.000
878.439;  -96.600; -487.000; -472.000
878.685; -112.250; -272.000; -343.000
878.931; -130.850; -618.000; -676.000
879.176;  -81.550; -201.000; -201.000
879.422; -184.025; -933.000; -820.000
879.668;   52.975;   10.000;   79.000
879.913;  144.450;   53.000;  137.000
880.159;  -65.825; -112.000;  -17.000
880.404;  -55.300; -152.000; -162.000
880.650;  -46.125;   91.000;  141.000
880.895; -177.625; -670.000; -710.000
881.141; -123.650; -454.000; -428.000
881.386; -140.825; -503.000; -658.000
881.631;  -93.600; -311.000; -166.000
881.877;  -44.250;  112.000;  -13.000
882.122; -140.900; -684.000; -600.000
882.367;  -89.075; -136.000; -186.000
882.612;  -85.075;  -80.000; -176.000
882.858; -176.675; -877.000; -823.000
883.103; -102.800; -297.000; -267.000
883.348; -151.900; -759.000; -852.000
883.593; -150.200; -677.000; -602.000
883.838;  -57.450; -311.000;  -24.000
884.083;   26.975;  353.000;  288.000
884.328;  -97.950; -564.000; -545.000
884.573;  -57.150; -196.000; -143.000
884.818;  185.925; -694.000; -531.000
885.063;  205.925; -348.000; -315.000
885.308; -102.100; -475.000; -398.000
885.553;  -23.950;  245.000;  325.000
885.797; -135.325; -545.000; -615.000
886.042;  -74.825;    8.000;   58.000
886.287; -100.200; -253.000; -211.000
886.532;  -52.850;   26.000;  204.000
886.776; -104.950; -407.000; -525.000
887.021; -152.425; -621.000; -574.000
887.265; -157.850; -685.000; -689.000
887.510; -129.375; -557.000; -496.000
887.755; -104.825; -194.000; -164.000
887.999; -150.875; -552.000; -575.000
888.244;  -65.425;  -58.000;  161.000
888.488;  -31.275;  371.000;  393.000
888.732; -131.975; -368.000; -520.000
888.977; -138.375; -622.000; -567.000
889.221; -165.100; -683.000; -659.000
889.465; -139.775; -422.000; -566.000
889.710;  -83.550;  -56.000; -299.000
889.954;   -8.450;  579.000;  467.000
890.198; -147.550; -584.000; -707.000
890.442; -157.375; -716.000; -712.000
890.687; -160.200; -800.000; -753.000
890.931; -105.225; -273.000; -210.000
891.175; -143.550; -502.000; -500.000
891.419;  -72.025; -105.000; -110.000
891.663;  -94.900; -239.000; -112.000
891.907; -170.675; -801.000; -545.000
892.151; -179.275; -920.000; -815.000
892.395; -118.925; -274.000; -387.000
892.638;  -33.950;  408.000;  291.000
892.882; -177.575; -780.000; -867.000
893.126;    8.200;  758.000;  558.000
893.370;  -87.525; -167.000; -168.000
893.614; -153.900; -714.000; -715.000
893.857; -102.550; -183.000; -197.000
894.101; -150.450; -527.000; -631.000
894.345;  -64.100;  300.000;  150.000
894.588;   17.925;  569.000;  380.000
894.832;  -89.350; -178.000;  -84.000
895.075;  -89.525;   15.000;  -92.000
895.319; -130.450; -552.000; -420.000
895.563; -115.375; -413.000; -353.000
895.806; -156.175; -628.000; -741.000
896.049;  -61.600; -576.000; -368.000
896.293;   84.675;  527.000;  405.000
896.536;  -74.225; -465.000; -468.000
896.779;  -58.475; -149.000;   -1.000
897.023; -139.125; -751.000; -714.000
897.266;  -36.725;  325.000;  269.000
897.509; -188.300; -900.000; -901.000
897.752;  -52.125;  149.000;  171.000
897.996; -194.125; -972.000; -864.000
898.239;  -42.350;  168.000;  102.000
898.482; -128.225; -431.000; -453.000
898.725;  -48.225;  101.000;   53.000
898.968; -156.275; -609.000; -744.000
899.211; -117.350; -513.000; -361.000
899.454; -114.975; -633.000; -539.000
899.697;  -75.700;   90.000;  -43.000
899.940; -169.125; -761.000; -757.000
900.182; -104.350; -335.000; -405.000
900.425; -100.825; -150.000; -298.000
900.668;  -29.775;  491.000;  350.000
900.911; -109.375; -292.000; -345.000
901.154;  -67.950;  141.000;   -3.000
901.396; -157.550; -407.000; -412.000
901.639; -144.100; -430.000; -496.000
901.882; -191.850; -790.000; -809.000
902.124;  -87.125;  -29.000; -143.000
902.367; -118.200; -315.000; -361.000
902.609; -131.750; -476.000; -453.000
902.852;  -92.125; -108.000; -260.000
903.094; -132.550; -458.000; -337.000
903.337;  -60.800;  -26.000;   53.000
903.579; -123.000; -228.000; -441.000
903.821; -156.050; -597.000; -744.000
904.064;  -66.050;   85.000;  127.000
904.306;  -84.975; -126.000; -166.000
904.548; -107.025; -152.000; -366.000
904.790;  -98.100; -195.000; -340.000
905.033; -141.975; -625.000; -577.000
905.275; -138.925; -513.000; -524.000
905.517;   25.675;  468.000;  256.000
905.759;  -69.275; -667.000; -761.000
906.001;  -99.650; -322.000; -369.000
906.243;  -72.275; -162.000; -224.000
906.485;  108.075; -265.000; -207.000
906.727;  112.825; -499.000; -542.000
906.969;  -23.525;  -30.000; -135.000
907.211;  121.400; -316.000; -382.000
907.453;  296.975; -188.000; -237.000
907.695;   20.100; -158.000; -385.000
907.936;   26.550;  818.000;  706.000
908.178;  -68.650;   92.000; -135.000
908.420;  -74.050; -111.000; -162.000
908.662; -125.700; -633.000; -682.000
908.903;  -80.175; -208.000; -123.000
909.145;  -53.850; -240.000; -305.000
909.386;   -7.950;  315.000;  280.000
909.628;   17.975;  363.000;  397.000
909.870;    1.025;   29.000;  264.000
910.111; -109.750; -809.000; -949.000
910.353;    1.900; -123.000; -161.000
910.594;   -7.100; -574.000; -606.000
910.835;   62.675; -265.000; -326.000
911.077;  145.950; -503.000; -604.000
911.318;  269.425; -505.000; -471.000
911.559;  438.800; -577.000; -880.000
911.801; 1318.550; -284.000; -280.000
912.042; 9802.175;  -50.000; -159.000
912.283;26520.650;  404.000;  371.000
912.524; 4355.625; -396.000; -457.000
912.765;  471.250; -193.000;   79.000
913.006;  219.425; -307.000; -338.000
913.247;   50.250; -270.000; -290.000
913.488;  -15.425;  -43.000;   30.000
913.729;  -90.750; -373.000; -373.000
913.970;  -74.850;  -96.000; -292.000
914.211;  -73.775; -160.000; -198.000
914.452;  -56.500; -118.000;  -11.000
914.693;    4.300;  510.000;  592.000
914.934;   -4.850;  510.000;  440.000
915.175;  -64.325;   53.000;  -95.000
915.415;  -76.650; -137.000;   27.000
915.656;  -81.425;  -28.000;  192.000
915.897;  -98.425; -252.000;  -82.000
916.137;  -78.725;   74.000;   -9.000
916.378; -141.850; -573.000; -517.000
916.619;  -93.925; -159.000;  -63.000
916.859;  -32.375;  303.000;  330.000
917.100;  124.750; 1655.000; 1070.000
917.340;   39.850;  930.000;  728.000
917.581;   34.600;  965.000;  789.000
917.821;  -36.325; -171.000;  143.000
918.061;    3.375; -199.000;  -72.000
918.302;  -64.575; -152.000; -211.000
918.542;  -36.125;  -22.000;    3.000
918.782;   13.475;  369.000;  377.000
919.023;  114.525;  360.000;  427.000
919.263; 1727.150; 8131.000;  202.000
919.503; 1144.900; -137.000;  -54.000
919.743;  643.200;  390.000;  266.000
919.983;  277.950; -134.000;  -26.000
920.223;   77.325;  135.000;   14.000
920.463;  138.175;  631.000;  554.000
920.703;  120.850;   84.000;   39.000
920.943;  146.825; -110.000;   90.000
921.183;  210.750; -414.000; -405.000
921.423;  475.025;  307.000;  546.000
921.663;  694.025; -174.000; -257.000
921.903; 1498.900;  237.000;  173.000
922.143; 8144.600;  372.000;  389.000
922.383;32142.550;  158.000;  115.000
922.622;11510.075; -120.000;  -15.000
922.862; 1221.975;  796.000;  785.000
923.102;  454.875;  -51.000;   33.000
923.341;  177.225;   59.000;   74.000
923.581;   65.575;  450.000;  360.000
923.821;    8.700;  301.000;  398.000
924.060;    1.900;  351.000;  193.000
924.300;  -62.450;  -16.000; -128.000
924.539;  -22.675;  584.000;  473.000
924.779;   19.525;  812.000;  597.000
925.018;  -47.425;  247.000;  353.000
925.257;  -17.350;  595.000;  666.000
925.497;  -43.275;  447.000;  412.000
925.736;  -80.375;  -35.000;  102.000
925.975;   -1.200;  687.000;  669.000
926.214;   20.500;  907.000;  850.000
926.454;   24.875;  706.000;  757.000
926.693;  -45.025;  419.000;  543.000
926.932;   32.500; 1021.000;  825.000
927.171;   60.950; 1107.000; 1044.000
927.410;   50.375; 1144.000;  967.000
927.649;   11.775;  924.000;  742.000
927.888;  -25.875;  590.000;  564.000
928.127;  -23.525;  680.000;  678.000
928.366;   23.575;  842.000;  826.000
928.605;   25.850;  831.000;  737.000
928.844;  233.200; 1451.000; 1393.000
929.083;  587.425;  770.000;  613.000
929.321;  335.425; 1335.000; 1359.000
929.560;   89.475; 1158.000; 1122.000
929.799;  -40.575;  574.000;  475.000
930.038;   84.975; 1025.000; 1394.000
930.276;  -40.125;  334.000;  397.000
930.515;    3.275;  827.000;  681.000
930.753;  -14.050;  614.000;  589.000
930.992;  -26.150;  664.000;  717.000
931.230;    8.450;  847.000;  847.000
931.469;  162.875; 2162.000;  892.000
931.707;   65.100;  840.000;  751.000
931.946;   63.675; 1278.000; 1344.000
932.184;   44.150; 1437.000; 1175.000
932.423;   42.575; 1265.000;  963.000
932.661;   75.700; 1296.000; 1428.000
932.899;   38.875;  987.000;  821.000
933.137;    9.525;  754.000;  564.000
933.376;  149.350; 1664.000; 1335.000
933.614;  148.800; 1759.000; 1196.000
933.852;   31.775; 1357.000; 1171.000
934.090;  134.075; 1722.000; 1747.000
934.328;   99.600; 1252.000; 1457.000
934.566;   84.075; 1431.000; 1110.000
934.804;  122.275; 1263.000; 1309.000
935.042;  407.750; 1861.000; 1850.000
935.280; 1605.200; 2088.000; 2063.000
935.518; 1595.850; 2113.000; 2007.000
935.756;  365.650; 2481.000; 2316.000
935.994;  158.775; 1808.000; 1751.000
936.231;  341.125; 2890.000; 2950.000
936.469;  187.775; 2367.000; 2378.000
936.707;  166.825; 2220.000; 2167.000
936.945;  234.650; 2825.000; 2882.000
937.182;  196.775; 2679.000; 2741.000
937.420;  317.375; 3602.000; 3031.000
937.657;  386.175; 3365.000; 3478.000
937.895;  365.775; 3331.000; 3488.000
938.133;  307.375; 3540.000; 3528.000
938.370;  325.950; 3896.000; 4191.000
938.607;  388.650; 4488.000; 4205.000
938.845;  549.675; 5587.000; 5549.000
939.082;  497.400; 5387.000; 5177.000
939.320;  540.075; 5799.000; 5728.000
939.557;  646.400; 6549.000; 6491.000
939.794;  701.950; 7285.000; 7097.000
940.031;  891.000; 8421.000; 8368.000
940.269; 1087.450; 9552.000; 9107.000
940.506; 1121.925;10901.000;10507.000

