
Integration time [ms]: 100.000
Averaging Nr. [scans]: 40
Smoothing Nr. [pixels]: 0
Data measured with spectrometer [name]: 2101013U2
Wave   ;Sample   ;Dark     ;Reference
[nm]   ;[counts] ;[counts] ;[counts] 

394.013;   56.281; -450.257; -315.536
394.305;  217.679; -461.258; -419.536
394.596; 1127.827; -676.269; -527.514
394.887; 2767.743; -796.268; -654.518
395.178; 1037.873;  145.736;   11.476
395.470;   84.885; -210.263; -356.526
395.761;  206.458;  305.734;  394.479
396.052;  315.577; -545.284; -306.489
396.343;  307.921; -557.276; -454.503
396.634;  112.740; -200.279; -290.497
396.926;  107.115; -618.268; -565.517
397.217;  114.426;   11.725;  -17.504
397.508;   44.292; -366.273; -154.507
397.799;   38.190; -555.279; -571.497
398.090;   -6.165; -973.280; -902.495
398.381;  121.052;   11.708;  -11.473
398.672;   -9.747; -585.292; -742.473
398.963;   56.646; -348.279; -373.498
399.254;   99.862;   54.709; -209.475
399.545;  -22.645;-1017.266; -883.520
399.836;   60.961; -407.277; -343.501
400.127;   43.804; -205.295; -209.468
400.418;   38.361; -423.274; -392.506
400.709;   59.547; -359.281; -333.493
401.000;   59.541; -268.291; -309.476
401.290;  109.490;  225.698;  115.545
401.581;   56.760; -166.286; -228.485
401.872;   22.776; -542.298; -486.462
402.163;   52.821; -313.296; -252.467
402.454;   80.363; -123.291; -163.475
402.744;   58.563; -844.297; -813.465
403.035;  433.919; -226.293;  -86.471
403.326;  550.106; -366.292; -384.474
403.617;  370.970;  204.701;  165.539
403.907;  247.183; -593.283; -679.490
404.198; 2408.470; -545.307; -599.446
404.489; 6284.538; -618.283; -588.491
404.779; 2090.019; -618.302; -660.456
405.070;  229.273;  -67.304; -174.451
405.360;  339.320; -259.293; -238.472
405.651;  352.430;  125.699;   98.542
405.942;  182.905;  209.714;  127.516
406.232;  250.870; -432.285; -413.487
406.523;  461.138;  641.706;  758.530
406.813;   85.632; -579.286; -644.484
407.104;  337.251;  261.708;  144.527
407.394;  154.246; -604.299; -591.462
407.685;  137.569;  336.715;  222.513
407.975;   54.486; -400.283; -382.490
408.265;  113.902; -134.289; -190.478
408.556;   70.035; -472.291; -459.475
408.846;  157.764;  474.706;  429.530
409.137;   66.211;   -1.288; -216.480
409.427;   50.319; -193.285; -271.487
409.717;   29.470; -776.273; -692.508
410.007;  126.263;    4.715; -170.486
410.298;   87.956; -360.295; -342.469
410.588;   58.842; -495.285; -510.486
410.878;   30.222; -792.287; -873.482
411.168;  110.728; -481.298; -478.463
411.459;  117.706; -295.283; -242.489
411.749;   59.659; -609.292; -507.474
412.039;   59.384; -755.289; -386.480
412.329;  217.928;   40.722;  132.501
412.619;  178.183;  -62.286; -148.485
412.909;  361.605;  639.711;  594.521
413.199;  320.285; -130.280; -251.495
413.490;  400.896;  521.710;  352.523
413.780;  146.864;-1013.279; -913.496
414.070;  317.897;  -46.276;  235.497
414.360;  356.525; -729.278; -666.498
414.650;  433.493; -726.288; -688.482
414.940;  522.438; -538.280; -441.496
415.230;  927.690;   50.712;   74.519
415.520; 6153.051;  155.730;   66.486
415.809;24142.896; -305.281; -125.493
416.099;18563.563; -388.277; -229.501
416.389; 5219.909;  435.726;  236.494
416.679; 3065.538;   91.738;   85.473
416.969;  530.601; -527.287; -503.483
417.259;  479.291;  341.721;  171.503
417.549;  685.520;  522.718;  318.508
417.838; 1667.368; -205.268; -147.518
418.128; 5560.576;  650.710;  492.522
418.418; 4597.851; -491.272; -579.509
418.708; 3126.459;    9.726;  -48.506
418.997;11792.880; -474.275; -480.505
419.287;12180.516; -733.273; -790.507
419.577;11620.405; -160.283; -123.489
419.866;38449.861; -588.277; -498.501
420.156;39148.322; -242.270;  -55.513
420.446; 6965.156; -112.263;  -26.526
420.735;  860.016; -376.271; -446.512
421.025;  839.299; 1830.722;  315.502
421.314;  658.664; -203.271; -226.512
421.604; 1347.035;   89.732;  233.484
421.893;  777.685; -705.271; -602.511
422.183;  223.156; -487.263; -461.526
422.472;  389.562;  -36.271; -107.511
422.762;  461.810; -416.266; -379.521
423.051;  245.323; -916.276; -916.503
423.341;  311.868; -491.273; -439.507
423.630;  416.716; -121.265;   15.477
423.919;  381.379;   58.725;   49.495
424.209;  381.311;  -31.263;   56.473
424.498;  491.165;   68.732;  161.483
424.787; 1109.771; -535.267; -601.518
425.077; 3370.365;   34.735;   29.478
425.366; 4725.842; -734.262; -744.528
425.655; 9969.868;  639.727;  259.493
425.945;22044.820; -313.247; -268.554
426.234;12129.665;  117.741;  300.467
426.523; 5127.570;  -86.259; -350.534
426.812; 6953.681;  107.734;  159.480
427.101;10340.957; -127.269; -323.515
427.390;12985.676;  -55.270;  -86.514
427.680; 2864.689; -624.257; -411.538
427.969;  487.650; -330.255; -301.540
428.258;  303.931; -385.257; -477.536
428.547;  523.080;  449.728;  397.490
428.836; 1233.641; -421.253; -398.543
429.125; 1769.496; -199.259;  -72.534
429.414;  797.739; -330.251; -294.548
429.703; 3145.764; -231.251; -213.548
429.992; 9477.967; -938.250; -828.549
430.281; 6143.574; -397.264; -331.524
430.570;  563.604;  -21.252;   32.454
430.859;  540.894;  279.741;  352.466
431.148;  425.966;  636.752;  631.446
431.437;  278.904;  391.748;  367.454
431.725;  150.482; -544.257; -481.536
432.014;  125.923; -845.253; -756.545
432.303;  374.516; -149.239; -105.569
432.592;  591.430; -460.263; -178.525
432.881; 1054.467; -601.248; -437.554
433.169; 6245.326; -343.255;  -61.540
433.458;12736.175;  445.765;  540.424
433.747; 5278.847; -397.261; -289.529
434.036;  908.967; -275.242; -280.564
434.324; 2095.430; -395.249; -379.551
434.613; 3686.686;   40.757;  159.437
434.902; 1193.357;  333.760;  439.433
435.190;  523.290;   75.761;  295.431
435.479;  301.868;  -52.245;   83.441
435.767;  103.701; -411.244; -427.561
436.056;  209.013; -340.242; -294.563
436.345;  368.959; -372.240; -223.568
436.633;  370.500;   60.750;  383.450
436.922;  245.211;  208.760;  414.432
437.210;  554.065; -194.236;    1.426
437.499; 1788.648; -583.235; -432.576
437.787; 1974.315; -339.236;  -10.574
438.075;  521.646;   56.761;  162.430
438.364;  683.548;  -44.238;  250.429
438.652;  407.227; -286.226; -138.592
438.941;  129.517;    3.770;  269.415
439.229;   -6.799; -665.252; -466.545
439.517;   38.231; -160.234;  -85.577
439.806;   -8.957; -501.225; -290.595
440.094;  171.039;  377.766;  650.421
440.382;  156.393; -653.233; -302.580
440.670;  185.298; -361.235; -285.576
440.959;   30.635; -347.223; -170.599
441.247;   65.303; -151.229; -109.587
441.535;   97.580; -266.235;   31.423
441.823;   35.636; -497.234; -305.578
442.111;  185.082;  173.771;  327.412
442.400;  481.842; -628.245; -335.559
442.688; 1339.214; -111.234; -620.579
442.976;  950.073; -786.213; -450.617
443.264;  105.975; -324.224; -364.597
443.552;   95.278; -258.226;   51.408
443.840;  163.428;  602.765;  876.423
444.128;  111.167;  265.767;  269.420
444.416;    3.260; -694.228; -312.588
444.704;   16.490; -465.219;  -92.605
444.992;   58.156;   -0.226;  240.407
445.280;   42.717; -517.230;  -94.585
445.568;   57.626; -694.212; -396.618
445.856;  327.024; -174.221;  357.398
446.143;  744.111;  -54.220;   -7.604
446.431;  586.613;  -25.228;  625.411
446.719;  230.709;  489.783;  675.391
447.007;  167.362;  481.769;  705.416
447.295;  177.907;  597.777;  871.402
447.583;   92.451; -464.229;  -34.587
447.870;  146.796; -434.221; -202.601
448.158;  398.466; -104.230;  129.415
448.446;  287.212; -800.219; -338.604
448.733;  156.826;   13.776;  269.403
449.021;  241.626;   60.788;  341.382
449.309;  176.141; -296.210;  208.379
449.596;  205.505;  128.783;   59.392
449.884;  157.739; -571.222; -325.600
450.172;  147.569; -756.227; -406.590
450.459;  445.781;  645.786;  780.387
450.747; 2461.504; -411.218; -147.608
451.034; 7729.665;  493.772;  889.411
451.322; 6332.959; -413.214; -170.614
451.609;  554.553;  292.777;  508.403
451.897;  594.953; -550.203; -183.634
452.184; 1803.858; -622.223; -400.598
452.472; 1721.887;   97.792;  269.375
452.759;  327.388;  512.781;  864.395
453.047;  107.198; -407.212; -125.617
453.334;   76.921; -732.219; -216.606
453.621;   70.286; -438.214; -161.615
453.909;  109.845;   13.796;  384.368
454.196;   91.615; -299.199; -123.641
454.483;  199.641;  317.798;  540.364
454.771;  114.415; -215.208;  196.374
455.058;   36.218; -316.207;  102.374
455.345;  110.820;   71.807;  344.347
455.632;   86.121; -128.207;  235.373
455.919;   46.263;  -82.196;  182.354
456.207;  -56.155; -774.198; -450.642
456.494;  -26.872; -475.200;  -66.639
456.781;   16.212; -399.202; -198.635
457.068;   54.178; -253.206;  -29.628
457.355;  -31.671; -698.206; -401.629
457.642;   -9.166; -552.205; -290.630
457.929;   -6.114; -778.194; -417.651
458.216;   60.074; -575.212; -354.617
458.503;  246.516; -173.193;  -19.652
458.790;  217.788; -864.208; -630.625
459.077;  264.092;  -77.202;  110.364
459.364;  825.304; -350.195; -210.649
459.651; 1713.501;  -46.206;  220.372
459.938;  784.828; -864.209; -665.623
460.225;  145.145;  132.799;  276.363
460.512;  -43.740; -836.197; -688.645
460.799;   91.028;  -32.218;  320.392
461.086;   67.108; -370.200; -251.640
461.372;   44.920; -509.198; -279.642
461.659;   97.789; -165.196;  108.354
461.946;   39.990; -445.193;  -54.651
462.233;  226.355;  842.800;  888.361
462.519;  351.752; -814.201; -464.639
462.806; 1011.085; -768.197; -497.645
463.093;  900.560; -445.191;  -66.656
463.380;  -27.874; -920.186; -824.664
463.666;   46.162; -259.197;  -18.646
463.953;   91.149; -406.195; -243.648
464.239;  201.024; -173.195;  -77.648
464.526;  381.810;  413.806;  743.350
464.813;  339.597; -565.190; -304.658
465.099;  334.591;  606.807;  607.348
465.386;  322.219;  903.807;  921.348
465.672;   47.586; -694.197; -522.645
465.959;   19.489; -598.188; -520.662
466.245;    0.669; -468.193; -359.652
466.532;   91.872; -109.195;   63.352
466.818;   60.551; -357.186; -216.664
467.104;    8.566; -488.182; -415.672
467.391;  -22.502; -628.189; -459.658
467.677;   26.429; -289.186;    9.335
467.964;   11.180; -682.189; -471.660
468.250;   53.832; -331.186; -160.665
468.536;   79.800;   90.811;  180.341
468.822;  -34.131; -821.184; -574.668
469.109;  147.471;  351.827;  471.311
469.395;  172.229;  729.808;  787.346
469.681;  192.553;   46.811;  156.341
469.967; 1259.257; -699.188; -382.660
470.254; 2710.040; -494.188; -306.662
470.540; 1706.988; -601.196; -476.646
470.826;  259.352; -488.181; -397.675
471.112;  301.922;  288.816;  113.331
471.398;   87.102; -253.183;  -58.670
471.684;   25.130; -626.177; -447.680
471.970;   10.830; -918.180; -981.675
472.256;   18.353; -521.192; -441.654
472.542;    3.157; -499.171; -434.691
472.828;    7.162; -743.182; -607.672
473.114;   15.800; -380.166; -283.700
473.400;   14.946; -504.175; -293.684
473.686;   20.481; -452.166; -400.701
473.972;   41.336; -230.174; -131.687
474.258;  -38.279; -925.173; -843.689
474.544;  185.722; -183.178;   -2.679
474.830;  322.273;  -65.175;   45.316
475.116;  478.973; -123.190; -196.658
475.401;  682.558; -558.180; -467.676
475.687;  187.907; -725.180; -718.676
475.973;   -1.555; -673.181; -770.673
476.259;  230.425;  736.825;  764.315
476.544;  363.488; -539.176; -437.682
476.830;  831.478; -398.172; -322.690
477.116;  755.636; -430.177; -336.682
477.401;  129.957;  346.820;  358.324
477.687;  -19.679; -289.175; -405.684
477.973;   39.398;   21.819;   28.326
478.258;  -17.848; -448.163; -348.706
478.544;   45.287;   21.815;   61.334
478.829;  -55.813; -818.171; -738.692
479.115;  -36.423; -749.172; -651.690
479.401;   -9.744; -444.174; -449.686
479.686;   30.381; -253.180;  -74.676
479.972;  -45.373; -886.178; -776.680
480.257;   31.776; -258.166;  -65.700
480.542;   -4.534; -614.170; -469.693
480.828;  221.995; 1288.824; 1392.317
481.113;  -36.283; -464.176; -426.683
481.399;   -7.625; -236.161; -202.711
481.684;  -54.199; -620.166; -462.700
481.969;   20.814; -158.159;  -73.713
482.255;  -16.773; -439.169; -285.695
482.540;    1.252; -569.178; -441.680
482.825;   -1.829; -395.187; -404.663
483.110;   96.105;  -85.169; -105.696
483.396;  193.110; -840.157; -652.718
483.681;  493.461;  543.826;  730.313
483.966;  143.333; -696.160; -700.712
484.251;  -10.240; -404.174; -310.687
484.536;  -23.838; -356.165; -378.703
484.822;   17.113; -205.173; -218.687
485.107;  -22.577; -599.152; -502.726
485.392;  124.042;  662.836;  541.296
485.677;   70.515;  354.832;  163.302
485.962;  101.132;  160.843;  270.283
486.247;   90.084;  -14.162;   -8.707
486.532;   41.828; -178.166; -325.701
486.817;  159.195;  381.839;  431.291
487.102;  111.231; -453.154; -514.722
487.387;  683.312; -637.156; -652.718
487.672; 1202.022; -154.164;  -38.705
487.957;  745.727; -394.160; -286.711
488.241;  210.264; -290.150; -314.729
488.526;  745.349; -280.152; -148.726
488.811; 1211.929; -881.177; -818.680
489.096;  917.309; -666.154; -702.723
489.381;  489.221;    3.847;  162.275
489.666;  384.725; -428.161; -510.710
489.950;  173.262;  558.846;  627.277
490.235;  -26.916; -480.151; -458.728
490.520;  -57.676; -756.161; -723.710
490.804;  -65.086; -827.156; -736.719
491.089;   -9.870; -469.149; -299.732
491.374;   26.996; -132.164;  -75.704
491.658;   -6.084; -817.147; -717.735
491.943;  159.178; -657.152; -609.727
492.227;  243.927; -178.155;  -38.721
492.512;   49.757; -294.157; -341.717
492.797;  -65.126; -713.149; -716.731
493.081;  -58.081; -588.147; -598.735
493.366;  -37.850; -751.161; -635.711
493.650;  187.372;  831.859;  917.254
493.935;   36.491; -648.147; -447.734
494.219;  -56.941; -778.142; -687.743
494.503;  -46.781; -585.150; -487.730
494.788;   46.199;   46.842;   74.285
495.072;  109.966;  184.850;  434.271
495.356;  167.283; -463.148; -343.733
495.641;  467.676; -812.146; -736.736
495.925;  431.294; -976.156; -903.719
496.209;   38.029; -599.149; -451.732
496.494;  -49.190; -763.142; -544.744
496.778;  -11.119; -364.154; -360.722
497.062;  -54.232; -819.156; -627.719
497.346;  -32.497; -869.160; -640.711
497.631;  128.562;  580.852;  560.266
497.915;   75.086;  -64.145;  175.261
498.199;   61.010; -341.157; -277.718
498.483;   37.598; -562.152; -508.725
498.767;  187.817;  301.850;  300.271
499.051;  184.402; -126.149; -100.732
499.335;   29.275; -693.149; -739.731
499.619;  -34.728; -381.129; -423.767
499.903;   31.375; -272.155;  -65.721
500.187;   25.813; -588.153; -316.724
500.471;   32.178; -796.152; -595.727
500.755;   98.549;   62.839;  -96.710
501.039;   19.651; -270.155; -357.721
501.323;   82.474;  -21.141;  264.254
501.607;   19.827; -447.163; -503.706
501.891;   -4.314; -607.156; -512.718
502.174;  -36.978; -726.144; -585.741
502.458;   65.057;   89.849;  370.273
502.742;   31.547; -180.138; -191.751
503.026;  112.415; -412.147; -254.734
503.310;  168.712; -437.159; -375.713
503.593;  120.492; -464.147; -325.735
503.877;  127.862; -232.133; -156.760
504.161;  159.866;    2.847;  -50.724
504.444;  126.851; -841.158; -710.716
504.728;  466.570; -487.164; -522.704
505.012;  720.964; -257.150;  -76.729
505.295;  548.250; -417.161; -212.711
505.579;  530.543; -256.156; -496.719
505.862;  760.532; -555.145; -333.738
506.146;  757.040; -681.159; -758.714
506.429;  411.465;  568.841;  461.286
506.713;   66.286; -732.151; -667.728
506.996;  309.455;   90.846;  295.278
507.280;  346.165; -633.165; -474.703
507.563;  244.524; -469.155; -261.721
507.847;   91.464; -423.153; -112.724
508.130;   91.776; -665.161; -456.711
508.413;  112.822; -758.167; -577.700
508.697;  254.847; -151.167;   12.300
508.980;  153.865; -422.153; -312.724
509.263;  -23.105; -466.155; -450.720
509.547;   34.113; -124.150;   82.271
509.830;   38.453; -172.160;  140.289
510.113;   79.668;  128.844;  298.281
510.396;   33.896; -530.152; -300.725
510.680;  156.034; -818.145; -812.738
510.963;  577.810;  184.846;  180.277
511.246;  482.571; -493.150; -357.730
511.529;  271.889; -482.145;  -83.739
511.812;  383.784; -250.134;   10.241
512.095;  269.833; -740.151; -396.728
512.378;   63.246; -317.147; -245.736
512.661;   28.030; -703.137; -623.753
512.944;   30.361; -750.142; -637.744
513.227;   66.502; -170.137; -171.752
513.510;   30.347; -479.144; -671.741
513.793;    6.178; -485.140; -435.747
514.076;  133.243;  -43.127;  -39.771
514.359;  106.355; -294.149; -135.732
514.642;   85.214; -442.142; -567.744
514.925;  759.901;  581.860;  561.253
515.208; 1015.855; -498.134; -443.758
515.491;  667.444; -276.133; -182.761
515.773;  358.226; -410.143; -337.742
516.056; 2147.086;  249.864;  409.246
516.339; 2856.490; -754.136; -652.755
516.622; 1901.819; -518.150; -488.730
516.904; 1229.208;  882.857;  975.257
517.187;  584.801; -730.138; -523.752
517.470;  402.657; -568.143; -510.743
517.752;  435.343; -624.136; -470.756
518.035;  350.288; -708.139; -725.749
518.318;  368.065; -799.136; -744.755
518.600; 2494.173; -300.132; -325.762
518.883; 3427.164;  310.858;   88.256
519.165; 1629.794; -585.138; -426.751
519.448;  385.097;  -61.132;  -19.762
519.730;  202.725; -573.126; -415.773
520.013;  294.365;  588.867;  664.240
520.295;  805.936;  -94.134;  -15.759
520.578; 1820.035; -335.131; -305.764
520.860; 2006.247; -254.132;   56.238
521.143; 1087.920; -763.135; -584.756
521.425;  481.888; -251.125; -279.775
521.707;  698.518; -622.127; -380.771
521.990; 1831.444; -199.127;  167.229
522.272; 2084.605; -116.140;   -4.748
522.554;  914.877; -237.143; -157.742
522.836;  372.508;  -24.134;   99.241
523.119;  198.589; -496.148; -189.734
523.401;  146.067; -448.130; -314.766
523.683;   87.380; -865.137; -693.753
523.965;  282.449;  408.862;  260.248
524.247;  283.884;   54.878;  170.220
524.529;  204.610; -451.134; -367.759
524.812;  360.669;   -3.130;  191.234
525.094;  857.823; -773.138; -631.751
525.376; 1389.372; -143.124;   78.223
525.658;  843.912; -441.136; -339.754
525.940;   37.582; -805.131; -671.764
526.222;   43.266; -188.136;  -88.755
526.504;  105.005; -190.131;   32.237
526.786;  157.513; -960.133; -647.760
527.068;  308.553; -124.123;  -67.778
527.349;  108.534; -865.137; -774.754
527.631;  132.347; -137.132;   22.238
527.913;  121.943; -664.127; -450.771
528.195;  175.756; -761.125; -639.774
528.477;  255.006;  -93.134;  -30.758
528.759;  134.319; -648.130; -522.766
529.040;   59.676; -569.123; -293.778
529.322;   60.809; -235.125;  -10.774
529.604;  122.521;  -47.130;   93.233
529.886;  122.700; -546.126; -302.773
530.167;  109.813;  232.870;  192.235
530.449;   37.021;    1.853;   63.265
530.731;   29.358; -572.122; -459.779
531.012;   57.604; -513.120; -216.784
531.294;   59.443; -118.116;  -43.792
531.575;  144.038;  290.875;  538.225
531.857;   52.800; -548.135; -266.757
532.138;   97.972; -113.141;   40.254
532.420;  177.497;  294.865;  403.244
532.701;  215.240; -722.133; -751.760
532.983;  330.818;  232.867;  182.239
533.264;  127.273; -243.126;  175.228
533.546;  -32.084; -491.136; -508.755
533.827;   56.512;  173.867;   -1.759
534.109;   37.825; -352.135;  -80.757
534.390;   98.026; -725.132; -582.762
534.671;  253.621; -270.135;  -82.756
534.953;  133.779; -751.123; -611.779
535.234;   29.753; -426.117; -255.789
535.515; -101.563; -891.119; -735.785
535.796;  -14.786; -431.128; -193.770
536.078; -118.928;-1050.124; -904.777
536.359;    5.305;  -22.123;    3.221
536.640;  -16.042; -480.125; -197.774
536.921;  150.176;  225.871;  143.232
537.202;  383.795;  -87.138;  -16.751
537.483;  470.635;  251.869;  377.236
537.764;  169.863;   17.870;   98.235
538.045;  -37.720; -543.134; -371.758
538.326;  -22.672; -596.129; -447.768
538.607;   13.019; -686.127; -476.771
538.888;  181.120;   98.879;    5.218
539.169;  181.440; -704.122; -535.781
539.450;  313.525;  236.871;   16.233
539.731;  209.624; -361.121; -182.783
540.012;  146.754;  199.880;  412.216
540.293;   88.917;   82.876;  158.224
540.574;    7.538; -895.113; -717.796
540.855;  462.898;  435.879;  377.218
541.136;  529.387;   47.878;  139.220
541.416;  276.644; -161.130; -220.766
541.697;  206.130; -274.131; -170.763
541.978; 1042.224; -270.135; -315.757
542.259; 1333.919; -211.127; -236.771
542.539;  630.262; -191.116; -186.790
542.820;  182.538;  461.875;  480.225
543.101;  133.810;  -52.145;  -77.738
543.381;   19.019; -638.127; -591.771
543.662;  256.341;  159.873; -254.771
543.942;  589.840; -751.127; -830.770
544.223; 1068.964;  193.878;  161.219
544.504;  679.447; -275.124; -182.777
544.784;  585.600; -592.126; -408.773
545.065; 1648.665;  104.884; -254.791
545.345; 1976.337;  227.881;   14.215
545.626; 1292.488;  -14.113; -108.796
545.906;  904.137;   77.869;   98.235
546.186;  353.205;   92.874;  -95.773
546.467;  188.749;   99.877;  -95.778
546.747;  321.487;  264.884;  327.210
547.027;  374.745;   91.876;  111.223
547.308;  339.889; -376.127; -530.770
547.588;  410.804;  299.871;  371.232
547.868;  207.788;  458.870;  588.235
548.149;  189.373;  609.885;  593.207
548.429;  137.742; -347.127; -299.771
548.709;  196.979; -645.120; -461.784
548.989;  474.697;   84.882;   88.213
549.269; 2116.921;   10.868;  139.239
549.550; 4933.378;  215.877;  117.222
549.830; 4387.180; -758.111; -556.799
550.110;  873.013; -468.110; -320.801
550.390;  850.109; -128.122;  -56.779
550.670; 1161.683; -868.114; -783.795
550.950;  801.272; -509.121; -471.782
551.230;  183.843;  549.879;  460.218
551.510;  -16.229; -381.121; -326.782
551.790;   29.471; -173.109; -127.803
552.070;  243.249;  940.877; 1181.223
552.350;  405.641; -492.119; -377.786
552.630;  590.016;   -2.121;   77.219
552.909;  363.966;  181.884;   73.209
553.189;  228.402;  -49.132;   33.237
553.469;  206.891; -703.119; -514.786
553.749;  186.395; -469.127; -357.772
554.029;  164.532;   33.883;  -24.790
554.308;  146.252; -154.115;  -37.794
554.588;   71.463; -196.128; -204.770
554.868;   59.923; -366.121;  -47.782
555.147;  141.999; -114.115;  -46.793
555.427;  580.093; -260.116; -250.792
555.707; 3966.772; -284.115; -200.793
555.986; 4785.484; -719.111; -538.800
556.266; 2499.385;   23.884;   72.210
556.546;  109.446; -888.121; -675.782
556.825;  255.681; -657.114; -556.794
557.105; 1809.310; -125.128;   17.230
557.384; 2174.565;  122.884;  187.209
557.664;  802.118; -717.116; -508.792
557.943;  123.497; -557.121; -411.782
558.222;  179.775; -345.118; -344.788
558.502;  281.851; -116.115;  -76.793
558.781;  490.871;  194.885;  499.208
559.061;  403.275; -232.118; -227.788
559.340;  309.880;  302.883;  353.211
559.619;  698.035;   93.884;  148.210
559.899; 1037.182; -239.117; -266.789
560.178;  951.800; -778.115; -593.793
560.457; 3235.983; -623.117; -562.790
560.736; 4498.210; -472.111; -482.800
561.015; 2977.133; -500.128; -502.769
561.295;  380.715;  180.893;  215.193
561.574;  337.148;  119.885;  116.207
561.853;  502.050;  274.891;  303.197
562.132;  512.878;  -45.114;  182.206
562.411;  434.042;  396.879;  553.219
562.690;  140.646; -592.115; -458.792
562.969;  126.695;  472.888;  630.203
563.248;  491.639; 2966.878; 2487.219
563.527;  270.209; -290.111; -408.800
563.806;  380.017; -650.127; -521.771
564.085;  416.855; -297.105; -206.810
564.364;  245.585; -594.117; -405.790
564.643;  511.167; -276.121; -223.781
564.922; 1920.344;  221.890;  397.198
565.201; 1955.897; -640.109; -700.803
565.479;  817.420; -297.115; -219.792
565.758;  344.511; -810.128; -712.770
566.037;  475.474; -155.109; -100.803
566.316;  228.040; -286.116;  -28.791
566.595;   43.222;  -17.115;  -12.793
566.873;   91.311; -166.111;  -79.801
567.152;  -71.606; -490.113; -590.797
567.431;    5.536; -113.116;    6.210
567.709;   11.866; -344.107; -212.807
567.988;  288.206; -810.114; -769.794
568.266;  528.047; -160.115;  -68.793
568.545;  390.827; -644.100; -514.819
568.824;  590.919;  160.885;  356.208
569.102;  541.706; -351.114; -235.794
569.381;  243.468; -492.116; -407.792
569.659;  -43.809; -553.113; -553.796
569.938;   41.213; -743.122; -465.780
570.216;  105.026; -225.109; -225.804
570.494;  -30.441; -632.114; -572.795
570.773;   24.696;  202.879;  114.218
571.051;   -4.773; -373.123; -357.778
571.330;   49.913; -221.113; -174.796
571.608;   35.870; -181.098; -173.823
571.886;  -66.196; -671.111; -581.799
572.164;  -65.552; -739.121; -621.782
572.443;  -52.441; -562.105; -512.811
572.721;  -33.492; -399.117; -289.790
572.999;  -17.523; -280.117; -168.788
573.277;   89.828;  379.894;  620.191
573.555;  277.655;   94.894;   37.190
573.834; 1378.527;  -86.117; -114.788
574.112; 1570.843;  880.893;  811.193
574.390;  481.360; -143.111;  -96.801
574.668;    2.120;  -91.112;  -61.797
574.946;  -14.120; -165.106; -187.810
575.224;    3.747;   71.891;  -16.803
575.502;  -16.262; -200.116; -204.791
575.780;  -97.829; -767.112; -829.798
576.058;  224.484; 1589.889; 1004.200
576.336;  -27.160; -210.110; -129.801
576.614;  -58.528; -511.112; -340.798
576.891;   53.677; -711.115; -823.794
577.169;  475.209; -158.108; -285.805
577.447;  571.467;  169.893;  202.193
577.725;  262.076;  629.888;  854.201
578.003;    1.649;  -71.112; -371.798
578.280;   94.118; -208.104; -242.812
578.558;   49.451; -450.115; -422.793
578.836;  121.784; -210.114; -145.795
579.114;   43.620; -630.112; -670.797
579.391;   66.278;   -6.117;  -18.789
579.669;  -90.348; -595.114; -704.794
579.947;  172.239; -326.107; -127.806
580.224;  321.939; -692.107; -524.806
580.502;  328.193;  127.893;   76.193
580.779;    0.234;  -42.117;   75.210
581.057;  -65.648; -584.109; -470.804
581.334;  -96.517; -726.102; -695.815
581.612;   31.506;   54.895;  511.190
581.889;  -39.579;  -83.101; -129.818
582.167;  -39.140; -298.099; -190.821
582.444; -104.685; -845.102; -814.817
582.721;  101.791;  657.899;  715.183
582.999;   48.807; -326.100; -167.821
583.276;  510.656; -812.123; -713.779
583.553;  715.711; -364.102; -294.816
583.831;  259.590; -607.104; -631.812
584.108;   51.232;  349.892;  174.195
584.385;    7.557; -122.102;  -98.815
584.662;  -71.563; -651.111; -828.801
584.940;   31.611;  204.889;  204.199
585.217;  -28.560;  -73.113; -303.796
585.494;   20.670;   71.890;  118.198
585.771;  202.277; -250.109; -354.804
586.048;  499.515; -196.113;  -76.796
586.325;  310.364; -721.110; -773.801
586.602;   88.343;  230.896;  213.188
586.879;  -24.546; -499.100; -580.820
587.156;   41.131; -156.105; -331.810
587.433;  -40.037; -701.102; -667.817
587.710;   72.722;  152.888;  234.202
587.987;  303.237; -264.105; -236.811
588.264;  797.499;  315.888;  387.202
588.541; 1359.221;  -61.104;   26.187
588.818; 2671.804;   72.892;  171.196
589.095; 2314.341; -163.104; -174.812
589.371;  362.500; -459.109; -414.804
589.648;    9.993; -581.107; -437.807
589.925;   28.760; -517.114; -621.795
590.202;    7.122; -741.112; -607.798
590.478;   91.163; -166.105;  -73.811
590.755;  263.460; -241.108; -132.806
591.032; 2508.566; -741.110; -699.802
591.308; 3481.809; -732.094; -790.831
591.585; 1806.391; -573.110; -560.802
591.862;  139.465;-1056.102; -950.817
592.138;   57.758; -475.108; -474.805
592.415;  130.194; -486.104; -495.813
592.691; 1444.442;  460.896;  518.188
592.968; 1862.872; -208.098; -123.824
593.244;  917.136; -695.116; -595.790
593.521;   65.965; -105.102;  -42.817
593.797;  -20.015; -810.122; -720.780
594.074;  310.459; -611.096; -588.826
594.350;  671.870;  828.905;  729.172
594.626;  298.062; -303.111; -283.801
594.903;  104.491; -643.101; -645.817
595.179;  190.773;  243.896;  418.187
595.455;    7.169; -136.107; -150.807
595.731;    2.874;  -19.103;  -38.814
596.008;  -41.294; -464.111; -434.800
596.284;   29.181; -187.100; -242.820
596.560;   55.316; -501.093; -493.833
596.836;  206.833; -173.105;  -70.810
597.112;  341.809; -582.108; -437.805
597.388;  285.857;  -49.097;  -48.826
597.665;  110.793;  437.887;  530.203
597.941;  -72.955; -572.089; -658.839
598.217;   22.744; -323.110; -293.802
598.493;  261.704;   61.891; -204.804
598.769;  517.600; -175.100;  -50.819
599.045;  310.437; -490.108; -562.806
599.321;   59.655; -193.100; -261.820
599.597;  143.803; -355.109; -476.804
599.872;  492.896;  409.896;  429.187
600.148;  370.958;  -61.097; -172.826
600.424;  285.441;   91.893;  202.193
600.700;  247.294; -170.107; -280.807
600.976;  120.053; -442.097; -464.825
601.252;  237.725; -226.109; -272.803
601.527;  217.597; -833.104; -840.813
601.803;  147.189; -453.105; -404.812
602.079;  182.450; -124.100; -118.819
602.354;  556.951; -620.092; -531.835
602.630;  818.890; -140.113; -482.796
602.906; 2305.946; -910.101; -863.818
603.181; 6827.091; -627.119; -534.786
603.457; 5825.081;   98.903; -278.826
603.733;  848.650; -605.120; -626.783
604.008;  953.305; -245.106; -164.810
604.284; 3075.092; -636.101; -580.817
604.559; 2673.501;   -3.112;  -42.799
604.835;  499.108; -163.105; -225.810
605.110;  409.910; -732.099; -892.821
605.385;  713.043;  224.907;  267.167
605.661;  637.948; -625.095; -729.829
605.936; 1162.012; -664.108; -737.806
606.211;  986.631;  -17.103; -170.815
606.487;  203.455; -329.114; -376.794
606.762;    6.841; -791.119; -745.786
607.037;  -11.442; -501.105; -433.810
607.313;  -62.034; -589.096; -574.828
607.588;   -1.570; -375.106; -137.810
607.863;   50.620;  -28.101; -143.818
608.138;  172.668;  513.890;  516.198
608.413;   29.289; -576.099; -592.822
608.688;   42.008; -203.108; -267.805
608.964;  198.424; -509.106; -218.809
609.239;  257.081; -107.105; -212.810
609.514;  257.589;  281.895;  240.188
609.789;  654.893; -187.104; -716.812
610.064;  865.265; -435.096; -609.827
610.339;  895.625; -855.109; -799.804
610.614; 1196.206; -131.100; -315.820
610.889;  649.614;  215.895;  107.188
611.163;   49.290; -407.104; -591.812
611.438;   78.106;   81.886; -167.794
611.713;    3.067; -467.101; -499.817
611.988;   50.269; -144.101; -328.818
612.263;  -36.967; -771.102; -717.815
612.538;  200.115;  385.887;  251.204
612.812;  188.557; -832.100; -911.820
613.087;  148.269; -358.098; -338.823
613.362;  -63.381; -497.107; -557.807
613.637;   33.152;  261.897;  138.186
613.911;  -24.174; -256.092; -345.835
614.186;  102.567; -249.107; -292.807
614.460;  694.794; -842.081; -758.854
614.735;  797.668;  -55.087;  -17.843
615.010;  150.658;   43.912;  -82.841
615.284;  244.183;  360.892;  246.195
615.559;  362.300; -792.092; -955.835
615.833;  280.512;  -76.099;  -87.822
616.108;    1.812; -225.090; -390.837
616.382;  133.095;  274.913;  402.156
616.656;  152.987; -241.090; -232.837
616.931;  505.038; -785.099; -700.822
617.205; 1068.372; -973.104; -979.813
617.480;  966.961;  -91.125;    6.225
617.754;  173.434; -396.125; -128.774
618.028;   11.704; -369.129; -382.768
618.302;   73.831;   73.892;  -25.805
618.577;  -55.672; -371.103; -518.815
618.851;  -61.978; -399.109; -600.803
619.125;  -52.440; -335.134; -378.759
619.399;  -38.853; -244.104; -374.813
619.673;  -48.106; -330.115; -515.792
619.947;  -46.041; -333.114; -448.795
620.222;  -20.037; -198.110; -204.801
620.496;   -5.002;  -47.121;  -96.782
620.770;    3.964; -187.122;  -93.781
621.044;  219.806;  323.895;  346.190
621.318;  716.350; -653.120; -614.783
621.592;  665.273; -430.121; -409.783
621.866;  365.252; -476.112; -572.799
622.140;   19.813; -207.116; -356.791
622.413;   53.456;  138.889;  112.200
622.687;  -37.283; -746.101; -492.817
622.961;    4.481; -130.108; -143.805
623.235;  -58.643; -633.111; -661.800
623.509; -111.462; -816.105; -848.811
623.783;    7.990;  -12.107;   48.193
624.056;  -26.973; -254.120; -280.783
624.330;   42.645;   63.888;   -3.797
624.604;   47.760; -271.116; -355.790
624.877;   66.992;  180.890;   26.198
625.151;   40.628; -249.114; -238.794
625.425;  -40.026; -150.103; -283.814
625.698;  -67.039; -367.119; -374.785
625.972;  -97.231; -799.110; -765.802
626.245;   77.636;  685.884;  484.210
626.519;  -64.944; -426.120; -340.784
626.792;  -33.731; -192.107; -380.807
627.066;  -97.318; -485.122; -662.779
627.339; -108.335; -736.110; -663.802
627.613;   42.754;  351.880;  148.216
627.886;   51.071;  187.891; -612.803
628.160;  -30.275;  312.880; -161.783
628.433;  -98.311; -695.125; -703.775
628.706;  -90.869; -517.120; -615.784
628.979;   27.745;  296.876;  117.223
629.253;  -96.934; -785.119; -833.786
629.526;  359.523; -334.126; -253.772
629.799;  344.877; -641.123; -479.778
630.072;  160.706; -497.128; -516.769
630.346;  -58.438;-1115.116;-1080.790
630.619;  442.745; -467.107; -545.808
630.892;  626.207;  709.889;  593.200
631.165;  324.872;  790.896;  679.187
631.438;  -89.376;-1092.112;-1055.798
631.711;   40.755;  453.877;  257.221
631.984;  -60.918; -523.117; -624.789
632.257;  -69.522; -636.117; -681.789
632.530;  -67.939; -412.119; -433.785
632.803;   26.551; -109.115;    7.207
633.076;  -73.876; -360.123; -422.777
633.349;    0.485;  173.872;  121.231
633.622;  -49.790; -187.119; -240.785
633.895; -124.649; -903.120; -823.783
634.167;  -92.399; -496.126; -525.773
634.440;  -10.657;  -19.116; -137.792
634.713;  -27.436;  -22.119; -120.786
634.986;   89.100;  593.871;  453.233
635.258;  -83.125; -507.115; -597.793
635.531;   94.299;  742.882; -343.788
635.804;  -39.344; -303.117; -318.789
636.077;  -84.311; -830.116; -852.791
636.349;   -3.502; -586.115; -474.793
636.622;  390.648; 1695.874; 1392.228
636.894;  236.706; -474.120; -909.784
637.167;  141.167; -836.127; -789.771
637.439;   27.813; -278.128; -213.770
637.712;  -51.576; -312.126; -293.772
637.984;  -91.285; -635.116; -707.791
638.257;  363.700;  515.877;  488.222
638.529;  552.940; -881.125; -924.776
638.802;  245.306; -508.128; -449.769
639.074; -123.111; -927.122; -952.781
639.346; -117.898; -942.135; -930.757
639.619;    0.363;  -79.142; -319.744
639.891;   -0.793;  -83.122; -168.779
640.163;  -82.416; -689.122; -756.780
640.435;   42.711;  273.878;  103.220
640.708;   16.388;  -72.122; -132.780
640.980;  -37.560; -366.122; -362.781
641.252;  176.717;  -25.121;  -71.781
641.524; 1770.143;  580.879;  573.219
641.796; 1815.495;-1094.121; -907.782
642.068;  321.397; -191.121; -300.782
642.340;  -72.126; -486.121; -566.783
642.613;   39.701;  294.880;  323.217
642.885;  -97.348; -787.120; -878.783
643.157;  -46.546; -810.120; -658.784
643.428;   63.281;  170.880;  218.216
643.700;  -77.642; -498.120; -425.784
643.972;  -39.390;  -16.119; -133.785
644.244;  -96.064; -474.119; -559.785
644.516;  -57.487; -250.119; -114.786
644.788;   59.840;  662.881;  548.214
645.060;  -39.358;  -12.119; -124.786
645.332;  -95.856; -525.118; -535.787
645.603;   16.896;  479.882;  342.213
645.875;  -78.778; -334.118; -369.787
646.147;  155.699; 1487.882; 1242.212
646.418;  -73.124; -931.117; -918.788
646.690;  144.003; -714.117; -715.789
646.962;   37.855; -413.117; -451.789
647.233;  -14.919;   15.883;   11.211
647.505; -108.142; -595.117; -475.790
647.776;   21.335;  328.884;  229.210
648.048;   -9.463; -248.116; -418.790
648.320;  -69.386; -752.116; -679.791
648.591; -166.435;-1055.116; -958.791
648.862;  -95.358; -505.116; -577.792
649.134;   19.244;  115.885;  198.208
649.405;  -54.829; -661.115; -618.792
649.677;  -61.277; -475.115; -598.793
649.948;   -2.350; -181.115; -296.793
650.219;    7.426;  -37.115; -147.793
650.491;  -85.197; -431.114; -520.794
650.762; -123.945; -705.114; -731.794
651.033;  -78.443; -437.114; -424.795
651.304;  -88.241; -743.114; -728.795
651.576;  -79.790; -680.114; -645.795
651.847;  -49.388; -250.113; -140.796
652.118;  -41.186;  -32.113; -189.796
652.389; -110.134; -639.113; -722.796
652.660;  -39.007; -147.113;  -89.797
652.931; -139.806; -897.112; -871.797
653.202;  -80.129; -382.112; -541.798
653.473;  -78.752; -633.112; -533.798
653.744;  137.900; -595.112; -590.798
654.015;  131.952; -356.112; -303.799
654.286;  -69.671; -642.111; -663.799
654.557;  -47.570; -586.111; -521.799
654.828; -161.618;-1114.111;-1088.800
655.099;  -96.316; -404.111; -291.800
655.370; -111.764; -427.111; -543.801
655.641; -127.612; -656.110; -714.801
655.911; -116.011; -618.110; -638.801
656.182;   32.316;  437.890;  387.198
656.453;   80.118;  830.890;  746.198
656.724;  -86.280; -466.110; -426.802
656.994;  -87.528; -553.109; -568.803
657.265; -103.377; -862.109; -873.803
657.536;  -81.150; -500.109; -377.804
657.806; -126.823; -561.109; -593.804
658.077; -140.796; -866.109; -950.804
658.347;  -99.519; -523.108; -598.805
658.618; -112.467; -646.108; -694.805
658.888;  -25.641;  -41.108;  112.195
659.159;  -85.839; -432.108; -548.806
659.429;  -29.362; -292.108; -349.806
659.700;    4.265; -435.107; -390.807
659.970;  -10.883; -370.107; -359.807
660.241;    0.343; -754.107; -921.807
660.511;  484.320; -147.107; -174.808
660.781;   94.297; -793.106; -748.808
661.052;  -50.201; -222.106; -381.808
661.322;  -20.374;   21.894;   -9.809
661.592;   12.852;  257.894;  148.191
661.862;  -70.971; -369.106; -382.810
662.133;  -92.619; -551.105; -502.810
662.403; -125.392; -770.105; -676.810
662.673;  -55.265; -256.105; -213.811
662.943; -107.763; -612.105; -551.811
663.213;  -12.537;  -85.105;  -81.811
663.483;  -94.685; -593.104; -568.812
663.753;  -49.333; -194.104; -152.812
664.023;  -24.781;   68.896;  -32.813
664.293;  -65.104; -319.104; -126.813
664.563; -115.053; -694.104; -648.813
664.833; -121.126; -743.103; -608.814
665.103; -133.424; -730.103; -793.814
665.373; -115.272; -766.103; -806.814
665.643;  -79.045; -863.103; -918.815
665.913;   27.581; -534.103; -714.815
666.182;  131.208; -685.102; -719.816
666.452;  251.985;  -22.102;  -89.816
666.722;  -27.513; -724.102; -784.816
666.992; -139.911; -948.102; -921.817
667.261;  -92.034; -824.102; -808.817
667.531;  184.042;  134.899;   45.183
667.801;  521.694; -440.101; -412.818
668.070;  221.046;  714.899;  697.182
668.340; -101.277; -883.101; -840.819
668.609;   87.800;  588.900;  301.181
668.879;  -73.174; -490.100; -558.819
669.149;  -82.447; -539.100; -516.820
669.418; -102.545; -698.100; -726.820
669.688;  -36.218; -482.100; -666.820
669.957;   72.184; -423.099; -546.821
670.226;  -20.565; -268.099; -331.821
670.496;  -89.138; -431.099; -635.822
670.765;  -79.186; -418.099; -501.822
671.034; -143.234; -872.099; -828.822
671.304;  -26.107;   55.902; -111.823
671.573; -152.380;-1085.098; -957.823
671.842;   75.871; -380.098; -294.823
672.112;   28.173; -692.098; -586.824
672.381;    0.350; -239.098; -214.824
672.650; -141.748;-1005.097;-1021.825
672.919;  -92.796; -631.097; -507.825
673.188; -103.170; -681.097; -878.825
673.457; -154.618;-1101.097;-1143.826
673.726;  -87.041; -579.096; -646.826
673.995;  -40.489; -533.096; -479.826
674.265;  -17.362; -263.096; -333.827
674.534;   -7.711; -183.096; -235.827
674.802;   -6.609; -618.096; -703.828
675.071;  979.618; -886.095; -801.828
675.340; 3955.220; -464.095; -339.828
675.609; 1314.297;  103.905;   82.171
675.878;   90.749; -949.095; -893.829
676.147;   28.325;  -26.095;   -8.829
676.416;   89.302; -210.094; -294.830
676.685;  728.079; 1000.906; -622.830
676.953;  107.106; -603.094; -452.831
677.222;  -40.317; -193.094; -273.831
677.491;  -32.966;  -24.094; -127.831
677.759;  -19.189;   11.907;  172.168
678.028;  -12.187; -279.093; -222.832
678.297;  -19.960;   71.907;  197.168
678.565; -137.733; -898.093; -944.833
678.834;  -39.657; -311.093; -268.833
679.102;  -86.930; -411.092; -391.834
679.371; -149.853; -898.092; -727.834
679.639; -144.301; -797.092; -786.834
679.908; -123.449; -794.092; -724.835
680.176; -152.847; -895.091; -941.835
680.445;  -78.946; -346.091; -352.835
680.713;  -29.269;  -58.091;  -23.836
680.982;  -89.642; -523.091; -525.836
681.250; -111.815; -578.091; -507.837
681.518; -104.363; -534.090; -751.837
681.787;  -22.912; -204.090; -167.837
682.055;  -69.560; -490.090; -422.838
682.323; -147.533; -993.090; -992.838
682.591;   27.019; -216.090; -538.838
682.859;   86.846;    9.911;  -35.839
683.128;   19.972;  232.911;  497.161
683.396; -169.476;-1102.089;-1122.840
683.664;  -39.149; -241.089;   21.160
683.932;    2.103;  144.911;  -76.840
684.200;  -88.795; -576.088; -320.841
684.468;  -43.118;  -73.088; -124.841
684.736;  -30.567; -214.088; -175.841
685.004; -128.040;-1024.088; -982.842
685.272;  -51.013; -880.088; -774.842
685.540;  -81.311; -499.087; -557.843
685.808; -101.309; -651.087; -682.843
686.076; -110.608; -894.087; -969.843
686.343;  -67.831; -601.087; -815.844
686.611;   44.521; -195.087; -224.844
686.879;  425.973; -530.086; -553.844
687.147; 3329.525; -483.086; -480.845
687.414;  961.676;  -12.086; -169.845
687.682;   -2.722; -658.086; -757.846
687.950;  311.330;  259.915;  263.154
688.217;   17.532; -792.085; -760.846
688.485;   -2.841; -632.085; -636.847
688.753;  522.961;  -11.085; -102.847
689.020;  174.337; -820.085; -851.847
689.288; -116.136; -853.084; -787.848
689.555;  -43.459; -195.084; -148.848
689.823;  -43.157; -241.084; -345.849
690.090;  -85.280; -546.084; -651.849
690.358; -155.504; -877.084; -897.849
690.625;    0.473;  120.917;   45.150
690.892;  -79.825; -403.083; -369.850
691.160;  -22.548;   72.917;  -35.850
691.427;    8.279;  141.917;  130.149
691.694; -136.870; -855.083; -929.851
691.962; -134.868;-1177.082;-1060.852
692.229;    7.184;  127.918;   56.148
692.496;   77.661;  130.918;  -49.852
692.763;   22.438; -164.082; -201.853
693.031;  -64.560; -739.082; -716.853
693.298;  -47.634; -509.081; -368.853
693.565;  310.443; -155.081; -163.854
693.832; 1269.570;   -5.081;   -9.854
694.099;  139.797; -643.081; -642.855
694.366;  -53.751; -882.081; -896.855
694.633;  -46.475; -920.080; -633.855
694.900;  724.277; 4367.920; -114.856
695.167;  417.004; -214.080; -380.856
695.434;   91.306; -646.080; -623.856
695.701;  188.708;  121.921;  -61.857
695.968;  451.334; -365.079; -361.857
696.234;  945.161; -415.079; -646.858
696.501;10204.413; -776.079; -614.858
696.768; 5247.415; -554.079; -617.858
697.035;  300.342; -632.078; -667.859
697.302;   29.719; -448.078; -552.859
697.568;   11.195; -458.078; -497.859
697.835;  -51.603; -683.078; -624.860
698.102;  -20.601; -498.078; -407.860
698.368;   65.101;  384.923;  396.139
698.635;  -42.347;  -47.077; -424.861
698.901;  -15.871; -240.077; -348.861
699.168;   66.506; -534.077; -456.862
699.435;   72.233;  -72.077;  -13.862
699.701; -103.515; -868.076; -764.862
699.968;   13.962;  144.924; -441.863
700.234; -103.987; -783.076; -822.863
700.500;  -76.960; -448.076; -539.864
700.767;   -9.958;   -1.075;   26.136
701.033; -131.506;-1015.075; -963.864
701.299;  -67.904; -450.075; -483.865
701.566;  108.223;  950.925;  763.135
701.832;   18.649;  -31.075;  -76.865
702.098; -107.949;-1054.074;-1034.866
702.365;  -87.472;-1098.074;-1030.866
702.631;  -29.120;-1038.074;-1063.867
702.897; 1331.607; -765.074; -676.867
703.163; 2274.008;  348.926;  254.133
703.429;  165.910; -256.073; -273.868
703.695;  -35.838; -796.073; -792.868
703.961;    7.864; -214.073; -210.868
704.227;  -52.134; -630.073; -725.869
704.493;  109.292;  613.927;  510.131
704.759;  -22.206; -565.072; -540.870
705.025;   10.296; -203.072; -194.870
705.291;  -18.302; -666.072; -562.870
705.557;  163.600;  719.928;   34.129
705.823;   20.477; -742.072; -694.871
706.089;  121.728; -307.071; -326.871
706.355;  342.630; -315.071; -244.872
706.620; 5338.282; -776.071; -729.872
706.886; 7697.359; -309.071; -362.873
707.152;  700.911; -818.070; -973.873
707.418;   -8.988;-1153.070;-1186.873
707.683;    1.064; -550.070; -530.874
707.949;  -33.359; -547.070; -578.874
708.215;   -5.832; -129.070; -207.874
708.480;  -31.230; -520.069; -420.875
708.746;   95.671;   68.931;   28.125
709.011;  -51.827; -578.069; -612.876
709.277;  -86.800; -538.069; -543.876
709.542;  -55.648; -428.069; -387.876
709.808;  -11.621;  -59.068;   89.123
710.073;  -86.094; -577.068; -695.877
710.339;  -31.043; -242.068; -228.877
710.604;   56.134; -780.068; -845.878
710.869;  326.411; -277.068; -366.878
711.135;  -83.237; -715.067; -628.879
711.400;  -77.810; -507.067; -608.879
711.665;  -64.459; -404.067; -479.879
711.931; -101.382; -661.067; -677.880
712.196; -138.055; -876.067; -954.880
712.461;   97.347; -402.066; -490.880
712.726;  125.199; -727.066; -771.881
712.991;  -93.625; -647.066; -664.881
713.256;  -32.548; -350.066; -332.882
713.521;  -67.246; -417.065; -381.882
713.787;  -66.294; -454.065; -472.882
714.052;  -30.042; -214.065; -400.883
714.317; -107.015;-1045.065; -981.883
714.581;  968.386; -374.065; -268.883
714.846; 1391.238; -822.064; -888.884
715.111;  114.240;  261.936;  257.116
715.376;  -42.433;  -86.064; -223.885
715.641;  -25.181; -365.064; -367.885
715.906;  300.095;   15.936; -551.885
716.171;  136.922;  221.937;  209.114
716.436;   51.649;  -78.063; -104.886
716.700;  -96.724; -818.063; -692.886
716.965; -114.597; -794.063; -807.887
717.230;  -81.021; -339.063; -392.887
717.494;  -36.269;  -40.062; -134.888
717.759;  -97.467; -784.062; -640.888
718.024;    6.510;  269.938;  250.112
718.288;   60.937;  685.938;  395.111
718.553; -152.361; -803.062; -977.889
718.817; -132.835; -883.061; -899.889
719.082;  -34.833; -115.061; -125.890
719.346; -130.006;-1000.061; -947.890
719.611;  -38.854; -300.061; -255.891
719.875;  -85.052; -568.060; -537.891
720.140;  -80.601; -453.060; -603.891
720.404;   25.126; -136.060; -249.892
720.668;  848.503; -475.060; -411.892
720.933;  332.705;  146.940;  137.108
721.197; -107.043; -667.059; -600.893
721.461; -130.367; -851.059; -826.893
721.725;   -8.665;  -21.059; -250.894
721.990;  -63.038; -284.059; -204.894
722.254;  -30.436;  -26.059; -108.894
722.518;  -63.059; -286.058; -442.895
722.782;  -91.632; -743.058; -594.895
723.046;  118.444;  614.942;  570.105
723.310;   20.646;  374.942;  210.104
723.574; -112.402; -654.058; -614.896
723.838; -109.875; -576.057; -642.897
724.102;  -51.123; -226.057; -239.897
724.366; -147.097;-1032.057; -978.897
724.630;  -90.670; -749.057; -571.898
724.894;  -86.418; -722.057; -514.898
725.158;  -15.666;   38.944; -295.898
725.422;  -60.414; -394.056; -327.899
725.685;  -75.188; -441.056; -349.899
725.949;  -86.736; -566.056; -519.900
726.213;  -84.734; -732.056; -811.900
726.477;  166.818;-1020.055; -933.900
726.740;  131.245; -274.055; -104.901
727.004;  311.497; -384.055; -510.901
727.268; 3231.723; -442.055; -400.901
727.531;  909.700; -961.055; -775.902
727.795;  -51.198; -713.054; -673.902
728.059;  -52.696; -552.054; -557.903
728.322;  -76.494; -841.054; -669.903
728.586;   29.232; -692.054; -701.903
728.849;  -78.966; -695.053; -756.904
729.112; -117.064; -812.053; -912.904
729.376; -119.112; -959.053; -905.904
729.639;  -74.735; -536.053; -536.905
729.903; -112.709; -733.053; -699.905
730.166;  -52.457; -437.052; -399.906
730.429;  -25.880; -317.052; -468.906
730.693;  -80.053; -355.052; -894.906
730.956;  200.299;  810.948;  651.093
731.219;  702.751; -310.052; -103.907
731.482;  121.702;-1003.051; -894.907
731.745;   88.079; -794.051; -935.908
732.009;   14.806;  -30.051;   50.092
732.272;  -95.342; -904.051; -771.909
732.535;  -47.890; -300.051; -310.909
732.798; -144.114;-1083.050;-1166.909
733.061;  -57.762; -430.050; -456.910
733.324;   -1.835;   31.950; -180.910
733.587;   43.792;  290.950;  365.090
733.850;  -67.606; -973.049;-1050.911
734.113;   27.495;   33.951;   32.089
734.376;   -6.503; -328.049; -447.912
734.639;  216.974; 1188.951; 1011.088
734.901;   60.201; -180.049; -402.912
735.164;  506.703; -883.048; -837.913
735.427; 1330.555; -166.048; -355.913
735.690;  108.656; -205.048; -234.913
735.952;  -40.817; -923.048; -925.914
736.215;  -11.090;-1113.048;-1009.914
736.478;   33.337; -771.047; -774.915
736.740;  199.164;   33.953;  129.085
737.003;  654.865; -658.047; -672.915
737.266; 4080.367;  -94.047;   46.084
737.528;  449.369; -682.047; -660.916
737.791;  325.821; -316.046; -327.916
738.053;  773.148;  465.954;  649.083
738.316;10545.799; -162.046; -136.917
738.578; 7676.226; -770.046; -736.918
738.841;  438.453; -382.046; -446.918
739.103;  176.355; -875.045; -777.918
739.365;  506.932;   79.955;  -69.919
739.628;   -9.541; -884.045; -805.919
739.890;  -22.290; -758.045; -710.919
740.152;  -45.938; -692.044; -754.920
740.414;  -27.586; -408.044; -359.920
740.677;  -47.734; -785.044; -634.921
740.939;  -42.607; -587.044; -487.921
741.201;  257.244; -432.044; -572.921
741.463;   39.196; -689.043; -745.922
741.725;   12.248;  -21.043; -199.922
741.987;   52.650;  220.957;  116.078
742.249;  -12.848; -751.043; -859.923
742.511;  206.028; -703.043; -794.923
742.773;    5.930; -546.042; -546.924
743.035;  124.432;  796.958;  533.076
743.297;  -34.066; -963.042;-1013.924
743.559;  726.461; -278.042; -262.925
743.821;   68.563; -735.042; -744.925
744.083;    5.589;  -44.041; -149.925
744.345;  -94.209; -869.041; -892.926
744.607;   32.718;   75.959;  122.074
744.868;  -58.905; -490.041; -554.927
745.130; -123.578; -994.041;-1008.927
745.392;   35.848;   -1.040;  -44.927
745.653;  -16.225; -411.040; -378.928
745.915;  139.827;  896.960;  631.072
746.177;   57.379;   35.960;  -43.928
746.438;  -11.294; -428.040; -543.929
746.700;  -50.693; -947.039; -988.929
746.961;   12.984; -659.039; -740.930
747.223;  133.861; -190.039;  -74.930
747.484;   69.763; -391.039; -471.930
747.746;  138.690;  -23.038; -106.931
748.007;  106.467; -647.038; -689.931
748.269;  292.318; -468.038; -440.931
748.530;  495.545; -852.038; -638.932
748.791;  257.572; -354.038; -420.932
749.053;  418.724;  286.963;  163.067
749.314;  459.526; -236.037; -169.933
749.575;  506.702; -945.037; -905.933
749.836;  849.304; -217.037;   86.066
750.098; 2397.306;  -60.037;  -21.934
750.359;36289.058;  414.964;  555.066
750.620; 9642.785; -121.036; -220.935
750.881; 1023.436; -585.036; -513.935
751.142; 1337.263; -950.036; -938.936
751.403;16345.140; -789.036; -705.936
751.664; 7547.092;-1034.035; -999.936
751.925;  474.444; -175.035; -262.937
752.186;  256.971; -298.035; -278.937
752.447;  131.647; -590.035; -445.937
752.708;   64.699; -532.035; -648.938
752.969;    5.826; -566.034; -576.938
753.230;  -10.797; -777.034; -672.939
753.491;  -14.970; -650.034; -631.939
753.751;   62.406;  109.966;   19.061
754.012;   77.133;  258.967;  181.060
754.273;   49.260; -174.033;  -71.940
754.534;    7.187; -487.033; -580.940
754.794;  -84.986; -926.033; -911.941
755.055;  133.765; 1051.967;  881.059
755.316;  -50.058; -700.032; -566.942
755.576;  -35.731; -606.032; -576.942
755.837;  -44.554; -527.032; -695.942
756.097;  -43.652; -530.032; -564.943
756.358;  -87.350; -725.032; -770.943
756.618;  -46.274; -705.031; -641.943
756.879;   -2.372; -254.031; -349.944
757.139; -136.245;-1098.031;-1116.944
757.400;  -52.568; -538.031; -553.945
757.660;  -30.016; -365.031; -401.945
757.920;    0.160; -266.030; -228.945
758.181;  -22.438; -468.030; -351.946
758.441;  -89.161; -870.030; -809.946
758.701;  -26.634; -308.030; -215.946
758.961;  -26.807; -220.030; -278.947
759.222;  -65.806; -574.029; -502.947
759.482;  -77.979; -683.029; -723.948
759.742;  -90.052; -706.029; -547.948
760.002;   -4.725;  -83.029; -143.948
760.262;   10.802;   50.972;  182.051
760.522;  -46.571; -498.028; -574.949
760.782;  -66.420; -738.028; -612.949
761.042;  -40.493; -618.028; -573.950
761.302;   47.184;   55.972;  -18.950
761.562;   52.236; -164.027; -154.951
761.822;   76.988; -710.027; -551.951
762.082;  -43.711;-1104.027;-1093.951
762.342;   50.916; -328.027; -403.952
762.601;   79.093; -567.027; -506.952
762.861;  377.095; -281.026; -207.952
763.121;  410.622; -406.026; -411.953
763.381; 7212.148; -499.026; -485.953
763.640; 8302.025; -139.026; -307.954
763.900;  367.677; -242.026; -203.954
764.160;   86.179; -458.025; -491.954
764.419;  -11.794; -726.025; -782.955
764.679;  -73.842; -795.025; -726.955
764.939;  -24.441; -124.025; -210.955
765.198;  -74.414; -608.025; -563.956
765.458;  -78.687; -710.024; -612.956
765.717; -101.335; -454.024; -590.957
765.976;  -64.408; -428.024; -411.957
766.236;  -78.582; -475.024; -610.957
766.495;    4.670;  260.977;   73.042
766.755;  -99.903;-1090.023; -987.958
767.014;    0.774; -594.023; -665.958
767.273;  -60.999; -373.023; -397.959
767.533;  -42.398; -228.023; -307.959
767.792;  -31.096; -151.022; -188.960
768.051;  -49.444; -228.022; -276.960
768.310;  -89.792; -546.022; -650.960
768.569;  -17.865; -161.022;    4.039
768.828;  -37.438; -285.022; -363.961
769.088; -114.112;-1050.021; -942.961
769.347;  -90.310; -755.021; -599.962
769.606;  -84.708; -876.021; -857.962
769.865; -140.556;-1016.021;-1033.963
770.124;  -15.229; -411.021; -336.963
770.383;  -52.203; -778.020; -910.963
770.641;   -2.026; -398.020; -400.964
770.900;  -84.049; -953.020; -846.964
771.159;  -48.347; -851.020; -951.964
771.418;  -24.120; -917.020; -779.965
771.677;  115.856; -224.019; -293.965
771.936;  130.633; -794.019; -865.966
772.194; 2018.060; -465.019; -437.966
772.453;10925.337; -213.019; -391.966
772.712;  764.664;  416.982;  329.033
772.970;  109.016;   32.982;   63.033
773.229;   77.217;  -22.018;  102.033
773.488;  -88.631; -814.018; -770.968
773.746;   50.771;  296.982;  335.032
774.005;    5.798;  190.983;  -22.969
774.263;    7.500;  243.983;  177.031
774.522;  -45.049; -422.017; -548.969
774.780;  -84.097; -484.017; -417.970
775.039;  -93.495; -551.017; -531.970
775.297;  -26.143; -135.016; -351.970
775.555;  -99.341; -489.016; -612.971
775.814; -125.490; -618.016; -570.971
776.072; -126.988; -749.016; -740.971
776.330; -104.286; -630.016; -520.972
776.589; -120.059; -703.015; -721.972
776.847; -121.707; -645.015; -624.973
777.105; -168.980;-1016.015;-1032.973
777.363;  -91.154; -459.015; -454.973
777.621; -143.552; -660.015; -717.974
777.879;  -32.925;  -42.014;   32.026
778.138;  -98.398; -554.014; -717.974
778.396; -111.621; -585.014; -526.975
778.654; -164.720;-1015.014; -970.975
778.912;  -72.818; -269.014; -371.976
779.170; -130.666; -880.013; -803.976
779.427; -150.739; -922.013; -897.976
779.685; -127.637; -880.013; -832.977
779.943;  -85.411; -654.013; -593.977
780.201; -167.734; -964.012; -883.978
780.459; -112.682; -651.012; -610.978
780.717;  -94.355; -440.012; -390.978
780.974; -102.028; -449.012; -490.979
781.232;  -78.701; -358.012; -338.979
781.490;  -71.725; -551.011; -472.979
781.747; -104.398; -555.011; -476.980
782.005;    7.979;  462.989;  254.020
782.263; -158.419; -542.011;-1004.981
782.520;  -91.892; -326.011; -501.981
782.778; -169.791;-1013.010;-1051.981
783.035; -166.464; -962.010; -938.982
783.293;  -79.087; -248.010; -206.982
783.550;  -64.960; -134.010; -198.982
783.808; -138.933; -764.010; -776.983
784.065; -154.482; -745.009; -874.983
784.322;  -51.230;   25.991;  -86.984
784.580; -152.428; -915.009; -771.984
784.837; -100.376; -392.009; -466.984
785.094; -145.124; -783.009; -762.985
785.352;  -71.497; -304.008; -404.985
785.609; -110.346; -934.008; -839.985
785.866;  -94.219; -345.008; -401.986
786.123;  -70.542; -639.008; -583.986
786.380;  -96.815; -665.008; -604.987
786.637;  -47.388; -225.007; -380.987
786.895;  -25.837; -456.007; -543.987
787.152;  -62.210; -135.007; -267.988
787.409;  -49.783; -123.007; -225.988
787.666;  -89.156; -299.006; -378.988
787.923; -118.204; -616.006; -695.989
788.179;  -93.178; -551.006; -584.989
788.436; -118.526; -585.006; -585.990
788.693;  -48.774;  -92.006;  -87.990
788.950;  128.003; -125.005; -112.990
789.207;  232.155; -381.005; -372.991
789.464;  -54.918; -161.005; -301.991
789.720;  -16.717;  150.995;  110.009
789.977; -163.565;-1003.005; -671.992
790.234;  -56.113;   44.996;  -66.992
790.490; -154.486; -884.004;-1031.993
790.747;  -13.959;  -85.004;   22.007
791.004;  -32.458; -426.004; -348.993
791.260;  -87.231; -430.004; -560.994
791.517; -111.229; -843.003; -788.994
791.773;  -63.302; -379.003; -342.994
792.030; -107.750; -596.003; -660.995
792.286; -106.724; -686.003; -636.995
792.543;  -20.922;  -74.002; -159.995
792.799;  -57.945; -584.002; -382.996
793.055; -166.818;-1179.002;-1210.996
793.312;  -87.266; -827.002; -816.997
793.568;  -67.514; -746.002; -599.997
793.824;   11.812; -226.001; -284.997
794.081;   17.314; -447.001; -508.998
794.337;   50.341; -664.001; -561.998
794.593; 1232.468; -319.001; -271.999
794.849; 6618.245; -746.001; -772.999
795.105;  353.246; -270.000; -261.999
795.361;    9.248; -490.000; -457.000
795.617;  -63.625; -875.000; -945.000
795.873;  -71.025; -360.000; -407.000
796.129;  -25.875; -368.000; -306.000
796.385;  -15.925; -124.000; -156.000
796.641;   48.850;  412.000;  550.000
796.897;  -92.125; -666.000; -635.000
797.153;   58.825;  453.000;  357.000
797.409; -115.425; -785.000; -868.000
797.665;  -89.225; -625.000; -732.000
797.921;  -85.475; -775.000; -762.000
798.176;  -50.625; -744.000; -747.000
798.432;  -53.225; -824.000; -596.000
798.688;  -67.100;-1174.000;-1078.000
798.943;   79.825; -165.000; -147.000
799.199;   -7.925;-1005.000; -959.000
799.455;  228.500;  369.000;  316.000
799.710;  121.675; -813.000; -380.000
799.966;  280.775; -162.000; -160.000
800.221;  460.300; -638.000; -721.000
800.477; 9959.600; -743.000; -710.000
800.732; 9547.800; -773.000; -800.000
800.988;  638.450;  205.000;  -19.000
801.243; 1655.225; -454.000; -344.000
801.498; 7653.200; -814.000; -739.000
801.754;  432.625; -289.000; -163.000
802.009;   70.225; -257.000; -335.000
802.264;  -55.975; -967.000;-1033.000
802.520;   18.875;  222.000;   -3.000
802.775;  -56.200; -524.000; -359.000
803.030;   56.850;  395.000;  356.000
803.285; -126.450; -840.000; -903.000
803.540;  -74.375; -686.000; -699.000
803.795;  -47.200; -648.000; -583.000
804.051;  -47.825; -279.000; -346.000
804.306;    4.225;  168.000;  128.000
804.561;  142.125;  451.000;  362.000
804.816;  121.850;  714.000;  861.000
805.071;    9.575; -185.000; -280.000
805.325;  213.000; -257.000; -427.000
805.580; -105.675; -841.000; -877.000
805.835;  -23.700; -204.000; -297.000
806.090;  -84.750; -760.000; -676.000
806.345;  -17.575; -344.000; -264.000
806.600;  -32.025; -549.000; -632.000
806.854;  -27.125; -408.000; -538.000
807.109;  -19.025; -493.000; -577.000
807.364;    3.175; -407.000; -328.000
807.618;  -12.925; -415.000; -381.000
807.873;   59.925; -470.000; -494.000
808.128;   92.575; -257.000; -518.000
808.382;  105.875; -224.000; -332.000
808.637;   83.650; -440.000; -511.000
808.891;  171.425; -257.000; -180.000
809.146;   90.350; -902.000; -794.000
809.400;  271.750; -848.000; -923.000
809.654;  325.000; -779.000; -551.000
809.909;  475.700; -841.000; -927.000
810.163; 6265.350; -813.000; -651.000
810.418;17472.725; -940.000; -861.000
810.672; 1074.725; -685.000; -690.000
810.926;  727.825; -993.000; -973.000
811.180; 1367.300; -439.000; -372.000
811.434;30833.175;  240.000;  135.000
811.689;13346.425; -231.000; -365.000
811.943;  647.800; -936.000; -953.000
812.197;  338.200; -893.000; -671.000
812.451;  127.025; -379.000; -514.000
812.705;  -32.025; -809.000; -619.000
812.959;    6.150; -263.000; -388.000
813.213;   -3.025; -283.000; -209.000
813.467;   71.200;  470.000;  253.000
813.721; -105.875; -764.000; -792.000
813.975; -126.550; -826.000; -877.000
814.229;   32.400;  430.000;  353.000
814.482;  -81.100; -517.000; -566.000
814.736; -123.950; -766.000; -744.000
814.990; -128.050; -779.000; -872.000
815.244;  -46.500; -228.000; -285.000
815.497; -105.450; -636.000; -601.000
815.751;  -16.675; -141.000;   82.000
816.005;  -93.175; -470.000; -586.000
816.258;  -71.550; -510.000; -363.000
816.512; -107.675; -693.000; -610.000
816.766;    1.600;  121.000;  157.000
817.019;   20.250;  148.000;  149.000
817.273; -127.325;-1000.000; -802.000
817.526;  -37.100; -206.000; -173.000
817.779;  -37.400;-1049.000; -960.000
818.033;  -69.150; -693.000; -807.000
818.286; -120.100; -725.000; -792.000
818.540;  -80.150; -403.000; -403.000
818.793;  -76.475; -402.000; -489.000
819.046; -110.825; -582.000; -520.000
819.299;  -51.050; -157.000; -166.000
819.553; -113.575; -552.000; -592.000
819.806; -162.925;-1016.000; -838.000
820.059;  -76.125; -334.000; -354.000
820.312;    3.625;  152.000;  185.000
820.565;  -26.700;  110.000;  -27.000
820.818;  -58.925;  -59.000; -173.000
821.071; -164.300;-1041.000; -957.000
821.324;  -96.650; -536.000; -540.000
821.577; -109.725; -457.000; -483.000
821.830;  -68.475; -270.000; -172.000
822.083; -130.900; -733.000; -288.000
822.336;  -61.900; -261.000; -167.000
822.589; -128.950; -805.000; -688.000
822.842; -141.675; -875.000; -770.000
823.094; -181.750;-1076.000;-1114.000
823.347; -128.775; -925.000; -729.000
823.600;   -1.425;  402.000;  187.000
823.853;  -59.275; -311.000; -267.000
824.105;  -81.200; -331.000; -575.000
824.358; -113.600; -617.000; -716.000
824.611;   10.875;  234.000;   40.000
824.863;  -56.025; -612.000; -591.000
825.116;   47.650;  -33.000;   27.000
825.368;   69.275; -366.000; -372.000
825.621;  154.625; -186.000; -240.000
825.873;   85.675; -704.000; -737.000
826.126;  536.225; -669.000; -641.000
826.378;11351.925; -389.000; -505.000
826.630; 3011.875; -890.000; -898.000
826.883;   40.075; -754.000; -693.000
827.135;   25.100; -279.000; -270.000
827.387; -109.450; -893.000; -839.000
827.639;  -36.100;  -86.000;   32.000
827.892; -125.450; -742.000; -582.000
828.144; -145.825; -848.000; -804.000
828.396;  -49.200;  104.000;  -80.000
828.648;  -93.950; -440.000; -333.000
828.900; -148.900; -702.000; -795.000
829.152; -111.600; -684.000; -683.000
829.404;  -63.450; -215.000; -267.000
829.656;  -51.725;  321.000;  214.000
829.908;  -25.150;  393.000;  229.000
830.160; -173.650;-1064.000;-1047.000
830.412; -108.400; -481.000; -430.000
830.664; -127.650; -557.000; -665.000
830.916;  -93.925; -268.000; -206.000
831.167; -177.450;-1073.000; -951.000
831.419; -119.200; -623.000; -566.000
831.671; -137.200; -764.000; -809.000
831.923;  -96.725; -311.000; -447.000
832.174;  -78.400; -273.000; -331.000
832.426; -123.775; -493.000; -582.000
832.678; -180.475;-1043.000;-1091.000
832.929; -171.550; -947.000; -935.000
833.181;  -75.775; -575.000; -677.000
833.432;  -47.775;  -59.000; -186.000
833.684;  -23.125;  112.000;  -27.000
833.935; -110.325; -610.000; -566.000
834.187; -130.900; -829.000; -823.000
834.438;  -46.650;  -58.000;  -25.000
834.689;  -63.500; -255.000; -123.000
834.941;  -46.525; -343.000; -244.000
835.192;  -93.725; -590.000; -533.000
835.443; -113.725; -419.000; -506.000
835.695;  -18.050;  138.000;  -16.000
835.946; -102.150; -608.000; -378.000
836.197; -110.800; -599.000; -622.000
836.448;  -91.350; -528.000; -395.000
836.699;  -69.700; -253.000; -341.000
836.950;  -12.275;   72.000;    7.000
837.201; -154.475;-1003.000; -987.000
837.452;  -55.600; -356.000; -170.000
837.703; -123.950; -791.000; -737.000
837.954;  -37.850; -205.000; -365.000
838.205;  -92.100;-1029.000;-1008.000
838.456;  155.925; -196.000; -282.000
838.707;   10.450; -423.000; -519.000
838.958;    9.625; -634.000; -647.000
839.209;  277.875;   18.000;   40.000
839.460;  102.175; -439.000; -201.000
839.710;  152.225; -135.000; -297.000
839.961;  422.900;  730.000;  612.000
840.212;  332.675; -382.000; -497.000
840.462; 1066.100; -328.000; -277.000
840.713;17450.725; -571.000; -536.000
840.964; 7548.900;  -62.000; -143.000
841.214;  503.575; -384.000; -624.000
841.465;  568.950; -214.000; -141.000
841.715;  506.575; -417.000; -380.000
841.966;  649.175; -746.000; -685.000
842.216; 8604.650; -330.000; -431.000
842.466;35172.500; -169.000; -313.000
842.717; 2098.725; -964.000; -952.000
842.967;  317.575; -635.000; -641.000
843.217;  279.275;   20.000;   28.000
843.468;   79.150; -104.000; -132.000
843.718;  -45.750; -718.000; -726.000
843.968; -100.150; -837.000; -765.000
844.218;    5.100; -315.000; -262.000
844.469;  -59.050; -577.000; -561.000
844.719; -113.650; -537.000; -682.000
844.969; -104.400; -550.000; -580.000
845.219; -144.950; -814.000; -862.000
845.469;  -84.050; -392.000; -342.000
845.719; -144.200; -792.000; -884.000
845.969;  -11.950;  119.000;  174.000
846.219; -115.325; -738.000; -720.000
846.469;   21.600;  464.000;  432.000
846.718;  -35.625; -115.000;   31.000
846.968; -140.650; -827.000; -827.000
847.218;  -61.825; -224.000; -371.000
847.468; -110.675; -586.000; -555.000
847.718; -143.700; -827.000; -798.000
847.967; -143.850; -826.000; -915.000
848.217;  -77.300; -449.000; -569.000
848.467;  -69.800; -405.000; -376.000
848.716; -126.075; -708.000; -725.000
848.966;  -14.300; -372.000; -358.000
849.215;  -71.025; -428.000; -419.000
849.465;  -89.700; -785.000; -615.000
849.714; -147.100;-1132.000;-1150.000
849.964;  -60.425; -551.000; -613.000
850.213;  -38.250; -393.000; -355.000
850.463;   61.925;  137.000;  340.000
850.712;  -11.450; -542.000; -567.000
850.961;   19.575; -739.000; -678.000
851.211;   98.300; -513.000; -504.000
851.460;  160.725; -635.000; -650.000
851.709;  535.725;  -25.000;   18.000
851.958; 9782.475; -912.000; -750.000
852.208;13119.125; -859.000; -879.000
852.457;  482.350; -181.000;  -13.000
852.706;   67.125; -791.000; -823.000
852.955;   -0.275; -507.000; -528.000
853.204;  -67.750; -521.000; -461.000
853.453;  -85.600; -418.000; -458.000
853.702; -139.775; -660.000; -750.000
853.951; -103.375; -532.000; -520.000
854.200; -117.375; -613.000; -562.000
854.449; -157.975; -695.000; -661.000
854.698; -102.325; -340.000; -279.000
854.946;  -72.400; -181.000; -284.000
855.195; -147.300; -843.000; -868.000
855.444;  -92.175; -395.000; -420.000
855.693; -120.400; -345.000; -432.000
855.941; -117.150; -387.000; -516.000
856.190;  -63.675; -256.000; -382.000
856.439; -124.700; -652.000; -703.000
856.687;  -63.175;  -99.000;  -72.000
856.936; -112.900; -621.000; -323.000
857.184; -186.700;-1067.000;-1020.000
857.433; -113.150; -423.000; -512.000
857.681; -172.600; -989.000; -953.000
857.930;  -85.950; -282.000; -433.000
858.178; -171.650; -856.000; -929.000
858.427; -144.475; -802.000; -781.000
858.675; -121.300; -377.000; -544.000
858.923; -108.500; -527.000; -819.000
859.172; -195.200;-1094.000;-1070.000
859.420;  -98.850; -339.000; -239.000
859.668; -133.725; -624.000; -628.000
859.916;  -28.975;  109.000;  115.000
860.164; -124.550; -699.000; -603.000
860.413;  266.200; -878.000; -696.000
860.661;  236.275; -709.000; -577.000
860.909;  -92.475; -339.000; -325.000
861.157;  -87.650; -277.000; -444.000
861.405; -135.575; -534.000; -670.000
861.653;    6.400;  310.000;  310.000
861.901;  180.725; -543.000; -613.000
862.149;    1.725; -801.000; -824.000
862.396;  -82.200; -297.000; -187.000
862.644;  -89.900; -368.000; -347.000
862.892;  -37.350;   98.000;  138.000
863.140; -127.650; -549.000; -530.000
863.388; -166.375; -815.000; -759.000
863.635; -129.700; -642.000; -601.000
863.883;  -17.900;  231.000;  190.000
864.131; -105.500; -288.000; -357.000
864.378; -155.025; -675.000; -540.000
864.626; -102.875; -347.000; -415.000
864.873; -131.525; -556.000; -505.000
865.121; -148.025; -714.000; -799.000
865.368;  -55.350; -173.000;   75.000
865.616;  -52.200;  -33.000;  -40.000
865.863;  -76.950; -462.000; -506.000
866.111; -112.450; -795.000; -824.000
866.358;   11.400; -426.000; -420.000
866.605; 2103.550;  -64.000; -804.000
866.853; 2322.475; -621.000; -537.000
867.100;  -58.975; -728.000; -775.000
867.347; -105.650; -672.000; -611.000
867.594;  -96.250; -740.000; -714.000
867.841;   77.175;   97.000;   17.000
868.089; -145.175; -746.000; -698.000
868.336; -109.800; -477.000; -420.000
868.583; -159.850; -637.000; -741.000
868.830;  -59.400; -131.000; -170.000
869.077; -167.400; -859.000; -787.000
869.324; -127.675; -502.000; -458.000
869.571; -133.675; -398.000; -430.000
869.818; -122.600; -485.000; -439.000
870.065; -114.325; -439.000; -513.000
870.311; -122.550; -456.000; -542.000
870.558; -113.750; -332.000; -311.000
870.805;  -94.500; -320.000; -384.000
871.052;  -99.675; -494.000; -369.000
871.298;  -75.800; -204.000; -131.000
871.545;  -82.400; -151.000; -185.000
871.792;  -91.125; -173.000; -222.000
872.038;  -82.300;   43.000; -126.000
872.285; -126.350; -496.000; -387.000
872.532; -113.175; -357.000; -387.000
872.778;   -6.575;  556.000;  403.000
873.025; -112.625; -384.000; -359.000
873.271;    8.975;  501.000;  578.000
873.517;  -53.625; -133.000; -209.000
873.764;  -34.825; -193.000;  -80.000
874.010;  -81.875; -143.000; -230.000
874.257;  -49.900;  123.000;   90.000
874.503; -137.450; -579.000; -479.000
874.749;  -75.950;   31.000;  275.000
874.995;  -67.825;  -80.000;  -20.000
875.242; -132.675; -540.000; -478.000
875.488; -115.500; -414.000; -439.000
875.734;  -74.500; -106.000; -234.000
875.980;  161.200; -872.000;-1032.000
876.226;  364.900; -157.000; -255.000
876.472;  -16.225;  343.000;  237.000
876.718;  -53.475;  184.000;  158.000
876.964;  -53.350;   56.000;   55.000
877.210; -160.925; -547.000; -677.000
877.456; -153.400; -630.000; -557.000
877.702; -168.575; -821.000; -832.000
877.948; -117.550; -377.000; -497.000
878.193;    2.850;  361.000;  255.000
878.439; -122.875; -487.000; -472.000
878.685; -110.725; -272.000; -343.000
878.931; -135.800; -618.000; -676.000
879.176;  -92.825; -201.000; -201.000
879.422; -175.600; -933.000; -820.000
879.668;   49.650;   10.000;   79.000
879.913;  132.825;   53.000;  137.000
880.159;  -77.750; -112.000;  -17.000
880.404;  -68.925; -152.000; -162.000
880.650;  -51.000;   91.000;  141.000
880.895; -161.100; -670.000; -710.000
881.141; -134.000; -454.000; -428.000
881.386; -163.025; -503.000; -658.000
881.631;  -93.375; -311.000; -166.000
881.877;  -38.825;  112.000;  -13.000
882.122; -133.300; -684.000; -600.000
882.367;  -89.500; -136.000; -186.000
882.612;  -75.475;  -80.000; -176.000
882.858; -172.925; -877.000; -823.000
883.103; -113.250; -297.000; -267.000
883.348; -157.225; -759.000; -852.000
883.593; -155.925; -677.000; -602.000
883.838;  -68.150; -311.000;  -24.000
884.083;   21.900;  353.000;  288.000
884.328;  -87.550; -564.000; -545.000
884.573;  -70.625; -196.000; -143.000
884.818;  171.625; -694.000; -531.000
885.063;  201.475; -348.000; -315.000
885.308; -109.400; -475.000; -398.000
885.553;  -26.525;  245.000;  325.000
885.797; -140.825; -545.000; -615.000
886.042;  -69.550;    8.000;   58.000
886.287;  -95.000; -253.000; -211.000
886.532;  -50.000;   26.000;  204.000
886.776; -106.075; -407.000; -525.000
887.021; -151.000; -621.000; -574.000
887.265; -152.925; -685.000; -689.000
887.510; -141.300; -557.000; -496.000
887.755; -106.375; -194.000; -164.000
887.999; -129.425; -552.000; -575.000
888.244;  -63.125;  -58.000;  161.000
888.488;  -14.125;  371.000;  393.000
888.732; -136.950; -368.000; -520.000
888.977; -134.525; -622.000; -567.000
889.221; -156.400; -683.000; -659.000
889.465; -133.600; -422.000; -566.000
889.710;  -79.075;  -56.000; -299.000
889.954;   -0.950;  579.000;  467.000
890.198; -141.375; -584.000; -707.000
890.442; -152.400; -716.000; -712.000
890.687; -169.725; -800.000; -753.000
890.931; -109.775; -273.000; -210.000
891.175; -137.200; -502.000; -500.000
891.419;  -83.025; -105.000; -110.000
891.663;  -94.725; -239.000; -112.000
891.907; -176.600; -801.000; -545.000
892.151; -189.025; -920.000; -815.000
892.395; -116.625; -274.000; -387.000
892.638;  -29.875;  408.000;  291.000
892.882; -185.050; -780.000; -867.000
893.126;    0.325;  758.000;  558.000
893.370;  -95.175; -167.000; -168.000
893.614; -153.525; -714.000; -715.000
893.857; -117.375; -183.000; -197.000
894.101; -146.175; -527.000; -631.000
894.345;  -59.825;  300.000;  150.000
894.588;    7.925;  569.000;  380.000
894.832;  -88.825; -178.000;  -84.000
895.075;  -86.650;   15.000;  -92.000
895.319; -131.475; -552.000; -420.000
895.563; -115.325; -413.000; -353.000
895.806; -154.550; -628.000; -741.000
896.049;  -57.525; -576.000; -368.000
896.293;   99.875;  527.000;  405.000
896.536;  -80.550; -465.000; -468.000
896.779;  -69.325; -149.000;   -1.000
897.023; -143.800; -751.000; -714.000
897.266;  -36.375;  325.000;  269.000
897.509; -184.500; -900.000; -901.000
897.752;  -53.425;  149.000;  171.000
897.996; -190.725; -972.000; -864.000
898.239;  -42.100;  168.000;  102.000
898.482; -138.500; -431.000; -453.000
898.725;  -49.675;  101.000;   53.000
898.968; -149.975; -609.000; -744.000
899.211; -113.425; -513.000; -361.000
899.454; -125.200; -633.000; -539.000
899.697;  -85.225;   90.000;  -43.000
899.940; -173.850; -761.000; -757.000
900.182; -115.175; -335.000; -405.000
900.425;  -92.175; -150.000; -298.000
900.668;  -25.925;  491.000;  350.000
900.911; -110.100; -292.000; -345.000
901.154;  -55.475;  141.000;   -3.000
901.396; -161.650; -407.000; -412.000
901.639; -138.125; -430.000; -496.000
901.882; -188.000; -790.000; -809.000
902.124;  -85.725;  -29.000; -143.000
902.367; -124.025; -315.000; -361.000
902.609; -141.100; -476.000; -453.000
902.852;  -92.175; -108.000; -260.000
903.094; -132.000; -458.000; -337.000
903.337;  -62.850;  -26.000;   53.000
903.579; -105.125; -228.000; -441.000
903.821; -158.225; -597.000; -744.000
904.064;  -57.075;   85.000;  127.000
904.306;  -95.925; -126.000; -166.000
904.548; -115.000; -152.000; -366.000
904.790; -112.525; -195.000; -340.000
905.033; -153.075; -625.000; -577.000
905.275; -133.575; -513.000; -524.000
905.517;   26.700;  468.000;  256.000
905.759;  -76.700; -667.000; -761.000
906.001;  -88.950; -322.000; -369.000
906.243;  -70.825; -162.000; -224.000
906.485;  117.425; -265.000; -207.000
906.727;  110.525; -499.000; -542.000
906.969;  -38.650;  -30.000; -135.000
907.211;  115.875; -316.000; -382.000
907.453;  268.650; -188.000; -237.000
907.695;    5.900; -158.000; -385.000
907.936;   31.625;  818.000;  706.000
908.178;  -74.600;   92.000; -135.000
908.420;  -82.350; -111.000; -162.000
908.662; -151.950; -633.000; -682.000
908.903;  -92.725; -208.000; -123.000
909.145;  -65.825; -240.000; -305.000
909.386;    4.800;  315.000;  280.000
909.628;   25.550;  363.000;  397.000
909.870;   -8.800;   29.000;  264.000
910.111;  -94.350; -809.000; -949.000
910.353;   11.675; -123.000; -161.000
910.594;    3.175; -574.000; -606.000
910.835;   80.400; -265.000; -326.000
911.077;  147.725; -503.000; -604.000
911.318;  285.350; -505.000; -471.000
911.559;  430.225; -577.000; -880.000
911.801; 1286.250; -284.000; -280.000
912.042; 9970.525;  -50.000; -159.000
912.283;27167.800;  404.000;  371.000
912.524; 4445.750; -396.000; -457.000
912.765;  494.050; -193.000;   79.000
913.006;  246.850; -307.000; -338.000
913.247;   43.575; -270.000; -290.000
913.488;  -18.550;  -43.000;   30.000
913.729;  -93.025; -373.000; -373.000
913.970;  -78.825;  -96.000; -292.000
914.211;  -82.900; -160.000; -198.000
914.452;  -59.975; -118.000;  -11.000
914.693;   -6.275;  510.000;  592.000
914.934;    6.975;  510.000;  440.000
915.175;  -76.300;   53.000;  -95.000
915.415;  -83.750; -137.000;   27.000
915.656;  -70.500;  -28.000;  192.000
915.897; -104.125; -252.000;  -82.000
916.137;  -75.875;   74.000;   -9.000
916.378; -139.600; -573.000; -517.000
916.619;  -89.950; -159.000;  -63.000
916.859;  -29.825;  303.000;  330.000
917.100;  125.950; 1655.000; 1070.000
917.340;   37.525;  930.000;  728.000
917.581;   45.850;  965.000;  789.000
917.821;  -42.500; -171.000;  143.000
918.061;   16.850; -199.000;  -72.000
918.302;  -65.250; -152.000; -211.000
918.542;  -30.650;  -22.000;    3.000
918.782;   22.600;  369.000;  377.000
919.023;  127.000;  360.000;  427.000
919.263; 1704.100; 8131.000;  202.000
919.503; 1130.875; -137.000;  -54.000
919.743;  623.350;  390.000;  266.000
919.983;  264.275; -134.000;  -26.000
920.223;   68.075;  135.000;   14.000
920.463;  142.600;  631.000;  554.000
920.703;  127.875;   84.000;   39.000
920.943;  168.900; -110.000;   90.000
921.183;  218.775; -414.000; -405.000
921.423;  474.300;  307.000;  546.000
921.663;  713.500; -174.000; -257.000
921.903; 1528.400;  237.000;  173.000
922.143; 8312.650;  372.000;  389.000
922.383;32887.525;  158.000;  115.000
922.622;11839.875; -120.000;  -15.000
922.862; 1234.850;  796.000;  785.000
923.102;  458.950;  -51.000;   33.000
923.341;  184.800;   59.000;   74.000
923.581;   70.450;  450.000;  360.000
923.821;   13.625;  301.000;  398.000
924.060;    9.950;  351.000;  193.000
924.300;  -60.725;  -16.000; -128.000
924.539;  -18.050;  584.000;  473.000
924.779;    2.400;  812.000;  597.000
925.018;  -63.050;  247.000;  353.000
925.257;  -15.300;  595.000;  666.000
925.497;  -44.300;  447.000;  412.000
925.736;  -71.475;  -35.000;  102.000
925.975;    0.650;  687.000;  669.000
926.214;   23.200;  907.000;  850.000
926.454;    9.575;  706.000;  757.000
926.693;  -29.900;  419.000;  543.000
926.932;   25.700; 1021.000;  825.000
927.171;   55.250; 1107.000; 1044.000
927.410;   52.600; 1144.000;  967.000
927.649;   14.000;  924.000;  742.000
927.888;  -11.625;  590.000;  564.000
928.127;  -13.725;  680.000;  678.000
928.366;   27.225;  842.000;  826.000
928.605;   30.650;  831.000;  737.000
928.844;  223.050; 1451.000; 1393.000
929.083;  595.050;  770.000;  613.000
929.321;  336.100; 1335.000; 1359.000
929.560;   86.850; 1158.000; 1122.000
929.799;  -29.825;  574.000;  475.000
930.038;   74.775; 1025.000; 1394.000
930.276;  -46.275;  334.000;  397.000
930.515;    9.125;  827.000;  681.000
930.753;  -17.400;  614.000;  589.000
930.992;  -25.850;  664.000;  717.000
931.230;  -11.250;  847.000;  847.000
931.469;  155.975; 2162.000;  892.000
931.707;   59.200;  840.000;  751.000
931.946;   59.975; 1278.000; 1344.000
932.184;   57.900; 1437.000; 1175.000
932.423;   45.600; 1265.000;  963.000
932.661;   82.700; 1296.000; 1428.000
932.899;   20.675;  987.000;  821.000
933.137;   15.775;  754.000;  564.000
933.376;  132.550; 1664.000; 1335.000
933.614;  155.425; 1759.000; 1196.000
933.852;   61.200; 1357.000; 1171.000
934.090;  123.875; 1722.000; 1747.000
934.328;   89.250; 1252.000; 1457.000
934.566;   92.000; 1431.000; 1110.000
934.804;  128.625; 1263.000; 1309.000
935.042;  440.675; 1861.000; 1850.000
935.280; 1706.500; 2088.000; 2063.000
935.518; 1693.175; 2113.000; 2007.000
935.756;  371.575; 2481.000; 2316.000
935.994;  169.075; 1808.000; 1751.000
936.231;  355.600; 2890.000; 2950.000
936.469;  187.575; 2367.000; 2378.000
936.707;  161.250; 2220.000; 2167.000
936.945;  210.450; 2825.000; 2882.000
937.182;  204.200; 2679.000; 2741.000
937.420;  298.475; 3602.000; 3031.000
937.657;  406.175; 3365.000; 3478.000
937.895;  356.875; 3331.000; 3488.000
938.133;  301.100; 3540.000; 3528.000
938.370;  347.575; 3896.000; 4191.000
938.607;  383.025; 4488.000; 4205.000
938.845;  544.450; 5587.000; 5549.000
939.082;  484.800; 5387.000; 5177.000
939.320;  539.825; 5799.000; 5728.000
939.557;  645.400; 6549.000; 6491.000
939.794;  711.400; 7285.000; 7097.000
940.031;  900.675; 8421.000; 8368.000
940.269; 1096.325; 9552.000; 9107.000
940.506; 1118.425;10901.000;10507.000

