
Integration time [ms]: 100.000
Averaging Nr. [scans]: 40
Smoothing Nr. [pixels]: 0
Data measured with spectrometer [name]: 2101013U2
Wave   ;Sample   ;Dark     ;Reference
[nm]   ;[counts] ;[counts] ;[counts] 

394.013;   45.843; -450.257; -315.536
394.305;  182.466; -461.258; -419.536
394.596; 1111.213; -676.269; -527.514
394.887; 2794.305; -796.268; -654.518
395.178; 1085.810;  145.736;   11.476
395.470;   71.572; -210.263; -356.526
395.761;  179.420;  305.734;  394.479
396.052;  202.488; -545.284; -306.489
396.343;  217.358; -557.276; -454.503
396.634;   93.002; -200.279; -290.497
396.926;   74.677; -618.268; -565.517
397.217;   89.137;   11.725;  -17.504
397.508;   48.403; -366.273; -154.507
397.799;   25.152; -555.279; -571.497
398.090;   -8.279; -973.280; -902.495
398.381;  104.688;   11.708;  -11.473
398.672;  -15.636; -585.292; -742.473
398.963;   35.058; -348.279; -373.498
399.254;   98.998;   54.709; -209.475
399.545;  -40.859;-1017.266; -883.520
399.836;   58.622; -407.277; -343.501
400.127;   41.989; -205.295; -209.468
400.418;   37.798; -423.274; -392.506
400.709;   40.758; -359.281; -333.493
401.000;   36.602; -268.291; -309.476
401.290;   92.126;  225.698;  115.545
401.581;   72.471; -166.286; -228.485
401.872;   14.911; -542.298; -486.462
402.163;   60.482; -313.296; -252.467
402.454;   62.574; -123.291; -163.475
402.744;   74.223; -844.297; -813.465
403.035;  385.754; -226.293;  -86.471
403.326;  499.067; -366.292; -384.474
403.617;  334.530;  204.701;  165.539
403.907;  250.944; -593.283; -679.490
404.198; 2471.005; -545.307; -599.446
404.489; 6336.624; -618.283; -588.491
404.779; 2060.929; -618.302; -660.456
405.070;  227.583;  -67.304; -174.451
405.360;  327.231; -259.293; -238.472
405.651;  353.290;  125.699;   98.542
405.942;  167.966;  209.714;  127.516
406.232;  201.530; -432.285; -413.487
406.523;  413.774;  641.706;  758.530
406.813;   85.293; -579.286; -644.484
407.104;  297.537;  261.708;  144.527
407.394;  135.182; -604.299; -591.462
407.685;  151.205;  336.715;  222.513
407.975;   73.647; -400.283; -382.490
408.265;  112.013; -134.289; -190.478
408.556;   70.271; -472.291; -459.475
408.846;  154.600;  474.706;  429.530
409.137;   76.847;   -1.288; -216.480
409.427;   54.080; -193.285; -271.487
409.717;   21.831; -776.273; -692.508
410.007;  136.049;    4.715; -170.486
410.298;   81.942; -360.295; -342.469
410.588;   65.953; -495.285; -510.486
410.878;   22.158; -792.287; -873.482
411.168;  113.714; -481.298; -478.463
411.459;  112.292; -295.283; -242.489
411.749;   58.819; -609.292; -507.474
412.039;   64.945; -755.289; -386.480
412.329;  205.715;   40.722;  132.501
412.619;  189.943;  -62.286; -148.485
412.909;  358.016;  639.711;  594.521
413.199;  315.146; -130.280; -251.495
413.490;  368.156;  521.710;  352.523
413.780;  142.425;-1013.279; -913.496
414.070;  314.409;  -46.276;  235.497
414.360;  335.761; -729.278; -666.498
414.650;  424.254; -726.288; -688.482
414.940;  527.349; -538.280; -441.496
415.230;  917.401;   50.712;   74.519
415.520; 6168.287;  155.730;   66.486
415.809;24320.008; -305.281; -125.493
416.099;19114.799; -388.277; -229.501
416.389; 5330.595;  435.726;  236.494
416.679; 3186.125;   91.738;   85.473
416.969;  549.437; -527.287; -503.483
417.259;  594.302;  341.721;  171.503
417.549;  667.456;  522.718;  318.508
417.838; 1668.104; -205.268; -147.518
418.128; 5612.437;  650.710;  492.522
418.418; 4702.088; -491.272; -579.509
418.708; 3237.646;    9.726;  -48.506
418.997;11922.491; -474.275; -480.505
419.287;12558.952; -733.273; -790.507
419.577;11931.391; -160.283; -123.489
419.866;39264.447; -588.277; -498.501
420.156;40061.833; -242.270;  -55.513
420.446; 7210.043; -112.263;  -26.526
420.735;  821.602; -376.271; -446.512
421.025;  823.435; 1830.722;  315.502
421.314;  614.525; -203.271; -226.512
421.604; 1179.597;   89.732;  233.484
421.893;  691.372; -705.271; -602.511
422.183;  217.493; -487.263; -461.526
422.472;  368.798;  -36.271; -107.511
422.762;  425.147; -416.266; -379.521
423.051;  229.309; -916.276; -916.503
423.341;  290.054; -491.273; -439.507
423.630;  387.703; -121.265;   15.477
423.919;  383.166;   58.725;   49.495
424.209;  366.723;  -31.263;   56.473
424.498;  490.402;   68.732;  161.483
424.787; 1097.883; -535.267; -601.518
425.077; 3337.602;   34.735;   29.478
425.366; 4561.654; -734.262; -744.528
425.655;10165.205;  639.727;  259.493
425.945;22752.983; -313.247; -268.554
426.234;12661.077;  117.741;  300.467
426.523; 5148.207;  -86.259; -350.534
426.812; 7104.068;  107.734;  159.480
427.101;10514.568; -127.269; -323.515
427.390;13111.437;  -55.270;  -86.514
427.680; 2773.527; -624.257; -411.538
427.969;  463.612; -330.255; -301.540
428.258;  296.543; -385.257; -477.536
428.547;  521.792;  449.728;  397.490
428.836; 1111.879; -421.253; -398.543
429.125; 1576.634; -199.259;  -72.534
429.414;  770.901; -330.251; -294.548
429.703; 3172.101; -231.251; -213.548
429.992; 9562.080; -938.250; -828.549
430.281; 6298.461; -397.264; -331.524
430.570;  554.492;  -21.252;   32.454
430.859;  488.681;  279.741;  352.466
431.148;  408.254;  636.752;  631.446
431.437;  281.166;  391.748;  367.454
431.725;  156.370; -544.257; -481.536
432.014;  119.686; -845.253; -756.545
432.303;  375.955; -149.239; -105.569
432.592;  557.967; -460.263; -178.525
432.881; 1047.680; -601.248; -437.554
433.169; 6438.738; -343.255;  -61.540
433.458;12974.038;  445.765;  540.424
433.747; 5386.960; -397.261; -289.529
434.036;  820.530; -275.242; -280.564
434.324; 2071.867; -395.249; -379.551
434.613; 3729.049;   40.757;  159.437
434.902; 1220.470;  333.760;  439.433
435.190;  473.028;   75.761;  295.431
435.479;  268.481;  -52.245;   83.441
435.767;   89.214; -411.244; -427.561
436.056;  187.701; -340.242; -294.563
436.345;  376.397; -372.240; -223.568
436.633;  368.713;   60.750;  383.450
436.922;  228.274;  208.760;  414.432
437.210;  458.528; -194.236;    1.426
437.499; 1478.911; -583.235; -432.576
437.787; 1676.528; -339.236;  -10.574
438.075;  435.909;   56.761;  162.430
438.364;  580.712;  -44.238;  250.429
438.652;  347.766; -286.226; -138.592
438.941;  115.955;    3.770;  269.415
439.229;    1.664; -665.252; -466.545
439.517;   25.995; -160.234;  -85.577
439.806;   -7.968; -501.225; -290.595
440.094;  169.028;  377.766;  650.421
440.382;  143.106; -653.233; -302.580
440.670;  139.411; -361.235; -285.576
440.959;   20.499; -347.223; -170.599
441.247;   62.592; -151.229; -109.587
441.535;   83.893; -266.235;   31.423
441.823;   13.675; -497.234; -305.578
442.111;  177.996;  173.771;  327.412
442.400;  444.280; -628.245; -335.559
442.688; 1149.302; -111.234; -620.579
442.976;  790.162; -786.213; -450.617
443.264;   65.564; -324.224; -364.597
443.552;   87.792; -258.226;   51.408
443.840;  163.842;  602.765;  876.423
444.128;  105.005;  265.767;  269.420
444.416;   -2.676; -694.228; -312.588
444.704;   19.229; -465.219;  -92.605
444.992;   67.745;   -0.226;  240.407
445.280;   29.381; -517.230;  -94.585
445.568;   21.591; -694.212; -396.618
445.856;  297.738; -174.221;  357.398
446.143;  622.125;  -54.220;   -7.604
446.431;  522.627;  -25.228;  625.411
446.719;  221.223;  489.783;  675.391
447.007;  166.775;  481.769;  705.416
447.295;  168.896;  597.777;  871.402
447.583;   48.214; -464.229;  -34.587
447.870;  139.760; -434.221; -202.601
448.158;  358.280; -104.230;  129.415
448.446;  262.251; -800.219; -338.604
448.733;  146.440;   13.776;  269.403
449.021;  233.590;   60.788;  341.382
449.309;  172.005; -296.210;  208.379
449.596;  212.219;  128.783;   59.392
449.884;  147.303; -571.222; -325.600
450.172;  163.008; -756.227; -406.590
450.459;  470.370;  645.786;  780.387
450.747; 2510.768; -411.218; -147.608
451.034; 7978.078;  493.772;  889.411
451.322; 6675.323; -413.214; -170.614
451.609;  559.142;  292.777;  508.403
451.897;  606.443; -550.203; -183.634
452.184; 1858.922; -622.223; -400.598
452.472; 1743.002;   97.792;  269.375
452.759;  318.877;  512.781;  864.395
453.047;   97.913; -407.212; -125.617
453.334;   54.760; -732.219; -216.606
453.621;   64.926; -438.214; -161.615
453.909;  103.635;   13.796;  384.368
454.196;   99.230; -299.199; -123.641
454.483;  206.406;  317.798;  540.364
454.771;  122.705; -215.208;  196.374
455.058;   45.008; -316.207;  102.374
455.345;  120.186;   71.807;  344.347
455.632;   86.136; -128.207;  235.373
455.919;   44.578;  -82.196;  182.354
456.207;  -69.065; -774.198; -450.642
456.494;  -15.182; -475.200;  -66.639
456.781;   -9.373; -399.202; -198.635
457.068;   48.293; -253.206;  -29.628
457.355;   -1.206; -698.206; -401.629
457.642;   -0.326; -552.205; -290.630
457.929;    3.902; -778.194; -417.651
458.216;   59.413; -575.212; -354.617
458.503;  237.356; -173.193;  -19.652
458.790;  240.927; -864.208; -630.625
459.077;  259.682;  -77.202;  110.364
459.364;  804.570; -350.195; -210.649
459.651; 1756.616;  -46.206;  220.372
459.938;  790.093; -864.209; -665.623
460.225;  133.060;  132.799;  276.363
460.512;  -51.250; -836.197; -688.645
460.799;   77.542;  -32.218;  320.392
461.086;   61.773; -370.200; -251.640
461.372;   23.085; -509.198; -279.642
461.659;  103.704; -165.196;  108.354
461.946;   49.005; -445.193;  -54.651
462.233;  223.445;  842.800;  888.361
462.519;  335.717; -814.201; -464.639
462.806; 1029.826; -768.197; -497.645
463.093;  909.751; -445.191;  -66.656
463.380;  -18.083; -920.186; -824.664
463.666;   44.927; -259.197;  -18.646
463.953;   87.240; -406.195; -243.648
464.239;  176.014; -173.195;  -77.648
464.526;  378.700;  413.806;  743.350
464.813;  300.687; -565.190; -304.658
465.099;  327.381;  606.807;  607.348
465.386;  310.910;  903.807;  921.348
465.672;   10.376; -694.197; -522.645
465.959;    4.055; -598.188; -520.662
466.245;   10.460; -468.193; -359.652
466.532;   81.112; -109.195;   63.352
466.818;   61.392; -357.186; -216.664
467.104;  -21.593; -488.182; -415.672
467.391;  -34.736; -628.189; -459.658
467.677;   25.795; -289.186;    9.335
467.964;    7.896; -682.189; -471.660
468.250;   42.373; -331.186; -160.665
468.536;   77.190;   90.811;  180.341
468.822;  -49.190; -821.184; -574.668
469.109;  150.612;  351.827;  471.311
469.395;  186.220;  729.808;  787.346
469.681;  202.043;   46.811;  156.341
469.967; 1281.373; -699.188; -382.660
470.254; 2761.406; -494.188; -306.662
470.540; 1812.578; -601.196; -476.646
470.826;  250.643; -488.181; -397.675
471.112;  306.613;  288.816;  113.331
471.398;   87.118; -253.183;  -58.670
471.684;   31.221; -626.177; -447.680
471.970;   -2.253; -918.180; -981.675
472.256;   28.219; -521.192; -441.654
472.542;    2.023; -499.171; -434.691
472.828;    5.953; -743.182; -607.672
473.114;   30.792; -380.166; -283.700
473.400;    6.638; -504.175; -293.684
473.686;   21.323; -452.166; -400.701
473.972;   63.052; -230.174; -131.687
474.258;  -46.188; -925.173; -843.689
474.544;  210.588; -183.178;   -2.679
474.830;  346.214;  -65.175;   45.316
475.116;  523.989; -123.190; -196.658
475.401;  693.074; -558.180; -467.676
475.687;  197.648; -725.180; -718.676
475.973;  -10.339; -673.181; -770.673
476.259;  239.291;  736.825;  764.315
476.544;  371.229; -539.176; -437.682
476.830;  848.869; -398.172; -322.690
477.116;  791.678; -430.177; -336.682
477.401;  141.573;  346.820;  358.324
477.687;  -19.687; -289.175; -405.684
477.973;   42.239;   21.819;   28.326
478.258;   -5.057; -448.163; -348.706
478.544;   44.778;   21.815;   61.334
478.829;  -37.921; -818.171; -738.692
479.115;  -48.456; -749.172; -651.690
479.401;  -10.152; -444.174; -449.686
479.686;   25.847; -253.180;  -74.676
479.972;  -18.157; -886.178; -776.680
480.257;   17.343; -258.166;  -65.700
480.542;   -6.717; -614.170; -469.693
480.828;  229.561; 1288.824; 1392.317
481.113;  -33.691; -464.176; -426.683
481.399;  -12.908; -236.161; -202.711
481.684;  -58.082; -620.166; -462.700
481.969;    6.406; -158.159;  -73.713
482.255;  -23.307; -439.169; -285.695
482.540;    0.093; -569.178; -441.680
482.825;   11.037; -395.187; -404.663
483.110;   86.672;  -85.169; -105.696
483.396;  206.802; -840.157; -652.718
483.681;  512.127;  543.826;  730.313
483.966;  160.250; -696.160; -700.712
484.251;   -9.499; -404.174; -310.687
484.536;  -11.947; -356.165; -378.703
484.822;   -2.746; -205.173; -218.687
485.107;  -18.810; -599.152; -502.726
485.392;  127.909;  662.836;  541.296
485.677;   72.331;  354.832;  163.302
485.962;   80.550;  160.843;  270.283
486.247;   87.601;  -14.162;   -8.707
486.532;   39.394; -178.166; -325.701
486.817;  161.162;  381.839;  431.291
487.102;  123.473; -453.154; -514.722
487.387;  713.104; -637.156; -652.718
487.672; 1244.414; -154.164;  -38.705
487.957;  797.544; -394.160; -286.711
488.241;  197.757; -290.150; -314.729
488.526;  788.717; -280.152; -148.726
488.811; 1246.145; -881.177; -818.680
489.096;  942.351; -666.154; -702.723
489.381;  498.863;    3.847;  162.275
489.666;  405.042; -428.161; -510.710
489.950;  176.054;  558.846;  627.277
490.235;  -35.348; -480.151; -458.728
490.520;  -30.434; -756.161; -723.710
490.804;  -55.444; -827.156; -736.719
491.089;    1.498; -469.149; -299.732
491.374;   44.688; -132.164;  -75.704
491.658;   -9.366; -817.147; -717.735
491.943;  145.771; -657.152; -609.727
492.227;  225.469; -178.155;  -38.721
492.512;   50.674; -294.157; -341.717
492.797;  -76.133; -713.149; -716.731
493.081;  -55.663; -588.147; -598.735
493.366;  -49.382; -751.161; -635.711
493.650;  197.265;  831.859;  917.254
493.935;   32.659; -648.147; -447.734
494.219;  -42.948; -778.142; -687.743
494.503;  -43.838; -585.150; -487.730
494.788;   50.641;   46.842;   74.285
495.072;  108.608;  184.850;  434.271
495.356;  174.351; -463.148; -343.733
495.641;  473.843; -812.146; -736.736
495.925;  419.911; -976.156; -903.719
496.209;   30.072; -599.149; -451.732
496.494;  -50.147; -763.142; -544.744
496.778;    0.498; -364.154; -360.722
497.062;  -55.614; -819.156; -627.719
497.346;  -31.854; -869.160; -640.711
497.631;  144.379;  580.852;  560.266
497.915;   65.404;  -64.145;  175.261
498.199;   52.202; -341.157; -277.718
498.483;   29.590; -562.152; -508.725
498.767;  191.584;  301.850;  300.271
499.051;  186.495; -126.149; -100.732
499.335;   33.168; -693.149; -739.731
499.619;  -50.784; -381.129; -423.767
499.903;   19.693; -272.155;  -65.721
500.187;   24.756; -588.153; -316.724
500.471;   10.620; -796.152; -595.727
500.755;   96.591;   62.839;  -96.710
501.039;   17.893; -270.155; -357.721
501.323;   74.617;  -21.141;  264.254
501.607;   20.719; -447.163; -503.706
501.891;  -14.696; -607.156; -512.718
502.174;  -34.035; -726.144; -585.741
502.458;   53.124;   89.849;  370.273
502.742;   32.691; -180.138; -191.751
503.026;  116.458; -412.147; -254.734
503.310;  182.955; -437.159; -375.713
503.593;  110.485; -464.147; -325.735
503.877;  115.181; -232.133; -156.760
504.161;  155.408;    2.847;  -50.724
504.444;  131.168; -841.158; -710.716
504.728;  500.437; -487.164; -522.704
505.012;  740.681; -257.150;  -76.729
505.295;  543.792; -417.161; -212.711
505.579;  548.010; -256.156; -496.719
505.862;  802.100; -555.145; -333.738
506.146;  800.632; -681.159; -758.714
506.429;  419.707;  568.841;  461.286
506.713;   70.303; -732.151; -667.728
506.996;  344.823;   90.846;  295.278
507.280;  346.732; -633.165; -474.703
507.563;  249.816; -469.155; -261.721
507.847;  115.931; -423.153; -112.724
508.130;   90.243; -665.161; -456.711
508.413;  132.089; -758.167; -577.700
508.697;  247.814; -151.167;   12.300
508.980;  164.408; -422.153; -312.724
509.263;   -3.762; -466.155; -450.720
509.547;   40.406; -124.150;   82.271
509.830;   46.295; -172.160;  140.289
510.113;   75.460;  128.844;  298.281
510.396;   41.688; -530.152; -300.725
510.680;  124.927; -818.145; -812.738
510.963;  501.302;  184.846;  180.277
511.246;  414.664; -493.150; -357.730
511.529;  252.457; -482.145;  -83.739
511.812;  389.452; -250.134;   10.241
512.095;  278.526; -740.151; -396.728
512.378;   83.864; -317.147; -245.736
512.661;   27.848; -703.137; -623.753
512.944;   30.629; -750.142; -637.744
513.227;   50.270; -170.137; -171.752
513.510;   25.590; -479.144; -671.741
513.793;   24.646; -485.140; -435.747
514.076;  137.562;  -43.127;  -39.771
514.359;  101.848; -294.149; -135.732
514.642;   87.557; -442.142; -567.744
514.925;  775.494;  581.860;  561.253
515.208; 1049.249; -498.134; -443.758
515.491;  678.913; -276.133; -182.761
515.773;  411.169; -410.143; -337.742
516.056; 2182.530;  249.864;  409.246
516.339; 2945.658; -754.136; -652.755
516.622; 1864.211; -518.150; -488.730
516.904; 1073.726;  882.857;  975.257
517.187;  463.194; -730.138; -523.752
517.470;  401.025; -568.143; -510.743
517.752;  442.911; -624.136; -470.756
518.035;  383.582; -708.139; -725.749
518.318;  388.609; -799.136; -744.755
518.600; 2596.541; -300.132; -325.762
518.883; 3580.657;  310.858;   88.256
519.165; 1755.537; -585.138; -426.751
519.448;  365.241;  -61.132;  -19.762
519.730;  185.419; -573.126; -415.773
520.013;  304.709;  588.867;  664.240
520.295;  709.754;  -94.134;  -15.759
520.578; 1527.729; -335.131; -305.764
520.860; 1764.791; -254.132;   56.238
521.143;  956.638; -763.135; -584.756
521.425;  487.407; -251.125; -279.775
521.707;  694.287; -622.127; -380.771
521.990; 1867.763; -199.127;  167.229
522.272; 2137.448; -116.140;   -4.748
522.554;  926.595; -237.143; -157.742
522.836;  341.802;  -24.134;   99.241
523.119;  201.432; -496.148; -189.734
523.401;  146.686; -448.130; -314.766
523.683;  108.174; -865.137; -693.753
523.965;  285.092;  408.862;  260.248
524.247;  301.053;   54.878;  170.220
524.529;  201.479; -451.134; -367.759
524.812;  374.987;   -3.130;  191.234
525.094;  902.666; -773.138; -631.751
525.376; 1436.591; -143.124;   78.223
525.658;  860.931; -441.136; -339.754
525.940;   23.500; -805.131; -671.764
526.222;   28.759; -188.136;  -88.755
526.504;  104.298; -190.131;   32.237
526.786;  137.956; -960.133; -647.760
527.068;  250.772; -124.123;  -67.778
527.349;   98.777; -865.137; -774.754
527.631;  132.941; -137.132;   22.238
527.913;  127.111; -664.127; -450.771
528.195;  166.925; -761.125; -639.774
528.477;  264.674;  -93.134;  -30.758
528.759;  136.237; -648.130; -522.766
529.040;   68.895; -569.123; -293.778
529.322;   57.878; -235.125;  -10.774
529.604;  131.215;  -47.130;   93.233
529.886;  107.719; -546.126; -302.773
530.167;  123.356;  232.870;  192.235
530.449;   39.538;    1.853;   63.265
530.731;   27.277; -572.122; -459.779
531.012;   74.598; -513.120; -216.784
531.294;   75.662; -118.116;  -43.792
531.575;  146.057;  290.875;  538.225
531.857;   62.644; -548.135; -266.757
532.138;  104.165; -113.141;   40.254
532.420;  162.415;  294.865;  403.244
532.701;  192.434; -722.133; -751.760
532.983;  324.237;  232.867;  182.239
533.264;  116.567; -243.126;  175.228
533.546;  -39.641; -491.136; -508.755
533.827;   34.930;  173.867;   -1.759
534.109;   30.419; -352.135;  -80.757
534.390;   70.970; -725.132; -582.762
534.671;  252.390; -270.135;  -82.756
534.953;  139.198; -751.123; -611.779
535.234;   14.447; -426.117; -255.789
535.515;  -80.144; -891.119; -735.785
535.796;  -21.768; -431.128; -193.770
536.078; -105.309;-1050.124; -904.777
536.359;   -1.576;  -22.123;    3.221
536.640;  -13.048; -480.125; -197.774
536.921;  144.570;  225.871;  143.232
537.202;  387.813;  -87.138;  -16.751
537.483;  492.028;  251.869;  377.236
537.764;  199.081;   17.870;   98.235
538.045;  -35.877; -543.134; -371.758
538.326;  -29.728; -596.129; -447.768
538.607;   22.513; -686.127; -476.771
538.888;  167.189;   98.879;    5.218
539.169;  194.409; -704.122; -535.781
539.450;  340.569;  236.871;   16.233
539.731;  218.468; -361.121; -182.783
540.012;  138.123;  199.880;  412.216
540.293;   89.110;   82.876;  158.224
540.574;    3.308; -895.113; -717.796
540.855;  438.942;  435.879;  377.218
541.136;  527.631;   47.878;  139.220
541.416;  280.988; -161.130; -220.766
541.697;  206.199; -274.131; -170.763
541.978; 1094.617; -270.135; -315.757
542.259; 1385.763; -211.127; -236.771
542.539;  682.006; -191.116; -186.790
542.820;  206.532;  461.875;  480.225
543.101;  125.828;  -52.145;  -77.738
543.381;   29.087; -638.127; -591.771
543.662;  268.435;  159.873; -254.771
543.942;  607.283; -751.127; -830.770
544.223; 1115.083;  193.878;  161.219
544.504;  727.166; -275.124; -182.777
544.784;  612.719; -592.126; -408.773
545.065; 1730.110;  104.884; -254.791
545.345; 2010.807;  227.881;   14.215
545.626; 1365.807;  -14.113; -108.796
545.906;  914.356;   77.869;   98.235
546.186;  403.773;   92.874;  -95.773
546.467;  219.893;   99.877;  -95.778
546.747;  353.481;  264.884;  327.210
547.027;  402.964;   91.876;  111.223
547.308;  349.508; -376.127; -530.770
547.588;  404.022;  299.871;  371.232
547.868;  206.732;  458.870;  588.235
548.149;  213.467;  609.885;  593.207
548.429;  144.261; -347.127; -299.771
548.709;  202.748; -645.120; -461.784
548.989;  510.916;   84.882;   88.213
549.269; 2244.789;   10.868;  139.239
549.550; 5142.622;  215.877;  117.222
549.830; 4611.125; -758.111; -556.799
550.110;  943.907; -468.110; -320.801
550.390;  846.953; -128.122;  -56.779
550.670; 1201.728; -868.114; -783.795
550.950;  853.841; -509.121; -471.782
551.230;  202.587;  549.879;  460.218
551.510;   -3.535; -381.121; -326.782
551.790;   27.290; -173.109; -127.803
552.070;  258.818;  940.877; 1181.223
552.350;  452.661; -492.119; -377.786
552.630;  620.035;   -2.121;   77.219
552.909;  394.260;  181.884;   73.209
553.189;  238.546;  -49.132;   33.237
553.469;  210.285; -703.119; -514.786
553.749;  193.764; -469.127; -357.772
554.029;  188.276;   33.883;  -24.790
554.308;  163.171; -154.115;  -37.794
554.588;   79.481; -196.128; -204.770
554.868;   74.442; -366.121;  -47.782
555.147;  150.993; -114.115;  -46.793
555.427;  650.438; -260.116; -250.792
555.707; 4173.766; -284.115; -200.793
555.986; 5018.303; -719.111; -538.800
556.266; 2656.680;   23.884;   72.210
556.546;  125.740; -888.121; -675.782
556.825;  268.651; -657.114; -556.794
557.105; 1920.629; -125.128;   17.230
557.384; 2233.834;  122.884;  187.209
557.664;  868.362; -717.116; -508.792
557.943;  141.766; -557.121; -411.782
558.222;  194.694; -345.118; -344.788
558.502;  287.745; -116.115;  -76.793
558.781;  499.565;  194.885;  499.208
559.061;  459.519; -232.118; -227.788
559.340;  309.449;  302.883;  353.211
559.619;  760.079;   93.884;  148.210
559.899; 1080.351; -239.117; -266.789
560.178; 1006.369; -778.115; -593.793
560.457; 3366.752; -623.117; -562.790
560.736; 4661.279; -472.111; -482.800
561.015; 3116.152; -500.128; -502.769
561.295;  389.160;  180.893;  215.193
561.574;  333.217;  119.885;  116.207
561.853;  512.794;  274.891;  303.197
562.132;  530.547;  -45.114;  182.206
562.411;  464.711;  396.879;  553.219
562.690;  140.390; -592.115; -458.792
562.969;  147.864;  472.888;  630.203
563.248;  529.008; 2966.878; 2487.219
563.527;  298.504; -290.111; -408.800
563.806;  414.786; -650.127; -521.771
564.085;  430.375; -297.105; -206.810
564.364;  262.379; -594.117; -405.790
564.643;  540.336; -276.121; -223.781
564.922; 2008.363;  221.890;  397.198
565.201; 2029.442; -640.109; -700.803
565.479;  900.289; -297.115; -219.792
565.758;  340.679; -810.128; -712.770
566.037;  485.643; -155.109; -100.803
566.316;  253.859; -286.116;  -28.791
566.595;   40.842;  -17.115;  -12.793
566.873;   94.531; -166.111;  -79.801
567.152;  -59.461; -490.113; -590.797
567.431;   12.780; -113.116;    6.210
567.709;   12.610; -344.107; -212.807
567.988;  265.850; -810.114; -769.794
568.266;  556.016; -160.115;  -68.793
568.545;  431.347; -644.100; -514.819
568.824;  622.663;  160.885;  356.208
569.102;  591.325; -351.114; -235.794
569.381;  241.512; -492.116; -407.792
569.659;  -40.040; -553.113; -553.796
569.938;   35.357; -743.122; -465.780
570.216;  112.296; -225.109; -225.804
570.494;  -32.297; -632.114; -572.795
570.773;   35.265;  202.879;  114.218
571.051;    9.671; -373.123; -357.778
571.330;   71.183; -221.113; -174.796
571.608;   36.265; -181.098; -173.823
571.886;  -59.127; -671.111; -581.799
572.164;  -55.983; -739.121; -621.782
572.443;  -34.171; -562.105; -512.811
572.721;  -33.897; -399.117; -289.790
572.999;  -32.504; -280.117; -168.788
573.277;  105.247;  379.894;  620.191
573.555;  314.149;   94.894;   37.190
573.834; 1445.546;  -86.117; -114.788
574.112; 1684.063;  880.893;  811.193
574.390;  496.730; -143.111;  -96.801
574.668;    7.515;  -91.112;  -61.797
574.946;    1.825; -165.106; -187.810
575.224;    7.767;   71.891;  -16.803
575.502;  -32.943; -200.116; -204.791
575.780;  -92.734; -767.112; -829.798
576.058;  204.854; 1589.889; 1004.200
576.336;   -6.215; -210.110; -129.801
576.614;  -63.509; -511.112; -340.798
576.891;   62.421; -711.115; -823.794
577.169;  505.579; -158.108; -285.805
577.447;  613.362;  169.893;  202.193
577.725;  273.945;  629.888;  854.201
578.003;   22.093;  -71.112; -371.798
578.280;   97.263; -208.104; -242.812
578.558;   58.395; -450.115; -422.793
578.836;  129.703; -210.114; -145.795
579.114;   51.689; -630.112; -670.797
579.391;   71.623;   -6.117;  -18.789
579.669;  -86.428; -595.114; -704.794
579.947;  174.534; -326.107; -127.806
580.224;  347.309; -692.107; -524.806
580.502;  358.013;  127.893;   76.193
580.779;   32.928;  -42.117;   75.210
581.057;  -64.079; -584.109; -470.804
581.334;  -94.047; -726.102; -695.815
581.612;   40.475;   54.895;  511.190
581.889;  -13.159;  -83.101; -129.818
582.167;  -28.995; -298.099; -190.821
582.444;  -99.540; -845.102; -814.817
582.721;   92.461;  657.899;  715.183
582.999;   70.852; -326.100; -167.821
583.276;  576.375; -812.123; -713.779
583.553;  774.756; -364.102; -294.816
583.831;  258.059; -607.104; -631.812
584.108;   55.077;  349.892;  174.195
584.385;   11.402; -122.102;  -98.815
584.662;  -63.319; -651.111; -828.801
584.940;   33.280;  204.889;  204.199
585.217;   -6.765;  -73.113; -303.796
585.494;   26.764;   71.890;  118.198
585.771;  216.597; -250.109; -354.804
586.048;  506.534; -196.113;  -76.796
586.325;  336.009; -721.110; -773.801
586.602;   92.838;  230.896;  213.188
586.879;  -14.276; -499.100; -580.820
587.156;   52.526; -156.105; -331.810
587.433;  -34.517; -701.102; -667.817
587.710;   60.742;  152.888;  234.202
587.987;  317.756; -264.105; -236.811
588.264;  792.318;  315.888;  387.202
588.541; 1395.066;  -61.104;   26.187
588.818; 2756.699;   72.892;  171.196
589.095; 2398.661; -163.104; -174.812
589.371;  397.720; -459.109; -414.804
589.648;   12.738; -581.107; -437.807
589.925;   28.229; -517.114; -621.795
590.202;   26.116; -741.112; -607.798
590.478;   84.958; -166.105;  -73.811
590.755;  297.305; -241.108; -132.806
591.032; 2662.736; -741.110; -699.802
591.308; 3633.380; -732.094; -790.831
591.585; 1873.885; -573.110; -560.802
591.862;  165.335;-1056.102; -950.817
592.138;   64.628; -475.108; -474.805
592.415;  150.414; -486.104; -495.813
592.691; 1525.112;  460.896;  518.188
592.968; 1930.842; -208.098; -123.824
593.244;  938.581; -695.116; -595.790
593.521;   69.860; -105.102;  -42.817
593.797;  -21.621; -810.122; -720.780
594.074;  362.554; -611.096; -588.826
594.350;  667.915;  828.905;  729.172
594.626;  326.656; -303.111; -283.801
594.903;  129.911; -643.101; -645.817
595.179;  202.393;  243.896;  418.187
595.455;   -0.311; -136.107; -150.807
595.731;    0.644;  -19.103;  -38.814
596.008;  -31.849; -464.111; -434.800
596.284;   37.176; -187.100; -242.820
596.560;   70.961; -501.093; -493.833
596.836;  214.628; -173.105;  -70.810
597.112;  350.428; -582.108; -437.805
597.388;  305.502;  -49.097;  -48.826
597.665;  113.737;  437.887;  530.203
597.941;  -73.035; -572.089; -658.839
598.217;   19.139; -323.110; -293.802
598.493;  289.198;   61.891; -204.804
598.769;  525.596; -175.100;  -50.819
599.045;  338.106; -490.108; -562.806
599.321;   55.625; -193.100; -261.820
599.597;  149.998; -355.109; -476.804
599.872;  514.766;  409.896;  429.187
600.148;  387.979;  -61.097; -172.826
600.424;  315.186;   91.893;  202.193
600.700;  275.363; -170.107; -280.807
600.976;  126.923; -442.097; -464.825
601.252;  285.269; -226.109; -272.803
601.527;  233.266; -833.104; -840.813
601.803;  159.659; -453.105; -404.812
602.079;  199.921; -124.100; -118.819
602.354;  581.746; -620.092; -531.835
602.630;  857.110; -140.113; -482.796
602.906; 2468.566; -910.101; -863.818
603.181; 7030.110; -627.119; -534.786
603.457; 6060.451;   98.903; -278.826
603.733;  884.094; -605.120; -626.783
604.008; 1045.825; -245.106; -164.810
604.284; 3191.837; -636.101; -580.817
604.559; 2764.220;   -3.112;  -42.799
604.835;  502.378; -163.105; -225.810
605.110;  452.705; -732.099; -892.821
605.385;  720.364;  224.907;  267.167
605.661;  718.668; -625.095; -729.829
605.936; 1217.357; -664.108; -737.806
606.211; 1036.851;  -17.103; -170.815
606.487;  198.199; -329.114; -376.794
606.762;   10.211; -791.119; -745.786
607.037;  -28.797; -501.105; -433.810
607.313;  -60.164; -589.096; -574.828
607.588;  -10.325; -375.106; -137.810
607.863;   48.240;  -28.101; -143.818
608.138;  173.738;  513.890;  516.198
608.413;   52.734; -576.099; -592.822
608.688;   51.553; -203.108; -267.805
608.964;  203.294; -509.106; -218.809
609.239;  266.201; -107.105; -212.810
609.514;  266.808;  281.895;  240.188
609.789;  690.563; -187.104; -716.812
610.064;  909.885; -435.096; -609.827
610.339;  937.845; -855.109; -799.804
610.614; 1269.601; -131.100; -315.820
610.889;  718.109;  215.895;  107.188
611.163;   54.359; -407.104; -591.812
611.438;   80.550;   81.886; -167.794
611.713;    8.237; -467.101; -499.817
611.988;   56.014; -144.101; -328.818
612.263;  -14.597; -771.102; -717.815
612.538;  221.634;  385.887;  251.204
612.812;  187.652; -832.100; -911.820
613.087;  144.590; -358.098; -338.823
613.362;  -62.336; -497.107; -557.807
613.637;   26.722;  261.897;  138.186
613.911;  -16.428; -256.092; -345.835
614.186;  129.912; -249.107; -292.807
614.460;  739.615; -842.081; -758.854
614.735;  822.539;  -55.087;  -17.843
615.010;  179.429;   43.912;  -82.841
615.284;  267.252;  360.892;  246.195
615.559;  388.045; -792.092; -955.835
615.833;  297.157;  -76.099;  -87.822
616.108;   -2.918; -225.090; -390.837
616.382;  146.490;  274.913;  402.156
616.656;  170.233; -241.090; -232.837
616.931;  525.708; -785.099; -700.822
617.205; 1110.592; -973.104; -979.813
617.480; 1010.255;  -91.125;    6.225
617.754;  174.427; -396.125; -128.774
618.028;   12.623; -369.129; -382.768
618.302;   68.226;   73.892;  -25.805
618.577;  -47.927; -371.103; -518.815
618.851;  -62.609; -399.109; -600.803
619.125;  -59.496; -335.134; -378.759
619.399;  -43.008; -244.104; -374.813
619.673;  -46.287; -330.115; -515.792
619.947;  -33.147; -333.114; -448.795
620.222;  -20.543; -198.110; -204.801
620.496;    3.667;  -47.121;  -96.782
620.770;    6.233; -187.122;  -93.781
621.044;  221.351;  323.895;  346.190
621.318;  765.195; -653.120; -614.783
621.592;  690.317; -430.121; -409.783
621.866;  386.471; -476.112; -572.799
622.140;   31.632; -207.116; -356.791
622.413;   51.450;  138.889;  112.200
622.687;  -20.863; -746.101; -492.817
622.961;   17.076; -130.108; -143.805
623.235;  -54.849; -633.111; -661.800
623.509; -112.167; -816.105; -848.811
623.783;   16.585;  -12.107;   48.193
624.056;  -27.829; -254.120; -280.783
624.330;   59.165;   63.888;   -3.797
624.604;   52.704; -271.116; -355.790
624.877;   75.712;  180.890;   26.198
625.151;   37.323; -249.114; -238.794
625.425;  -36.906; -150.103; -283.814
625.698;  -67.445; -367.119; -374.785
625.972;  -91.261; -799.110; -765.802
626.245;   73.381;  685.884;  484.210
626.519;  -36.375; -426.120; -340.784
626.792;  -34.462; -192.107; -380.807
627.066;  -82.349; -485.122; -662.779
627.339; -105.915; -736.110; -663.802
627.613;   47.248;  351.880;  148.216
627.886;  -48.059;  187.891; -612.803
628.160;  -17.931;  312.880; -161.783
628.433;  -94.517; -695.125; -703.775
628.706;  -72.600; -517.120; -615.784
628.979;   23.064;  296.876;  117.223
629.253;  -89.815; -785.119; -833.786
629.526;  394.192; -334.126; -253.772
629.799;  350.696; -641.123; -479.778
630.072;  153.500; -497.128; -516.769
630.346;  -66.144;-1115.116;-1080.790
630.619;  475.089; -467.107; -545.808
630.892;  661.002;  709.889;  593.200
631.165;  362.292;  790.896;  679.187
631.438;  -84.032;-1092.112;-1055.798
631.711;   54.274;  453.877;  257.221
631.984;  -48.024; -523.117; -624.789
632.257;  -70.352; -636.117; -681.789
632.530;  -47.745; -412.119; -433.785
632.803;    9.746; -109.115;    7.207
633.076;  -56.282; -360.123; -422.777
633.349;   14.929;  173.872;  121.231
633.622;  -30.346; -187.119; -240.785
633.895; -128.305; -903.120; -823.783
634.167;  -60.606; -496.126; -525.773
634.440;  -16.063;  -19.116; -137.792
634.713;    4.234;  -22.119; -120.786
634.986;   72.868;  593.871;  453.233
635.258;  -87.231; -507.115; -597.793
635.531;   88.094;  742.882; -343.788
635.804;  -25.675; -303.117; -318.789
636.077; -105.642; -830.116; -852.791
636.349;    2.192; -586.115; -474.793
636.622;  385.267; 1695.874; 1392.228
636.894;  235.575; -474.120; -909.784
637.167;  156.436; -836.127; -789.771
637.439;   28.182; -278.128; -213.770
637.712;  -53.757; -312.126; -293.772
637.984;  -71.141; -635.116; -707.791
638.257;  403.268;  515.877;  488.222
638.529;  581.484; -881.125; -924.776
638.802;  257.899; -508.128; -449.769
639.074; -109.867; -927.122; -952.781
639.346; -113.855; -942.135; -930.757
639.619;    9.131;  -79.142; -319.744
639.891;  -13.099;  -83.122; -168.779
640.163;  -73.897; -689.122; -756.780
640.435;   31.705;  273.878;  103.220
640.708;   -4.318;  -72.122; -132.780
640.980;  -23.691; -366.122; -362.781
641.252;  207.336;  -25.121;  -71.781
641.524; 1840.912;  580.879;  573.219
641.796; 1836.114;-1094.121; -907.782
642.068;  323.266; -191.121; -300.782
642.340;  -55.207; -486.121; -566.783
642.613;   31.295;  294.880;  323.217
642.885; -105.129; -787.120; -878.783
643.157;  -52.227; -810.120; -658.784
643.428;   52.200;  170.880;  218.216
643.700;  -70.098; -498.120; -425.784
643.972;  -35.546;  -16.119; -133.785
644.244;  -86.419; -474.119; -559.785
644.516;  -60.343; -250.119; -114.786
644.788;   51.834;  662.881;  548.214
645.060;  -15.914;  -12.119; -124.786
645.332; -102.762; -525.118; -535.787
645.603;   37.290;  479.882;  342.213
645.875;  -79.783; -334.118; -369.787
646.147;  162.293; 1487.882; 1242.212
646.418;  -61.205; -931.117; -918.788
646.690;  155.472; -714.117; -715.789
646.962;   31.699; -413.117; -451.789
647.233;  -13.574;   15.883;   11.211
647.505; -108.723; -595.117; -475.790
647.776;   35.104;  328.884;  229.210
648.048;   -4.169; -248.116; -418.790
648.320;  -81.167; -752.116; -679.791
648.591; -146.965;-1055.116; -958.791
648.862;  -86.788; -505.116; -577.792
649.134;   17.738;  115.885;  198.208
649.405;  -36.035; -661.115; -618.792
649.677;  -61.858; -475.115; -598.793
649.948;   -5.756; -181.115; -296.793
650.219;  -17.254;  -37.115; -147.793
650.491;  -83.628; -431.114; -520.794
650.762; -126.401; -705.114; -731.794
651.033;  -82.874; -437.114; -424.795
651.304; -102.147; -743.114; -728.795
651.576;  -72.320; -680.114; -645.795
651.847;  -37.743; -250.113; -140.796
652.118;  -32.767;  -32.113; -189.796
652.389; -104.765; -639.113; -722.796
652.660;  -29.863; -147.113;  -89.797
652.931; -148.661; -897.112; -871.797
653.202;  -89.134; -382.112; -541.798
653.473;  -61.657; -633.112; -533.798
653.744;  167.994; -595.112; -590.798
654.015;  121.796; -356.112; -303.799
654.286;  -59.802; -642.111; -663.799
654.557;  -55.575; -586.111; -521.799
654.828; -157.673;-1114.111;-1088.800
655.099;  -81.597; -404.111; -291.800
655.370;  -91.720; -427.111; -543.801
655.641; -124.668; -656.110; -714.801
655.911; -104.741; -618.110; -638.801
656.182;   46.486;  437.890;  387.198
656.453;   85.338;  830.890;  746.198
656.724;  -95.086; -466.110; -426.802
656.994;  -96.209; -553.109; -568.803
657.265; -122.857; -862.109; -873.803
657.536;  -75.705; -500.109; -377.804
657.806; -121.403; -561.109; -593.804
658.077; -133.501; -866.109; -950.804
658.347;  -96.825; -523.108; -598.805
658.618; -119.548; -646.108; -694.805
658.888;  -30.471;  -41.108;  112.195
659.159;  -74.794; -432.108; -548.806
659.429;  -17.367; -292.108; -349.806
659.700;   12.034; -435.107; -390.807
659.970;   -5.189; -370.107; -359.807
660.241;   14.488; -754.107; -921.807
660.511;  503.665; -147.107; -174.808
660.781;   87.317; -793.106; -748.808
661.052;  -57.206; -222.106; -381.808
661.322;  -39.955;   21.894;   -9.809
661.592;    7.297;  257.894;  148.191
661.862;  -77.601; -369.106; -382.810
662.133;  -90.099; -551.105; -502.810
662.403; -120.197; -770.105; -676.810
662.673;  -64.895; -256.105; -213.811
662.943; -104.044; -612.105; -551.811
663.213;  -28.042;  -85.105;  -81.811
663.483;  -69.965; -593.104; -568.812
663.753;  -50.938; -194.104; -152.812
664.023;  -15.536;   68.896;  -32.813
664.293;  -63.560; -319.104; -126.813
664.563; -122.483; -694.104; -648.813
664.833; -128.506; -743.103; -608.814
665.103; -124.354; -730.103; -793.814
665.373; -110.852; -766.103; -806.814
665.643;  -73.225; -863.103; -918.815
665.913;   32.226; -534.103; -714.815
666.182;  140.378; -685.102; -719.816
666.452;  272.205;  -22.102;  -89.816
666.722;  -30.318; -724.102; -784.816
666.992; -149.616; -948.102; -921.817
667.261;  -97.739; -824.102; -808.817
667.531;  202.912;  134.899;   45.183
667.801;  561.739; -440.101; -412.818
668.070;  237.791;  714.899;  697.182
668.340; -107.657; -883.101; -840.819
668.609;   79.145;  588.900;  301.181
668.879;  -77.204; -490.100; -558.819
669.149;  -74.352; -539.100; -516.820
669.418; -111.625; -698.100; -726.820
669.688;  -25.198; -482.100; -666.820
669.957;   82.904; -423.099; -546.821
670.226;  -35.844; -268.099; -331.821
670.496;  -87.843; -431.099; -635.822
670.765;  -78.016; -418.099; -501.822
671.034; -139.539; -872.099; -828.822
671.304;  -32.262;   55.902; -111.823
671.573; -150.960;-1085.098; -957.823
671.842;   96.691; -380.098; -294.823
672.112;   25.293; -692.098; -586.824
672.381;   -3.505; -239.098; -214.824
672.650; -117.778;-1005.097;-1021.825
672.919; -101.726; -631.097; -507.825
673.188;  -82.824; -681.097; -878.825
673.457; -154.798;-1101.097;-1143.826
673.726;  -78.771; -579.096; -646.826
673.995;  -45.344; -533.096; -479.826
674.265;  -11.492; -263.096; -333.827
674.534;    8.735; -183.096; -235.827
674.802;   14.287; -618.096; -703.828
675.071; 1073.538; -886.095; -801.828
675.340; 4119.615; -464.095; -339.828
675.609; 1372.692;  103.905;   82.171
675.878;   97.994; -949.095; -893.829
676.147;   42.971;  -26.095;   -8.829
676.416;   96.997; -210.094; -294.830
676.685;  742.574; 1000.906; -622.830
676.953;  121.851; -603.094; -452.831
677.222;  -33.222; -193.094; -273.831
677.491;  -22.595;  -24.094; -127.831
677.759;  -15.668;   11.907;  172.168
678.028;   -9.142; -279.093; -222.832
678.297;    3.860;   71.907;  197.168
678.565; -146.263; -898.093; -944.833
678.834;  -69.961; -311.093; -268.833
679.102;  -57.909; -411.092; -391.834
679.371; -154.657; -898.092; -727.834
679.639; -134.981; -797.092; -786.834
679.908; -127.904; -794.092; -724.835
680.176; -150.627; -895.091; -941.835
680.445;  -80.875; -346.091; -352.835
680.713;  -19.448;  -58.091;  -23.836
680.982;  -98.797; -523.091; -525.836
681.250; -106.895; -578.091; -507.837
681.518; -105.318; -534.090; -751.837
681.787;  -14.716; -204.090; -167.837
682.055;  -58.164; -490.090; -422.838
682.323; -138.512; -993.090; -992.838
682.591;   30.564; -216.090; -538.838
682.859;  106.566;    9.911;  -35.839
683.128;   12.468;  232.911;  497.161
683.396; -166.030;-1102.089;-1122.840
683.664;  -52.528; -241.089;   21.160
683.932;   -2.826;  144.911;  -76.840
684.200;  -89.850; -576.088; -320.841
684.468;  -18.348;  -73.088; -124.841
684.736;  -45.271; -214.088; -175.841
685.004; -123.069;-1024.088; -982.842
685.272;  -53.392; -880.088; -774.842
685.540;  -66.266; -499.087; -557.843
685.808;  -88.939; -651.087; -682.843
686.076; -107.612; -894.087; -969.843
686.343;  -71.285; -601.087; -815.844
686.611;   36.667; -195.087; -224.844
686.879;  525.694; -530.086; -553.844
687.147; 3470.495; -483.086; -480.845
687.414;  976.797;  -12.086; -169.845
687.682;    4.099; -658.086; -757.846
687.950;  327.001;  259.915;  263.154
688.217;   25.178; -792.085; -760.846
688.485;    8.155; -632.085; -636.847
688.753;  580.356;  -11.085; -102.847
689.020;  152.508; -820.085; -851.847
689.288;  -95.865; -853.084; -787.848
689.555;  -39.113; -195.084; -148.848
689.823;  -43.811; -241.084; -345.849
690.090;  -84.135; -546.084; -651.849
690.358; -151.483; -877.084; -897.849
690.625;    8.444;  120.917;   45.150
690.892;  -78.829; -403.083; -369.850
691.160;  -24.702;   72.917;  -35.850
691.427;   15.900;  141.917;  130.149
691.694; -143.824; -855.083; -929.851
691.962; -147.272;-1177.082;-1060.852
692.229;    8.980;  127.918;   56.148
692.496;   92.757;  130.918;  -49.852
692.763;   19.959; -164.082; -201.853
693.031;  -72.015; -739.082; -716.853
693.298;  -56.063; -509.081; -368.853
693.565;  363.114; -155.081; -163.854
693.832; 1325.066;   -5.081;   -9.854
694.099;  154.143; -643.081; -642.855
694.366;  -55.980; -882.081; -896.855
694.633;  -56.579; -920.080; -633.855
694.900;  777.998; 4367.920; -114.856
695.167;  427.400; -214.080; -380.856
695.434;   88.252; -646.080; -623.856
695.701;  189.454;  121.921;  -61.857
695.968;  474.756; -365.079; -361.857
696.234; 1031.707; -415.079; -646.858
696.501;10258.084; -776.079; -614.858
696.768; 5089.336; -554.079; -617.858
697.035;  302.363; -632.078; -667.859
697.302;   39.240; -448.078; -552.859
697.568;   14.891; -458.078; -497.859
697.835;  -44.282; -683.078; -624.860
698.102;  -42.980; -498.078; -407.860
698.368;   79.172;  384.923;  396.139
698.635;  -30.326;  -47.077; -424.861
698.901;  -13.599; -240.077; -348.861
699.168;   48.027; -534.077; -456.862
699.435;   75.504;  -72.077;  -13.862
699.701; -118.019; -868.076; -764.862
699.968;  -50.492;  144.924; -441.863
700.234; -115.490; -783.076; -822.863
700.500;  -57.488; -448.076; -539.864
700.767;  -10.187;   -1.075;   26.136
701.033; -132.860;-1015.075; -963.864
701.299;  -68.208; -450.075; -483.865
701.566;  117.069;  950.925;  763.135
701.832;   17.221;  -31.075;  -76.865
702.098;  -93.978;-1054.074;-1034.866
702.365;  -90.501;-1098.074;-1030.866
702.631;  -35.399;-1038.074;-1063.867
702.897; 1457.078; -765.074; -676.867
703.163; 2292.680;  348.926;  254.133
703.429;  146.632; -256.073; -273.868
703.695;  -37.417; -796.073; -792.868
703.961;   11.510; -214.073; -210.868
704.227;  -52.338; -630.073; -725.869
704.493;  133.739;  613.927;  510.131
704.759;  -34.184; -565.072; -540.870
705.025;   34.693; -203.072; -194.870
705.291;   -4.681; -666.072; -562.870
705.557;  198.621;  719.928;   34.129
705.823;   20.623; -742.072; -694.871
706.089;  129.700; -307.071; -326.871
706.355;  356.827; -315.071; -244.872
706.620; 5437.403; -776.071; -729.872
706.886; 7531.480; -309.071; -362.873
707.152;  692.382; -818.070; -973.873
707.418;  -35.491;-1153.070;-1186.873
707.683;  -11.414; -550.070; -530.874
707.949;  -31.912; -547.070; -578.874
708.215;   -3.861; -129.070; -207.874
708.480;  -19.059; -520.069; -420.875
708.746;   92.118;   68.931;   28.125
709.011;  -62.455; -578.069; -612.876
709.277;  -96.203; -538.069; -543.876
709.542;  -43.727; -428.069; -387.876
709.808;   -5.850;  -59.068;   89.123
710.073;  -76.498; -577.068; -695.877
710.339;  -43.321; -242.068; -228.877
710.604;   82.531; -780.068; -845.878
710.869;  321.808; -277.068; -366.878
711.135;  -73.241; -715.067; -628.879
711.400;  -99.114; -507.067; -608.879
711.665;  -61.037; -404.067; -479.879
711.931;  -91.935; -661.067; -677.880
712.196; -121.708; -876.067; -954.880
712.461;  113.919; -402.066; -490.880
712.726;  140.470; -727.066; -771.881
712.991;  -94.203; -647.066; -664.881
713.256;  -44.501; -350.066; -332.882
713.521;  -71.449; -417.065; -381.882
713.787;  -72.297; -454.065; -472.882
714.052;  -43.571; -214.065; -400.883
714.317; -105.644;-1045.065; -981.883
714.581; 1004.683; -374.065; -268.883
714.846; 1302.310; -822.064; -888.884
715.111;  123.812;  261.936;  257.116
715.376;  -26.686;  -86.064; -223.885
715.641;  -23.735; -365.064; -367.885
715.906;  314.217;   15.936; -551.885
716.171;  137.819;  221.937;  209.114
716.436;   22.396;  -78.063; -104.886
716.700; -114.227; -818.063; -692.886
716.965; -132.250; -794.063; -807.887
717.230;  -86.174; -339.063; -392.887
717.494;  -20.372;  -40.062; -134.888
717.759;  -97.520; -784.062; -640.888
718.024;   -1.218;  269.938;  250.112
718.288;   58.034;  685.938;  395.111
718.553; -141.965; -803.062; -977.889
718.817; -154.213; -883.061; -899.889
719.082;  -34.086; -115.061; -125.890
719.346; -148.884;-1000.061; -947.890
719.611;  -65.057; -300.061; -255.891
719.875;  -99.380; -568.060; -537.891
720.140;  -68.554; -453.060; -603.891
720.404;   35.973; -136.060; -249.892
720.668;  900.675; -475.060; -411.892
720.933;  321.302;  146.940;  137.108
721.197;  -84.321; -667.059; -600.893
721.461; -133.094; -851.059; -826.893
721.725;  -21.193;  -21.059; -250.894
721.990;  -57.991; -284.059; -204.894
722.254;  -18.264;  -26.059; -108.894
722.518;  -72.937; -286.058; -442.895
722.782;  -85.010; -743.058; -594.895
723.046;  118.241;  614.942;  570.105
723.310;   20.418;  374.942;  210.104
723.574; -110.605; -654.058; -614.896
723.838;  -86.728; -576.057; -642.897
724.102;  -43.226; -226.057; -239.897
724.366; -149.774;-1032.057; -978.897
724.630;  -96.573; -749.057; -571.898
724.894;  -67.896; -722.057; -514.898
725.158;  -14.044;   38.944; -295.898
725.422;  -60.767; -394.056; -327.899
725.685;  -54.615; -441.056; -349.899
725.949;  -84.688; -566.056; -519.900
726.213;  -75.987; -732.056; -811.900
726.477;  186.240;-1020.055; -933.900
726.740;  141.792; -274.055; -104.901
727.004;  347.394; -384.055; -510.901
727.268; 3248.221; -442.055; -400.901
727.531;  839.697; -961.055; -775.902
727.795;  -52.526; -713.054; -673.902
728.059;  -75.074; -552.054; -557.903
728.322;  -81.197; -841.054; -669.903
728.586;   23.430; -692.054; -701.903
728.849;  -77.793; -695.053; -756.904
729.112; -121.092; -812.053; -912.904
729.376; -134.340; -959.053; -905.904
729.639;  -72.563; -536.053; -536.905
729.903; -125.236; -733.053; -699.905
730.166;  -59.059; -437.052; -399.906
730.429;  -39.983; -317.052; -468.906
730.693;  -61.406; -355.052; -894.906
730.956;  216.946;  810.948;  651.093
731.219;  730.773; -310.052; -103.907
731.482;  127.550;-1003.051; -894.907
731.745;   93.127; -794.051; -935.908
732.009;   14.603;  -30.051;   50.092
732.272;  -94.720; -904.051; -771.909
732.535;  -50.043; -300.051; -310.909
732.798; -157.841;-1083.050;-1166.909
733.061;  -57.589; -430.050; -456.910
733.324;    1.238;   31.950; -180.910
733.587;   50.264;  290.950;  365.090
733.850;  -63.159; -973.049;-1050.911
734.113;   25.543;   33.951;   32.089
734.376;    4.445; -328.049; -447.912
734.639;  206.072; 1188.951; 1011.088
734.901;   80.198; -180.049; -402.912
735.164;  535.775; -883.048; -837.913
735.427; 1322.227; -166.048; -355.913
735.690;  123.754; -205.048; -234.913
735.952;  -47.119; -923.048; -925.914
736.215;  -28.817;-1113.048;-1009.914
736.478;   50.084; -771.047; -774.915
736.740;  210.761;   33.953;  129.085
737.003;  746.963; -658.047; -672.915
737.266; 4218.115;  -94.047;   46.084
737.528;  435.092; -682.047; -660.916
737.791;  314.444; -316.046; -327.916
738.053;  825.645;  465.954;  649.083
738.316;10980.047; -162.046; -136.917
738.578; 7315.574; -770.046; -736.918
738.841;  418.551; -382.046; -446.918
739.103;  164.553; -875.045; -777.918
739.365;  509.329;   79.955;  -69.919
739.628;  -11.994; -884.045; -805.919
739.890;  -42.967; -758.045; -710.919
740.152;  -31.890; -692.044; -754.920
740.414;   -7.538; -408.044; -359.920
740.677;  -46.461; -785.044; -634.921
740.939;  -55.535; -587.044; -487.921
741.201;  300.192; -432.044; -572.921
741.463;   39.594; -689.043; -745.922
741.725;   25.046;  -21.043; -199.922
741.987;   41.348;  220.957;  116.078
742.249;    8.025; -751.043; -859.923
742.511;  222.726; -703.043; -794.923
742.773;    8.978; -546.042; -546.924
743.035;  140.480;  796.958;  533.076
743.297;  -42.968; -963.042;-1013.924
743.559;  761.084; -278.042; -262.925
743.821;   50.235; -735.042; -744.925
744.083;    7.612;  -44.041; -149.925
744.345;  -91.011; -869.041; -892.926
744.607;   32.916;   75.959;  122.074
744.868;  -57.032; -490.041; -554.927
745.130; -118.080; -994.041;-1008.927
745.392;   39.121;   -1.040;  -44.927
745.653;    2.148; -411.040; -378.928
745.915;  147.500;  896.960;  631.072
746.177;   53.227;   35.960;  -43.928
746.438;   -3.821; -428.040; -543.929
746.700;  -47.019; -947.039; -988.929
746.961;   -0.843; -659.039; -740.930
747.223;  142.634; -190.039;  -74.930
747.484;   95.561; -391.039; -471.930
747.746;  149.138;  -23.038; -106.931
748.007;  120.815; -647.038; -689.931
748.269;  320.916; -468.038; -440.931
748.530;  499.968; -852.038; -638.932
748.791;  272.995; -354.038; -420.932
749.053;  446.947;  286.963;  163.067
749.314;  441.149; -236.037; -169.933
749.575;  507.301; -945.037; -905.933
749.836;  857.627; -217.037;   86.066
750.098; 2620.554;  -60.037;  -21.934
750.359;37920.631;  414.964;  555.066
750.620; 9081.558; -121.036; -220.935
750.881; 1053.285; -585.036; -513.935
751.142; 1419.211; -950.036; -938.936
751.403;17225.188; -789.036; -705.936
751.664; 7163.440;-1034.035; -999.936
751.925;  477.367; -175.035; -262.937
752.186;  278.894; -298.035; -278.937
752.447;  114.146; -590.035; -445.937
752.708;   42.247; -532.035; -648.938
752.969;    2.224; -566.034; -576.938
753.230;    2.551; -777.034; -672.939
753.491;   -7.197; -650.034; -631.939
753.751;   67.405;  109.966;   19.061
754.012;   91.732;  258.967;  181.060
754.273;   39.008; -174.033;  -71.940
754.534;    3.510; -487.033; -580.940
754.794;  -95.988; -926.033; -911.941
755.055;  145.714; 1051.967;  881.059
755.316;  -48.309; -700.032; -566.942
755.576;  -22.333; -606.032; -576.942
755.837;  -41.156; -527.032; -695.942
756.097;  -46.179; -530.032; -564.943
756.358;  -80.027; -725.032; -770.943
756.618;  -56.425; -705.031; -641.943
756.879;    6.827; -254.031; -349.944
757.139; -124.022;-1098.031;-1116.944
757.400;  -59.445; -538.031; -553.945
757.660;  -25.493; -365.031; -401.945
757.920;   12.109; -266.030; -228.945
758.181;  -18.489; -468.030; -351.946
758.441;  -89.712; -870.030; -809.946
758.701;  -24.211; -308.030; -215.946
758.961;  -28.884; -220.030; -278.947
759.222;  -58.082; -574.029; -502.947
759.482;  -82.205; -683.029; -723.948
759.742;  -89.353; -706.029; -547.948
760.002;   -2.177;  -83.029; -143.948
760.262;   32.675;   50.972;  182.051
760.522;  -29.698; -498.028; -574.949
760.782;  -58.871; -738.028; -612.949
761.042;  -40.894; -618.028; -573.950
761.302;   46.183;   55.972;  -18.950
761.562;   60.459; -164.027; -154.951
761.822;   85.611; -710.027; -551.951
762.082;  -47.662;-1104.027;-1093.951
762.342;   54.265; -328.027; -403.952
762.601;   81.842; -567.027; -506.952
762.861;  356.844; -281.026; -207.952
763.121;  413.120; -406.026; -411.953
763.381; 7641.372; -499.026; -485.953
763.640; 7854.124; -139.026; -307.954
763.900;  345.851; -242.026; -203.954
764.160;   77.478; -458.025; -491.954
764.419;  -13.921; -726.025; -782.955
764.679;  -72.544; -795.025; -726.955
764.939;  -11.117; -124.025; -210.955
765.198;  -76.440; -608.025; -563.956
765.458; -101.513; -710.024; -612.956
765.717;  -79.486; -454.024; -590.957
765.976;  -66.760; -428.024; -411.957
766.236;  -74.233; -475.024; -610.957
766.495;   15.719;  260.977;   73.042
766.755;  -91.954;-1090.023; -987.958
767.014;    3.198; -594.023; -665.958
767.273;  -51.851; -373.023; -397.959
767.533;  -47.624; -228.023; -307.959
767.792;  -29.772; -151.022; -188.960
768.051;  -50.570; -228.022; -276.960
768.310;  -79.943; -546.022; -650.960
768.569;   -9.966; -161.022;    4.039
768.828;  -47.015; -285.022; -363.961
769.088; -131.938;-1050.021; -942.961
769.347;  -88.686; -755.021; -599.962
769.606; -115.884; -876.021; -857.962
769.865; -118.057;-1016.021;-1033.963
770.124;  -10.055; -411.021; -336.963
770.383;  -37.654; -778.020; -910.963
770.641;  -16.452; -398.020; -400.964
770.900;  -71.525; -953.020; -846.964
771.159;  -54.723; -851.020; -951.964
771.418;  -36.971; -917.020; -779.965
771.677;  111.630; -224.019; -293.965
771.936;  133.932; -794.019; -865.966
772.194; 2249.559; -465.019; -437.966
772.453;10597.161; -213.019; -391.966
772.712;  726.938;  416.982;  329.033
772.970;  122.290;   32.982;   63.033
773.229;   81.991;  -22.018;  102.033
773.488;  -82.907; -814.018; -770.968
773.746;   48.895;  296.982;  335.032
774.005;   -4.453;  190.983;  -22.969
774.263;    4.324;  243.983;  177.031
774.522;  -92.074; -422.017; -548.969
774.780;  -82.923; -484.017; -417.970
775.039;  -87.796; -551.017; -531.970
775.297;  -34.244; -135.016; -351.970
775.555; -102.442; -489.016; -612.971
775.814; -135.790; -618.016; -570.971
776.072; -119.839; -749.016; -740.971
776.330; -105.662; -630.016; -520.972
776.589; -109.285; -703.015; -721.972
776.847; -123.833; -645.015; -624.973
777.105; -171.631;-1016.015;-1032.973
777.363;  -83.904; -459.015; -454.973
777.621; -143.153; -660.015; -717.974
777.879;  -14.776;  -42.014;   32.026
778.138; -108.874; -554.014; -717.974
778.396; -107.947; -585.014; -526.975
778.654; -169.870;-1015.014; -970.975
778.912;  -82.368; -269.014; -371.976
779.170; -130.342; -880.013; -803.976
779.427; -146.340; -922.013; -897.976
779.685; -135.988; -880.013; -832.977
779.943;  -79.711; -654.013; -593.977
780.201; -165.109; -964.012; -883.978
780.459; -135.258; -651.012; -610.978
780.717;  -83.406; -440.012; -390.978
780.974; -101.704; -449.012; -490.979
781.232;  -74.102; -358.012; -338.979
781.490;  -85.425; -551.011; -472.979
781.747; -102.123; -555.011; -476.980
782.005;   19.303;  462.989;  254.020
782.263; -164.070; -542.011;-1004.981
782.520;  -96.168; -326.011; -501.981
782.778; -168.791;-1013.010;-1051.981
783.035; -187.939; -962.010; -938.982
783.293;  -65.087; -248.010; -206.982
783.550;  -54.861; -134.010; -198.982
783.808; -126.334; -764.010; -776.983
784.065; -162.057; -745.009; -874.983
784.322;  -38.405;   25.991;  -86.984
784.580; -137.603; -915.009; -771.984
784.837; -100.352; -392.009; -466.984
785.094; -150.275; -783.009; -762.985
785.352;  -55.273; -304.008; -404.985
785.609; -119.321; -934.008; -839.985
785.866;  -75.119; -345.008; -401.986
786.123;  -72.117; -639.008; -583.986
786.380;  -99.291; -665.008; -604.987
786.637;  -50.489; -225.007; -380.987
786.895;  -24.787; -456.007; -543.987
787.152;  -56.010; -135.007; -267.988
787.409;  -49.308; -123.007; -225.988
787.666;  -95.282; -299.006; -378.988
787.923; -103.530; -616.006; -695.989
788.179; -105.328; -551.006; -584.989
788.436; -102.076; -585.006; -585.990
788.693;  -38.899;  -92.006;  -87.990
788.950;  163.853; -125.005; -112.990
789.207;  219.054; -381.005; -372.991
789.464;  -56.169; -161.005; -301.991
789.720;   -6.342;  150.995;  110.009
789.977; -181.215;-1003.005; -671.992
790.234;  -40.238;   44.996;  -66.992
790.490; -140.111; -884.004;-1031.993
790.747;  -31.185;  -85.004;   22.007
791.004;  -15.183; -426.004; -348.993
791.260;  -81.281; -430.004; -560.994
791.517; -108.904; -843.003; -788.994
791.773;  -53.202; -379.003; -342.994
792.030; -109.176; -596.003; -660.995
792.286; -118.674; -686.003; -636.995
792.543;  -15.872;  -74.002; -159.995
792.799;  -64.070; -584.002; -382.996
793.055; -173.968;-1179.002;-1210.996
793.312; -100.091; -827.002; -816.997
793.568;  -63.165; -746.002; -599.997
793.824;    6.537; -226.001; -284.997
794.081;   20.014; -447.001; -508.998
794.337;   55.191; -664.001; -561.998
794.593; 1404.543; -319.001; -271.999
794.849; 6470.495; -746.001; -772.999
795.105;  309.796; -270.000; -261.999
795.361;   -1.427; -490.000; -457.000
795.617;  -66.050; -875.000; -945.000
795.873;  -60.600; -360.000; -407.000
796.129;  -42.150; -368.000; -306.000
796.385;  -28.050; -124.000; -156.000
796.641;   52.075;  412.000;  550.000
796.897;  -78.950; -666.000; -635.000
797.153;   73.400;  453.000;  357.000
797.409; -124.950; -785.000; -868.000
797.665;  -95.175; -625.000; -732.000
797.921;  -91.350; -775.000; -762.000
798.176;  -63.050; -744.000; -747.000
798.432;  -64.075; -824.000; -596.000
798.688;  -96.475;-1174.000;-1078.000
798.943;   72.400; -165.000; -147.000
799.199;  -15.625;-1005.000; -959.000
799.455;  226.875;  369.000;  316.000
799.710;  115.225; -813.000; -380.000
799.966;  274.325; -162.000; -160.000
800.221;  488.725; -638.000; -721.000
800.477;10725.500; -743.000; -710.000
800.732; 8780.425; -773.000; -800.000
800.988;  611.700;  205.000;  -19.000
801.243; 1790.325; -454.000; -344.000
801.498; 7141.675; -814.000; -739.000
801.754;  390.300; -289.000; -163.000
802.009;   75.875; -257.000; -335.000
802.264;  -62.200; -967.000;-1033.000
802.520;    3.875;  222.000;   -3.000
802.775;  -39.075; -524.000; -359.000
803.030;   26.150;  395.000;  356.000
803.285; -117.400; -840.000; -903.000
803.540;  -67.975; -686.000; -699.000
803.795;  -39.175; -648.000; -583.000
804.051;  -57.775; -279.000; -346.000
804.306;   17.750;  168.000;  128.000
804.561;  144.675;  451.000;  362.000
804.816;  138.025;  714.000;  861.000
805.071;   20.975; -185.000; -280.000
805.325;  238.500; -257.000; -427.000
805.580; -113.925; -841.000; -877.000
805.835;  -17.525; -204.000; -297.000
806.090;  -79.250; -760.000; -676.000
806.345;  -21.825; -344.000; -264.000
806.600;  -42.200; -549.000; -632.000
806.854;  -37.000; -408.000; -538.000
807.109;  -22.025; -493.000; -577.000
807.364;    0.725; -407.000; -328.000
807.618;    2.325; -415.000; -381.000
807.873;   57.050; -470.000; -494.000
808.128;   94.700; -257.000; -518.000
808.382;   94.025; -224.000; -332.000
808.637;   74.025; -440.000; -511.000
808.891;  174.550; -257.000; -180.000
809.146;   93.625; -902.000; -794.000
809.400;  269.750; -848.000; -923.000
809.654;  329.100; -779.000; -551.000
809.909;  502.250; -841.000; -927.000
810.163; 7221.825; -813.000; -651.000
810.418;17374.675; -940.000; -861.000
810.672;  995.050; -685.000; -690.000
810.926;  733.050; -993.000; -973.000
811.180; 1433.525; -439.000; -372.000
811.434;31793.525;  240.000;  135.000
811.689;11714.925; -231.000; -365.000
811.943;  601.475; -936.000; -953.000
812.197;  308.200; -893.000; -671.000
812.451;  121.525; -379.000; -514.000
812.705;  -25.925; -809.000; -619.000
812.959;   -6.050; -263.000; -388.000
813.213;    3.600; -283.000; -209.000
813.467;   54.550;  470.000;  253.000
813.721; -114.200; -764.000; -792.000
813.975; -122.425; -826.000; -877.000
814.229;   40.100;  430.000;  353.000
814.482;  -79.675; -517.000; -566.000
814.736; -119.975; -766.000; -744.000
814.990; -131.000; -779.000; -872.000
815.244;  -51.875; -228.000; -285.000
815.497;  -89.750; -636.000; -601.000
815.751;  -12.750; -141.000;   82.000
816.005;  -78.600; -470.000; -586.000
816.258;  -65.825; -510.000; -363.000
816.512; -121.150; -693.000; -610.000
816.766;    2.325;  121.000;  157.000
817.019;   17.700;  148.000;  149.000
817.273; -113.350;-1000.000; -802.000
817.526;  -33.275; -206.000; -173.000
817.779;  -39.000;-1049.000; -960.000
818.033;  -60.275; -693.000; -807.000
818.286; -130.775; -725.000; -792.000
818.540;  -87.225; -403.000; -403.000
818.793;  -97.550; -402.000; -489.000
819.046; -106.100; -582.000; -520.000
819.299;  -48.075; -157.000; -166.000
819.553; -101.700; -552.000; -592.000
819.806; -164.475;-1016.000; -838.000
820.059;  -46.650; -334.000; -354.000
820.312;    5.575;  152.000;  185.000
820.565;   -0.975;  110.000;  -27.000
820.818;  -45.975;  -59.000; -173.000
821.071; -179.200;-1041.000; -957.000
821.324; -111.225; -536.000; -540.000
821.577; -102.800; -457.000; -483.000
821.830;  -65.650; -270.000; -172.000
822.083; -124.925; -733.000; -288.000
822.336;  -62.800; -261.000; -167.000
822.589; -141.900; -805.000; -688.000
822.842; -160.375; -875.000; -770.000
823.094; -174.475;-1076.000;-1114.000
823.347; -137.975; -925.000; -729.000
823.600;   19.650;  402.000;  187.000
823.853;  -58.475; -311.000; -267.000
824.105;  -69.900; -331.000; -575.000
824.358; -116.200; -617.000; -716.000
824.611;   25.950;  234.000;   40.000
824.863;  -59.375; -612.000; -591.000
825.116;   39.975;  -33.000;   27.000
825.368;   71.350; -366.000; -372.000
825.621;  161.300; -186.000; -240.000
825.873;   80.000; -704.000; -737.000
826.126;  610.725; -669.000; -641.000
826.378;11833.600; -389.000; -505.000
826.630; 2659.050; -890.000; -898.000
826.883;   34.475; -754.000; -693.000
827.135;   49.650; -279.000; -270.000
827.387; -117.175; -893.000; -839.000
827.639;  -36.525;  -86.000;   32.000
827.892; -150.575; -742.000; -582.000
828.144; -139.775; -848.000; -804.000
828.396;  -23.825;  104.000;  -80.000
828.648; -108.200; -440.000; -333.000
828.900; -148.450; -702.000; -795.000
829.152; -110.950; -684.000; -683.000
829.404;  -81.975; -215.000; -267.000
829.656;   -4.550;  321.000;  214.000
829.908;  -28.875;  393.000;  229.000
830.160; -169.550;-1064.000;-1047.000
830.412; -102.750; -481.000; -430.000
830.664; -121.300; -557.000; -665.000
830.916;  -79.575; -268.000; -206.000
831.167; -189.300;-1073.000; -951.000
831.419; -122.700; -623.000; -566.000
831.671; -153.950; -764.000; -809.000
831.923;  -94.675; -311.000; -447.000
832.174;  -80.075; -273.000; -331.000
832.426; -121.075; -493.000; -582.000
832.678; -189.475;-1043.000;-1091.000
832.929; -166.100; -947.000; -935.000
833.181;  -52.675; -575.000; -677.000
833.432;  -48.000;  -59.000; -186.000
833.684;  -20.025;  112.000;  -27.000
833.935; -126.625; -610.000; -566.000
834.187; -141.700; -829.000; -823.000
834.438;  -50.950;  -58.000;  -25.000
834.689;  -56.900; -255.000; -123.000
834.941;  -65.500; -343.000; -244.000
835.192; -114.225; -590.000; -533.000
835.443; -115.100; -419.000; -506.000
835.695;  -20.950;  138.000;  -16.000
835.946;  -94.125; -608.000; -378.000
836.197;  -96.900; -599.000; -622.000
836.448;  -93.900; -528.000; -395.000
836.699;  -53.825; -253.000; -341.000
836.950;  -15.675;   72.000;    7.000
837.201; -160.200;-1003.000; -987.000
837.452;  -45.950; -356.000; -170.000
837.703; -112.550; -791.000; -737.000
837.954;  -53.900; -205.000; -365.000
838.205;  -92.975;-1029.000;-1008.000
838.456;  167.350; -196.000; -282.000
838.707;    7.075; -423.000; -519.000
838.958;   16.950; -634.000; -647.000
839.209;  281.800;   18.000;   40.000
839.460;  100.625; -439.000; -201.000
839.710;  173.625; -135.000; -297.000
839.961;  438.100;  730.000;  612.000
840.212;  341.800; -382.000; -497.000
840.462; 1159.075; -328.000; -277.000
840.713;18494.500; -571.000; -536.000
840.964; 6854.325;  -62.000; -143.000
841.214;  487.975; -384.000; -624.000
841.465;  569.125; -214.000; -141.000
841.715;  532.825; -417.000; -380.000
841.966;  688.775; -746.000; -685.000
842.216;10162.375; -330.000; -431.000
842.466;35623.450; -169.000; -313.000
842.717; 1768.775; -964.000; -952.000
842.967;  333.500; -635.000; -641.000
843.217;  265.650;   20.000;   28.000
843.468;   57.325; -104.000; -132.000
843.718;  -26.150; -718.000; -726.000
843.968; -109.275; -837.000; -765.000
844.218;   28.750; -315.000; -262.000
844.469;  -56.500; -577.000; -561.000
844.719; -109.775; -537.000; -682.000
844.969; -108.675; -550.000; -580.000
845.219; -152.400; -814.000; -862.000
845.469;  -84.775; -392.000; -342.000
845.719; -136.100; -792.000; -884.000
845.969;  -23.625;  119.000;  174.000
846.219; -122.275; -738.000; -720.000
846.469;   13.800;  464.000;  432.000
846.718;  -43.275; -115.000;   31.000
846.968; -143.700; -827.000; -827.000
847.218;  -41.875; -224.000; -371.000
847.468;   -2.275; -586.000; -555.000
847.718; -159.125; -827.000; -798.000
847.967; -152.750; -826.000; -915.000
848.217;  -96.475; -449.000; -569.000
848.467;  -70.750; -405.000; -376.000
848.716; -109.125; -708.000; -725.000
848.966;   -9.275; -372.000; -358.000
849.215;  -82.475; -428.000; -419.000
849.465;  -94.400; -785.000; -615.000
849.714; -159.500;-1132.000;-1150.000
849.964;  -74.675; -551.000; -613.000
850.213;  -39.825; -393.000; -355.000
850.463;   73.850;  137.000;  340.000
850.712;    0.275; -542.000; -567.000
850.961;   15.525; -739.000; -678.000
851.211;  105.300; -513.000; -504.000
851.460;  148.350; -635.000; -650.000
851.709;  566.925;  -25.000;   18.000
851.958;10721.075; -912.000; -750.000
852.208;12226.875; -859.000; -879.000
852.457;  437.300; -181.000;  -13.000
852.706;   75.100; -791.000; -823.000
852.955;    9.025; -507.000; -528.000
853.204;  -74.950; -521.000; -461.000
853.453; -105.600; -418.000; -458.000
853.702; -136.725; -660.000; -750.000
853.951; -113.950; -532.000; -520.000
854.200; -118.250; -613.000; -562.000
854.449; -149.075; -695.000; -661.000
854.698;  -86.500; -340.000; -279.000
854.946;  -71.800; -181.000; -284.000
855.195; -151.800; -843.000; -868.000
855.444; -115.525; -395.000; -420.000
855.693; -123.550; -345.000; -432.000
855.941;  -94.275; -387.000; -516.000
856.190;  -61.425; -256.000; -382.000
856.439; -136.175; -652.000; -703.000
856.687;  -63.075;  -99.000;  -72.000
856.936; -137.350; -621.000; -323.000
857.184; -191.625;-1067.000;-1020.000
857.433; -109.950; -423.000; -512.000
857.681; -173.550; -989.000; -953.000
857.930;  -91.700; -282.000; -433.000
858.178; -162.900; -856.000; -929.000
858.427; -161.075; -802.000; -781.000
858.675; -114.025; -377.000; -544.000
858.923; -104.375; -527.000; -819.000
859.172; -189.475;-1094.000;-1070.000
859.420;  -90.975; -339.000; -239.000
859.668; -136.575; -624.000; -628.000
859.916;  -27.375;  109.000;  115.000
860.164; -128.725; -699.000; -603.000
860.413;  328.625; -878.000; -696.000
860.661;  224.650; -709.000; -577.000
860.909;  -96.850; -339.000; -325.000
861.157;  -78.475; -277.000; -444.000
861.405; -135.450; -534.000; -670.000
861.653;    2.225;  310.000;  310.000
861.901;  199.600; -543.000; -613.000
862.149;   -1.125; -801.000; -824.000
862.396;  -86.550; -297.000; -187.000
862.644;  -96.425; -368.000; -347.000
862.892;  -42.550;   98.000;  138.000
863.140; -126.275; -549.000; -530.000
863.388; -156.950; -815.000; -759.000
863.635; -118.925; -642.000; -601.000
863.883;  -19.350;  231.000;  190.000
864.131;  -91.050; -288.000; -357.000
864.378; -147.750; -675.000; -540.000
864.626; -100.175; -347.000; -415.000
864.873; -132.475; -556.000; -505.000
865.121; -148.525; -714.000; -799.000
865.368;  -47.525; -173.000;   75.000
865.616;  -46.225;  -33.000;  -40.000
865.863;  -91.275; -462.000; -506.000
866.111; -120.150; -795.000; -824.000
866.358;   25.350; -426.000; -420.000
866.605; 2199.625;  -64.000; -804.000
866.853; 2046.725; -621.000; -537.000
867.100;  -60.550; -728.000; -775.000
867.347; -103.100; -672.000; -611.000
867.594;  -89.150; -740.000; -714.000
867.841;   88.350;   97.000;   17.000
868.089; -160.650; -746.000; -698.000
868.336; -107.200; -477.000; -420.000
868.583; -144.350; -637.000; -741.000
868.830;  -65.700; -131.000; -170.000
869.077; -183.850; -859.000; -787.000
869.324; -132.600; -502.000; -458.000
869.571; -124.525; -398.000; -430.000
869.818; -124.750; -485.000; -439.000
870.065; -106.300; -439.000; -513.000
870.311; -119.000; -456.000; -542.000
870.558;  -99.750; -332.000; -311.000
870.805; -102.075; -320.000; -384.000
871.052; -115.475; -494.000; -369.000
871.298;  -59.625; -204.000; -131.000
871.545;  -64.650; -151.000; -185.000
871.792;  -98.900; -173.000; -222.000
872.038;  -68.325;   43.000; -126.000
872.285; -140.650; -496.000; -387.000
872.532;  -96.925; -357.000; -387.000
872.778;    0.400;  556.000;  403.000
873.025;  -94.450; -384.000; -359.000
873.271;   -5.975;  501.000;  578.000
873.517;  -42.275; -133.000; -209.000
873.764;  -44.725; -193.000;  -80.000
874.010;  -64.325; -143.000; -230.000
874.257;  -48.125;  123.000;   90.000
874.503; -138.025; -579.000; -479.000
874.749;  -76.425;   31.000;  275.000
874.995;  -78.000;  -80.000;  -20.000
875.242; -134.175; -540.000; -478.000
875.488; -126.925; -414.000; -439.000
875.734;  -66.000; -106.000; -234.000
875.980;  230.975; -872.000;-1032.000
876.226;  362.250; -157.000; -255.000
876.472;   -9.500;  343.000;  237.000
876.718;  -50.900;  184.000;  158.000
876.964;  -42.650;   56.000;   55.000
877.210; -173.550; -547.000; -677.000
877.456; -137.525; -630.000; -557.000
877.702; -187.875; -821.000; -832.000
877.948; -119.500; -377.000; -497.000
878.193;   -3.300;  361.000;  255.000
878.439;  -99.925; -487.000; -472.000
878.685; -111.775; -272.000; -343.000
878.931; -131.900; -618.000; -676.000
879.176;  -89.550; -201.000; -201.000
879.422; -187.875; -933.000; -820.000
879.668;   51.625;   10.000;   79.000
879.913;  139.475;   53.000;  137.000
880.159;  -69.475; -112.000;  -17.000
880.404;  -63.750; -152.000; -162.000
880.650;  -36.525;   91.000;  141.000
880.895; -157.375; -670.000; -710.000
881.141; -127.125; -454.000; -428.000
881.386; -164.425; -503.000; -658.000
881.631;  -96.400; -311.000; -166.000
881.877;  -36.525;  112.000;  -13.000
882.122; -153.050; -684.000; -600.000
882.367; -105.525; -136.000; -186.000
882.612;  -77.025;  -80.000; -176.000
882.858; -163.300; -877.000; -823.000
883.103; -116.550; -297.000; -267.000
883.348; -162.375; -759.000; -852.000
883.593; -156.250; -677.000; -602.000
883.838;  -66.225; -311.000;  -24.000
884.083;   22.650;  353.000;  288.000
884.328;  -95.575; -564.000; -545.000
884.573;  -59.000; -196.000; -143.000
884.818;  206.125; -694.000; -531.000
885.063;  170.500; -348.000; -315.000
885.308; -119.900; -475.000; -398.000
885.553;  -28.275;  245.000;  325.000
885.797; -132.100; -545.000; -615.000
886.042;  -70.025;    8.000;   58.000
886.287; -101.675; -253.000; -211.000
886.532;  -63.450;   26.000;  204.000
886.776; -102.275; -407.000; -525.000
887.021; -153.200; -621.000; -574.000
887.265; -154.675; -685.000; -689.000
887.510; -149.600; -557.000; -496.000
887.755;  -97.400; -194.000; -164.000
887.999; -145.975; -552.000; -575.000
888.244;  -59.475;  -58.000;  161.000
888.488;   -5.900;  371.000;  393.000
888.732; -132.625; -368.000; -520.000
888.977; -128.675; -622.000; -567.000
889.221; -167.800; -683.000; -659.000
889.465; -128.250; -422.000; -566.000
889.710;  -92.250;  -56.000; -299.000
889.954;    7.350;  579.000;  467.000
890.198; -143.600; -584.000; -707.000
890.442; -156.250; -716.000; -712.000
890.687; -169.625; -800.000; -753.000
890.931; -102.825; -273.000; -210.000
891.175; -147.725; -502.000; -500.000
891.419;  -81.100; -105.000; -110.000
891.663; -107.425; -239.000; -112.000
891.907; -171.675; -801.000; -545.000
892.151; -167.575; -920.000; -815.000
892.395; -126.450; -274.000; -387.000
892.638;  -16.200;  408.000;  291.000
892.882; -196.100; -780.000; -867.000
893.126;   14.325;  758.000;  558.000
893.370;  -96.625; -167.000; -168.000
893.614; -153.000; -714.000; -715.000
893.857; -116.275; -183.000; -197.000
894.101; -133.675; -527.000; -631.000
894.345;  -73.675;  300.000;  150.000
894.588;    6.475;  569.000;  380.000
894.832; -101.400; -178.000;  -84.000
895.075;  -72.000;   15.000;  -92.000
895.319; -124.275; -552.000; -420.000
895.563; -124.425; -413.000; -353.000
895.806; -156.525; -628.000; -741.000
896.049;  -53.050; -576.000; -368.000
896.293;  104.500;  527.000;  405.000
896.536;  -75.600; -465.000; -468.000
896.779;  -57.650; -149.000;   -1.000
897.023; -149.375; -751.000; -714.000
897.266;  -30.125;  325.000;  269.000
897.509; -197.300; -900.000; -901.000
897.752;  -57.450;  149.000;  171.000
897.996; -199.850; -972.000; -864.000
898.239;  -54.000;  168.000;  102.000
898.482; -141.700; -431.000; -453.000
898.725;  -44.900;  101.000;   53.000
898.968; -162.375; -609.000; -744.000
899.211; -117.275; -513.000; -361.000
899.454; -134.275; -633.000; -539.000
899.697;  -64.700;   90.000;  -43.000
899.940; -161.425; -761.000; -757.000
900.182; -116.250; -335.000; -405.000
900.425;  -96.300; -150.000; -298.000
900.668;  -24.975;  491.000;  350.000
900.911; -109.550; -292.000; -345.000
901.154;  -57.850;  141.000;   -3.000
901.396; -143.550; -407.000; -412.000
901.639; -152.650; -430.000; -496.000
901.882; -184.700; -790.000; -809.000
902.124;  -89.975;  -29.000; -143.000
902.367; -126.950; -315.000; -361.000
902.609; -140.600; -476.000; -453.000
902.852;  -99.275; -108.000; -260.000
903.094; -139.650; -458.000; -337.000
903.337;  -61.100;  -26.000;   53.000
903.579; -118.275; -228.000; -441.000
903.821; -154.475; -597.000; -744.000
904.064;  -71.875;   85.000;  127.000
904.306;  -94.850; -126.000; -166.000
904.548; -119.250; -152.000; -366.000
904.790; -106.650; -195.000; -340.000
905.033; -155.300; -625.000; -577.000
905.275; -137.925; -513.000; -524.000
905.517;   39.800;  468.000;  256.000
905.759;  -64.575; -667.000; -761.000
906.001; -116.125; -322.000; -369.000
906.243;  -61.575; -162.000; -224.000
906.485;  122.275; -265.000; -207.000
906.727;  110.950; -499.000; -542.000
906.969;  -48.275;  -30.000; -135.000
907.211;  124.775; -316.000; -382.000
907.453;  268.200; -188.000; -237.000
907.695;    6.275; -158.000; -385.000
907.936;   29.225;  818.000;  706.000
908.178;  -47.975;   92.000; -135.000
908.420;  -76.925; -111.000; -162.000
908.662; -145.975; -633.000; -682.000
908.903;  -83.375; -208.000; -123.000
909.145;  -69.100; -240.000; -305.000
909.386;   -4.050;  315.000;  280.000
909.628;   33.500;  363.000;  397.000
909.870;   -6.400;   29.000;  264.000
910.111; -101.100; -809.000; -949.000
910.353;   -5.075; -123.000; -161.000
910.594;   -5.850; -574.000; -606.000
910.835;   78.125; -265.000; -326.000
911.077;  152.400; -503.000; -604.000
911.318;  271.575; -505.000; -471.000
911.559;  451.050; -577.000; -880.000
911.801; 1366.875; -284.000; -280.000
912.042;10871.900;  -50.000; -159.000
912.283;26521.575;  404.000;  371.000
912.524; 3723.175; -396.000; -457.000
912.765;  435.175; -193.000;   79.000
913.006;  222.375; -307.000; -338.000
913.247;   17.625; -270.000; -290.000
913.488;  -22.250;  -43.000;   30.000
913.729;  -92.175; -373.000; -373.000
913.970;  -68.075;  -96.000; -292.000
914.211;  -70.125; -160.000; -198.000
914.452;  -69.950; -118.000;  -11.000
914.693;    1.250;  510.000;  592.000
914.934;   31.200;  510.000;  440.000
915.175;  -78.025;   53.000;  -95.000
915.415;  -79.675; -137.000;   27.000
915.656;  -86.250;  -28.000;  192.000
915.897; -112.125; -252.000;  -82.000
916.137;  -80.200;   74.000;   -9.000
916.378; -143.450; -573.000; -517.000
916.619;  -95.450; -159.000;  -63.000
916.859;  -51.500;  303.000;  330.000
917.100;  129.150; 1655.000; 1070.000
917.340;   48.250;  930.000;  728.000
917.581;   37.900;  965.000;  789.000
917.821;  -27.975; -171.000;  143.000
918.061;    0.000; -199.000;  -72.000
918.302;  -69.325; -152.000; -211.000
918.542;  -29.325;  -22.000;    3.000
918.782;   39.000;  369.000;  377.000
919.023;  125.925;  360.000;  427.000
919.263; 1814.225; 8131.000;  202.000
919.503; 1104.850; -137.000;  -54.000
919.743;  650.200;  390.000;  266.000
919.983;  251.700; -134.000;  -26.000
920.223;   78.600;  135.000;   14.000
920.463;  133.650;  631.000;  554.000
920.703;  126.700;   84.000;   39.000
920.943;  163.625; -110.000;   90.000
921.183;  222.025; -414.000; -405.000
921.423;  479.150;  307.000;  546.000
921.663;  710.625; -174.000; -257.000
921.903; 1567.600;  237.000;  173.000
922.143; 8909.425;  372.000;  389.000
922.383;33096.525;  158.000;  115.000
922.622;10353.075; -120.000;  -15.000
922.862; 1102.125;  796.000;  785.000
923.102;  435.500;  -51.000;   33.000
923.341;  153.575;   59.000;   74.000
923.581;   66.100;  450.000;  360.000
923.821;   13.325;  301.000;  398.000
924.060;   14.025;  351.000;  193.000
924.300;  -63.825;  -16.000; -128.000
924.539;  -18.475;  584.000;  473.000
924.779;    4.325;  812.000;  597.000
925.018;  -41.000;  247.000;  353.000
925.257;   -6.350;  595.000;  666.000
925.497;  -49.775;  447.000;  412.000
925.736;  -83.225;  -35.000;  102.000
925.975;    6.425;  687.000;  669.000
926.214;   20.750;  907.000;  850.000
926.454;   32.100;  706.000;  757.000
926.693;  -48.225;  419.000;  543.000
926.932;   32.675; 1021.000;  825.000
927.171;   63.000; 1107.000; 1044.000
927.410;   65.450; 1144.000;  967.000
927.649;   20.675;  924.000;  742.000
927.888;  -19.100;  590.000;  564.000
928.127;  -17.375;  680.000;  678.000
928.366;   12.650;  842.000;  826.000
928.605;   42.475;  831.000;  737.000
928.844;  241.350; 1451.000; 1393.000
929.083;  609.950;  770.000;  613.000
929.321;  308.575; 1335.000; 1359.000
929.560;   72.900; 1158.000; 1122.000
929.799;  -25.275;  574.000;  475.000
930.038;   77.275; 1025.000; 1394.000
930.276;  -55.400;  334.000;  397.000
930.515;  -21.600;  827.000;  681.000
930.753;  -29.125;  614.000;  589.000
930.992;  -26.100;  664.000;  717.000
931.230;   -6.600;  847.000;  847.000
931.469;  152.750; 2162.000;  892.000
931.707;   63.750;  840.000;  751.000
931.946;   51.775; 1278.000; 1344.000
932.184;   54.400; 1437.000; 1175.000
932.423;   26.275; 1265.000;  963.000
932.661;   98.450; 1296.000; 1428.000
932.899;    7.425;  987.000;  821.000
933.137;    9.425;  754.000;  564.000
933.376;  145.500; 1664.000; 1335.000
933.614;  175.950; 1759.000; 1196.000
933.852;   45.900; 1357.000; 1171.000
934.090;  151.100; 1722.000; 1747.000
934.328;   90.375; 1252.000; 1457.000
934.566;   85.425; 1431.000; 1110.000
934.804;  135.525; 1263.000; 1309.000
935.042;  442.350; 1861.000; 1850.000
935.280; 1741.675; 2088.000; 2063.000
935.518; 1537.775; 2113.000; 2007.000
935.756;  329.400; 2481.000; 2316.000
935.994;  161.975; 1808.000; 1751.000
936.231;  357.975; 2890.000; 2950.000
936.469;  176.525; 2367.000; 2378.000
936.707;  154.800; 2220.000; 2167.000
936.945;  240.325; 2825.000; 2882.000
937.182;  181.400; 2679.000; 2741.000
937.420;  310.575; 3602.000; 3031.000
937.657;  419.350; 3365.000; 3478.000
937.895;  344.650; 3331.000; 3488.000
938.133;  306.150; 3540.000; 3528.000
938.370;  332.475; 3896.000; 4191.000
938.607;  396.075; 4488.000; 4205.000
938.845;  550.850; 5587.000; 5549.000
939.082;  486.900; 5387.000; 5177.000
939.320;  548.325; 5799.000; 5728.000
939.557;  637.850; 6549.000; 6491.000
939.794;  736.900; 7285.000; 7097.000
940.031;  941.800; 8421.000; 8368.000
940.269; 1120.600; 9552.000; 9107.000
940.506; 1132.525;10901.000;10507.000

