
Integration time [ms]: 200.000
Averaging Nr. [scans]: 10
Smoothing Nr. [pixels]: 0
Data measured with spectrometer [name]: 2101013U2
Wave   ;Sample   ;Dark     ;Reference
[nm]   ;[counts] ;[counts] ;[counts] 

394.013;  118.464; -450.257; -315.536
394.305;  400.761; -461.258; -419.536
394.596; 1842.304; -676.269; -527.514
394.887; 4294.830; -796.268; -654.518
395.178; 1691.376;  145.736;   11.476
395.470;  148.793; -210.263; -356.526
395.761;  422.052;  305.734;  394.479
396.052;  641.313; -545.284; -306.489
396.343;  597.920; -557.276; -454.503
396.634;  187.672; -200.279; -290.497
396.926;  209.225; -618.268; -565.517
397.217;  207.827;   11.725;  -17.504
397.508;   84.451; -366.273; -154.507
397.799;   56.972; -555.279; -571.497
398.090;    5.463; -973.280; -902.495
398.381;  228.599;   11.708;  -11.473
398.672;  -23.599; -585.292; -742.473
398.963;   78.081; -348.279; -373.498
399.254;  198.915;   54.709; -209.475
399.545;  -71.453;-1017.266; -883.520
399.836;   97.403; -407.277; -343.501
400.127;  119.563; -205.295; -209.468
400.418;  143.542; -423.274; -392.506
400.709;   91.544; -359.281; -333.493
401.000;  126.021; -268.291; -309.476
401.290;  223.266;  225.698;  115.545
401.581;  151.687; -166.286; -228.485
401.872;   23.620; -542.298; -486.462
402.163;  141.251; -313.296; -252.467
402.454;  196.316; -123.291; -163.475
402.744;  108.738; -844.297; -813.465
403.035;  683.886; -226.293;  -86.471
403.326;  917.205; -366.292; -384.474
403.617;  661.512;  204.701;  165.539
403.907;  419.122; -593.283; -679.490
404.198; 3925.396; -545.307; -599.446
404.489; 9898.530; -618.283; -588.491
404.779; 3488.771; -618.302; -660.456
405.070;  426.339;  -67.304; -174.451
405.360;  573.089; -259.293; -238.472
405.651;  618.489;  125.699;   98.542
405.942;  382.180;  209.714;  127.516
406.232;  492.502; -432.285; -413.487
406.523;  883.778;  641.706;  758.530
406.813;  194.483; -579.286; -644.484
407.104;  657.697;  261.708;  144.527
407.394;  322.614; -604.299; -591.462
407.685;  315.701;  336.715;  222.513
407.975;  110.827; -400.283; -382.490
408.265;  186.038; -134.289; -190.478
408.556;  127.611; -472.291; -459.475
408.846;  352.579;  474.706;  429.530
409.137;  155.450;   -1.288; -216.480
409.427;   74.802; -193.285; -271.487
409.717;   68.656; -776.273; -692.508
410.007;  260.592;    4.715; -170.486
410.298;  170.567; -360.295; -342.469
410.588;  110.797; -495.285; -510.486
410.878;   53.967; -792.287; -873.482
411.168;  187.524; -481.298; -478.463
411.459;  243.719; -295.283; -242.489
411.749;  122.409; -609.292; -507.474
412.039;  109.048; -755.289; -386.480
412.329;  384.692;   40.722;  132.501
412.619;  322.284;  -62.286; -148.485
412.909;  677.942;  639.711;  594.521
413.199;  609.164; -130.280; -251.495
413.490;  693.427;  521.710;  352.523
413.780;  223.970;-1013.279; -913.496
414.070;  586.121;  -46.276;  235.497
414.360;  639.686; -729.278; -666.498
414.650;  673.461; -726.288; -688.482
414.940;  862.269; -538.280; -441.496
415.230; 1460.657;   50.712;   74.519
415.520;10271.003;  155.730;   66.486
415.809;38656.943; -305.281; -125.493
416.099;30493.306; -388.277; -229.501
416.389; 8249.839;  435.726;  236.494
416.679; 4932.599;   91.738;   85.473
416.969;  881.274; -527.287; -503.483
417.259; 1059.873;  341.721;  171.503
417.549; 1165.641;  522.718;  318.508
417.838; 2729.929; -205.268; -147.518
418.128; 8711.436;  650.710;  492.522
418.418; 7269.365; -491.272; -579.509
418.708; 5059.439;    9.726;  -48.506
418.997;18458.733; -474.275; -480.505
419.287;18932.850; -733.273; -790.507
419.577;18202.318; -160.283; -123.489
419.866;57217.703; -588.277; -498.501
420.156;58863.897; -242.270;  -55.513
420.446;11583.187; -112.263;  -26.526
420.735; 1475.488; -376.271; -446.512
421.025; 1581.085; 1830.722;  315.502
421.314; 1204.585; -203.271; -226.512
421.604; 2474.518;   89.732;  233.484
421.893; 1463.679; -705.271; -602.511
422.183;  422.987; -487.263; -461.526
422.472;  651.281;  -36.271; -107.511
422.762;  761.156; -416.266; -379.521
423.051;  389.722; -916.276; -916.503
423.341;  523.253; -491.273; -439.507
423.630;  734.765; -121.265;   15.477
423.919;  668.232;   58.725;   49.495
424.209;  614.896;  -31.263;   56.473
424.498;  874.325;   68.732;  161.483
424.787; 1770.834; -535.267; -601.518
425.077; 5311.863;   34.735;   29.478
425.366; 7414.004; -734.262; -744.528
425.655;15438.453;  639.727;  259.493
425.945;31815.101; -313.247; -268.554
426.234;18398.539;  117.741;  300.467
426.523; 8277.747;  -86.259; -350.534
426.812;11218.850;  107.734;  159.480
427.101;16358.912; -127.269; -323.515
427.390;20308.903;  -55.270;  -86.514
427.680; 4767.877; -624.257; -411.538
427.969;  825.193; -330.255; -301.540
428.258;  562.264; -385.257; -477.536
428.547;  929.272;  449.728;  397.490
428.836; 2035.618; -421.253; -398.543
429.125; 3002.750; -199.259;  -72.534
429.414; 1345.952; -330.251; -294.548
429.703; 5201.452; -231.251; -213.548
429.992;14815.858; -938.250; -828.549
430.281; 9827.576; -397.264; -331.524
430.570; 1139.738;  -21.252;   32.454
430.859; 1060.146;  279.741;  352.466
431.148;  922.394;  636.752;  631.446
431.437;  642.837;  391.748;  367.454
431.725;  287.566; -544.257; -481.536
432.014;  178.329; -845.253; -756.545
432.303;  686.210; -149.239; -105.569
432.592; 1037.587; -460.263; -178.525
432.881; 1634.596; -601.248; -437.554
433.169; 9883.594; -343.255;  -61.540
433.458;19327.761;  445.765;  540.424
433.747; 8529.013; -397.261; -289.529
434.036; 1574.873; -275.242; -280.564
434.324; 3413.577; -395.249; -379.551
434.613; 5696.563;   40.757;  159.437
434.902; 2093.395;  333.760;  439.433
435.190; 1079.008;   75.761;  295.431
435.479;  637.235;  -52.245;   83.441
435.767;  227.548; -411.244; -427.561
436.056;  401.367; -340.242; -294.563
436.345;  631.398; -372.240; -223.568
436.633;  705.869;   60.750;  383.450
436.922;  539.702;  208.760;  414.432
437.210; 1125.646; -194.236;    1.426
437.499; 3450.658; -583.235; -432.576
437.787; 3778.145; -339.236;  -10.574
438.075; 1028.416;   56.761;  162.430
438.364; 1307.220;  -44.238;  250.429
438.652;  796.580; -286.226; -138.592
438.941;  275.025;    3.770;  269.415
439.229;   39.433; -665.252; -466.545
439.517;   92.271; -160.234;  -85.577
439.806;  -14.196; -501.225; -290.595
440.094;  392.283;  377.766;  650.421
440.382;  337.188; -653.233; -302.580
440.670;  358.058; -361.235; -285.576
440.959;   61.330; -347.223; -170.599
441.247;  151.842; -151.229; -109.587
441.535;  211.768; -266.235;   31.423
441.823;   77.578; -497.234; -305.578
442.111;  344.749;  173.771;  327.412
442.400;  884.534; -628.245; -335.559
442.688; 2498.182; -111.234; -620.579
442.976; 1773.164; -786.213; -450.617
443.264;  190.914; -324.224; -364.597
443.552;  157.981; -258.226;   51.408
443.840;  352.866;  602.765;  876.423
444.128;  228.287;  265.767;  269.420
444.416;    9.753; -694.228; -312.588
444.704;   43.875; -465.219;  -92.605
444.992;  141.486;   -0.226;  240.407
445.280;   90.226; -517.230;  -94.585
445.568;   84.769; -694.212; -396.618
445.856;  597.451; -174.221;  357.398
446.143; 1292.169;  -54.220;   -7.604
446.431; 1107.158;  -25.228;  625.411
446.719;  479.404;  489.783;  675.391
447.007;  364.117;  481.769;  705.416
447.295;  365.125;  597.777;  871.402
447.583;  151.339; -464.229;  -34.587
447.870;  285.946; -434.221; -202.601
448.158;  709.124; -104.230;  129.415
448.446;  521.571; -800.219; -338.604
448.733;  312.516;   13.776;  269.403
449.021;  438.168;   60.788;  341.382
449.309;  331.791; -296.210;  208.379
449.596;  397.399;  128.783;   59.392
449.884;  249.336; -571.222; -325.600
450.172;  204.366; -756.227; -406.590
450.459;  696.438;  645.786;  780.387
450.747; 3806.897; -411.218; -147.608
451.034;11445.160;  493.772;  889.411
451.322; 9663.043; -413.214; -170.614
451.609;  908.718;  292.777;  508.403
451.897;  969.887; -550.203; -183.634
452.184; 2810.326; -622.223; -400.598
452.472; 2673.424;   97.792;  269.375
452.759;  704.472;  512.781;  864.395
453.047;  255.865; -407.212; -125.617
453.334;  141.384; -732.219; -216.606
453.621;  171.046; -438.214; -161.615
453.909;  283.975;   13.796;  384.368
454.196;  169.644; -299.199; -123.641
454.483;  413.407;  317.798;  540.364
454.771;  265.328; -215.208;  196.374
455.058;  129.033; -316.207;  102.374
455.345;  208.028;   71.807;  344.347
455.632;  171.738; -128.207;  235.373
455.919;  146.178;  -82.196;  182.354
456.207; -122.749; -774.198; -450.642
456.494;  -15.475; -475.200;  -66.639
456.781;   18.100; -399.202; -198.635
457.068;  105.948; -253.206;  -29.628
457.355;  -17.150; -698.206; -401.629
457.642;   41.258; -552.205; -290.630
457.929;   12.314; -778.194; -417.651
458.216;  116.165; -575.212; -354.617
458.503;  420.421; -173.193;  -19.652
458.790;  334.125; -864.208; -630.625
459.077;  454.708;  -77.202;  110.364
459.364; 1292.004; -350.195; -210.649
459.651; 2618.745;  -46.206;  220.372
459.938; 1273.911; -864.209; -665.623
460.225;  261.913;  132.799;  276.363
460.512;  -98.426; -836.197; -688.645
460.799;  233.095;  -32.218;  320.392
461.086;  147.732; -370.200; -251.640
461.372;   93.251; -509.198; -279.642
461.659;  264.680; -165.196;  108.354
461.946;  123.619; -445.193;  -54.651
462.233;  504.329;  842.800;  888.361
462.519;  569.624; -814.201; -464.639
462.806; 1510.475; -768.197; -497.645
463.093; 1411.451; -445.191;  -66.656
463.380;  -55.087; -920.186; -824.664
463.666;  155.777; -259.197;  -18.646
463.953;  143.796; -406.195; -243.648
464.239;  331.396; -173.195;  -77.648
464.526;  755.012;  413.806;  743.350
464.813;  555.668; -565.190; -304.658
465.099;  663.021;  606.807;  607.348
465.386;  617.027;  903.807;  921.348
465.672;   44.575; -694.197; -522.645
465.959;   71.496; -598.188; -520.662
466.245;   56.527; -468.193; -359.652
466.532;  222.792; -109.195;   63.352
466.818;  155.413; -357.186; -216.664
467.104;   41.074; -488.182; -415.672
467.391;   -1.529; -628.189; -459.658
467.677;  106.019; -289.186;    9.335
467.964;   28.581; -682.189; -471.660
468.250;  157.923; -331.186; -160.665
468.536;  197.573;   90.811;  180.341
468.822;  -35.059; -821.184; -574.668
469.109;  309.197;  351.827;  471.311
469.395;  399.242;  729.808;  787.346
469.681;  395.178;   46.811;  156.341
469.967; 2030.785; -699.188; -382.660
470.254; 4119.697; -494.188; -306.662
470.540; 2743.378; -601.196; -476.646
470.826;  381.991; -488.181; -397.675
471.112;  549.346;  288.816;  113.331
471.398;  211.953; -253.183;  -58.670
471.684;  123.234; -626.177; -447.680
471.970;    8.797; -918.180; -981.675
472.256;   93.240; -521.192; -441.654
472.542;   59.414; -499.171; -434.691
472.828;   14.568; -743.182; -607.672
473.114;   90.680; -380.166; -283.700
473.400;   71.659; -504.175; -293.684
473.686;  140.189; -452.166; -400.701
473.972;  165.481; -230.174; -131.687
474.258;  -93.903; -925.173; -843.689
474.544;  339.022; -183.178;   -2.679
474.830;  515.662;  -65.175;   45.316
475.116;  777.371; -123.190; -196.658
475.401;  971.100; -558.180; -467.676
475.687;  304.499; -725.180; -718.676
475.973;   64.080; -673.181; -770.673
476.259;  485.865;  736.825;  764.315
476.544;  557.646; -539.176; -437.682
476.830; 1233.408; -398.172; -322.690
477.116; 1038.344; -430.177; -336.682
477.401;  297.000;  346.820;  358.324
477.687;   -4.741; -289.175; -405.684
477.973;  119.185;   21.819;   28.326
478.258;   11.620; -448.163; -348.706
478.544;  101.331;   21.815;   61.334
478.829;  -81.578; -818.171; -738.692
479.115;  -60.093; -749.172; -651.690
479.401;    7.175; -444.174; -449.686
479.686;   91.098; -253.180;  -74.676
479.972;  -85.971; -886.178; -776.680
480.257;   94.082; -258.166;  -65.700
480.542;   26.128; -614.170; -469.693
480.828;  498.457; 1288.824; 1392.317
481.113;   -0.747; -464.176; -426.683
481.399;   21.157; -236.161; -202.711
481.684;  -56.519; -620.166; -462.700
481.969;   59.577; -158.159;  -73.713
482.255;   -6.856; -439.169; -285.695
482.540;   40.130; -569.178; -441.680
482.825;   31.206; -395.187; -404.663
483.110;  188.349;  -85.169; -105.696
483.396;  290.610; -840.157; -652.718
483.681;  785.082;  543.826;  730.313
483.966;  243.368; -696.160; -700.712
484.251;   42.380; -404.174; -310.687
484.536;   29.797; -356.165; -378.703
484.822;   53.885; -205.173; -218.687
485.107;  -36.932; -599.152; -502.726
485.392;  288.206;  662.836;  541.296
485.677;  186.864;  354.832;  163.302
485.962;  273.306;  160.843;  270.283
486.247;  182.232;  -14.162;   -8.707
486.532;   77.984; -178.166; -325.701
486.817;  333.748;  381.839;  431.291
487.102;  206.342; -453.154; -514.722
487.387;  978.013; -637.156; -652.718
487.672; 1782.714; -154.164;  -38.705
487.957; 1179.159; -394.160; -286.711
488.241;  358.493; -290.150; -314.729
488.526; 1114.070; -280.152; -148.726
488.811; 1726.233; -881.177; -818.680
489.096; 1349.746; -666.154; -702.723
489.381;  822.164;    3.847;  162.275
489.666;  574.656; -428.161; -510.710
489.950;  370.851;  558.846;  627.277
490.235;  -40.714; -480.151; -458.728
490.520;  -62.545; -756.161; -723.710
490.804; -109.684; -827.156; -736.719
491.089;  -11.083; -469.149; -299.732
491.374;  101.412; -132.164;  -75.704
491.658;  -27.765; -817.147; -717.735
491.943;  245.876; -657.152; -609.727
492.227;  434.236; -178.155;  -38.721
492.512;  118.505; -294.157; -341.717
492.797; -109.692; -713.149; -716.731
493.081;  -97.861; -588.147; -598.735
493.366;  -54.343; -751.161; -635.711
493.650;  439.220;  831.859;  917.254
493.935;   65.234; -648.147; -447.734
494.219;  -53.200; -778.142; -687.743
494.503; -100.000; -585.150; -487.730
494.788;  116.493;   46.842;   74.285
495.072;  222.295;  184.850;  434.271
495.356;  279.322; -463.148; -343.733
495.641;  715.149; -812.146; -736.736
495.925;  635.123; -976.156; -903.719
496.209;  100.916; -599.149; -451.732
496.494;  -80.799; -763.142; -544.744
496.778;   69.142; -364.154; -360.722
497.062; -102.577; -819.156; -627.719
497.346;  -71.338; -869.160; -640.711
497.631;  311.027;  580.852;  560.266
497.915;  174.265;  -64.145;  175.261
498.199;  114.310; -341.157; -277.718
498.483;   59.267; -562.152; -508.725
498.767;  383.197;  301.850;  300.271
499.051;  317.213; -126.149; -100.732
499.335;   36.010; -693.149; -739.731
499.619;  -28.927; -381.129; -423.767
499.903;   74.934; -272.155;  -65.721
500.187;   41.453; -588.153; -316.724
500.471;   12.675; -796.152; -595.727
500.755;  204.755;   62.839;  -96.710
501.039;   44.534; -270.155; -357.721
501.323;  185.522;  -21.141;  264.254
501.607;   77.121; -447.163; -503.706
501.891;   15.612; -607.156; -512.718
502.174;  -60.018; -726.144; -585.741
502.458;  129.581;   89.849;  370.273
502.742;   79.759; -180.138; -191.751
503.026;  157.033; -412.147; -254.734
503.310;  262.075; -437.159; -375.713
503.593;  195.136; -464.147; -325.735
503.877;  198.820; -232.133; -156.760
504.161;  294.057;    2.847;  -50.724
504.444;  180.896; -841.158; -710.716
504.728;  682.510; -487.164; -522.704
505.012; 1071.392; -257.150;  -76.729
505.295;  895.257; -417.161; -212.711
505.579;  836.622; -256.156; -496.719
505.862; 1110.859; -555.145; -333.738
506.146; 1056.479; -681.159; -758.714
506.429;  698.780;  568.841;  461.286
506.713;  105.888; -732.151; -667.728
506.996;  560.241;   90.846;  295.278
507.280;  501.503; -633.165; -474.703
507.563;  359.232; -469.155; -261.721
507.847;  174.354; -423.153; -112.724
508.130;  146.558; -665.161; -456.711
508.413;  176.275; -758.167; -577.700
508.697;  393.276; -151.167;   12.300
508.980;  252.456; -422.153; -312.724
509.263;    5.226; -466.155; -450.720
509.547;  104.992; -124.150;   82.271
509.830;  108.561; -172.160;  140.289
510.113;  172.522;  128.844;  298.281
510.396;   31.265; -530.152; -300.725
510.680;  285.761; -818.145; -812.738
510.963; 1176.648;  184.846;  180.277
511.246;  957.304; -493.150; -357.730
511.529;  464.669; -482.145;  -83.739
511.812;  574.415; -250.134;   10.241
512.095;  360.183; -740.151; -396.728
512.378;  122.642; -317.147; -245.736
512.661;   26.570; -703.137; -623.753
512.944;   25.403; -750.142; -637.744
513.227;  138.666; -170.137; -171.752
513.510;   55.082; -479.144; -671.741
513.793;   59.929; -485.140; -435.747
514.076;  253.205;  -43.127;  -39.771
514.359;  189.218; -294.149; -135.732
514.642;  122.308; -442.142; -567.744
514.925; 1214.426;  581.860;  561.253
515.208; 1353.009; -498.134; -443.758
515.491;  996.230; -276.133; -182.761
515.773;  615.987; -410.143; -337.742
516.056; 3235.580;  249.864;  409.246
516.339; 4140.886; -754.136; -652.755
516.622; 3067.100; -518.150; -488.730
516.904; 2213.498;  882.857;  975.257
517.187;  977.064; -730.138; -523.752
517.470;  627.296; -568.143; -510.743
517.752;  661.090; -624.136; -470.756
518.035;  498.045; -708.139; -725.749
518.318;  559.086; -799.136; -744.755
518.600; 3551.635; -300.132; -325.762
518.883; 4725.307;  310.858;   88.256
519.165; 2325.453; -585.138; -426.751
519.448;  577.535;  -61.132;  -19.762
519.730;  333.916; -573.126; -415.773
520.013;  576.724;  588.867;  664.240
520.295; 1471.217;  -94.134;  -15.759
520.578; 3225.455; -335.131; -305.764
520.860; 3473.835; -254.132;   56.238
521.143; 1795.593; -763.135; -584.756
521.425;  760.136; -251.125; -279.775
521.707; 1035.506; -622.127; -380.771
521.990; 2687.306; -199.127;  167.229
522.272; 2958.331; -116.140;   -4.748
522.554; 1450.388; -237.143; -157.742
522.836;  631.214;  -24.134;   99.241
523.119;  373.231; -496.148; -189.734
523.401;  251.065; -448.130; -314.766
523.683;  139.871; -865.137; -693.753
523.965;  471.461;  408.862;  260.248
524.247;  478.568;   54.878;  170.220
524.529;  286.917; -451.134; -367.759
524.812;  528.568;   -3.130;  191.234
525.094; 1224.660; -773.138; -631.751
525.376; 1929.350; -143.124;   78.223
525.658; 1259.082; -441.136; -339.754
525.940;   16.050; -805.131; -671.764
526.222;   77.587; -188.136;  -88.755
526.504;  236.347; -190.131;   32.237
526.786;  286.021; -960.133; -647.760
527.068;  555.258; -124.123;  -67.778
527.349;  201.776; -865.137; -774.754
527.631;  225.435; -137.132;   22.238
527.913;  161.304; -664.127; -450.771
528.195;  197.925; -761.125; -639.774
528.477;  394.809;  -93.134;  -30.758
528.759;  197.168; -648.130; -522.766
529.040;   59.356; -569.123; -293.778
529.322;  106.729; -235.125;  -10.774
529.604;  231.571;  -47.130;   93.233
529.886;  150.016; -546.126; -302.773
530.167;  253.959;  232.870;  192.235
530.449;  128.441;    1.853;   63.265
530.731;    5.367; -572.122; -459.779
531.012;   94.198; -513.120; -216.784
531.294;  133.558; -118.116;  -43.792
531.575;  271.036;  290.875;  538.225
531.857;   61.802; -548.135; -266.757
532.138;  229.620; -113.141;   40.254
532.420;  320.596;  294.865;  403.244
532.701;  309.624; -722.133; -751.760
532.983;  560.029;  232.867;  182.239
533.264;  258.213; -243.126;  175.228
533.546;  -60.913; -491.136; -508.755
533.827;  122.019;  173.867;   -1.759
534.109;   59.101; -352.135;  -80.757
534.390;  172.441; -725.132; -582.762
534.671;  402.195; -270.135;  -82.756
534.953;  216.660; -751.123; -611.779
535.234;   77.835; -426.117; -255.789
535.515; -131.589; -891.119; -735.785
535.796;  -50.902; -431.128; -193.770
536.078; -178.151;-1050.124; -904.777
536.359;   44.262;  -22.123;    3.221
536.640;  -12.372; -480.125; -197.774
536.921;  330.579;  225.871;  143.232
537.202;  594.255;  -87.138;  -16.751
537.483;  684.754;  251.869;  377.236
537.764;  308.759;   17.870;   98.235
538.045;  -72.392; -543.134; -371.758
538.326;  -46.918; -596.129; -447.768
538.607;   -5.593; -686.127; -476.771
538.888;  284.185;   98.879;    5.218
539.169;  236.277; -704.122; -535.781
539.450;  500.778;  236.871;   16.233
539.731;  358.291; -361.121; -182.783
540.012;  249.398;  199.880;  412.216
540.293;  175.741;   82.876;  158.224
540.574;   -9.211; -895.113; -717.796
540.855;  759.389;  435.879;  377.218
541.136;  839.573;   47.878;  139.220
541.416;  491.669; -161.130; -220.766
541.697;  318.447; -274.131; -170.763
541.978; 1633.099; -270.135; -315.757
542.259; 1922.007; -211.127; -236.771
542.539; 1021.149; -191.116; -186.790
542.820;  352.035;  461.875;  480.225
543.101;  245.464;  -52.145;  -77.738
543.381;   30.306; -638.127; -591.771
543.662;  483.103;  159.873; -254.771
543.942;  836.700; -751.127; -830.770
544.223; 1574.075;  193.878;  161.219
544.504; 1002.849; -275.124; -182.777
544.784;  937.516; -592.126; -408.773
545.065; 2477.654;  104.884; -254.791
545.345; 2892.911;  227.881;   14.215
545.626; 1968.888;  -14.113; -108.796
545.906; 1290.758;   77.869;   98.235
546.186;  564.023;   92.874;  -95.773
546.467;  361.053;   99.877;  -95.778
546.747;  501.848;  264.884;  327.210
547.027;  627.147;   91.876;  111.223
547.308;  484.899; -376.127; -530.770
547.588;  659.783;  299.871;  371.232
547.868;  351.260;  458.870;  588.235
548.149;  348.166;  609.885;  593.207
548.429;  239.004; -347.127; -299.771
548.709;  223.098; -645.120; -461.784
548.989;  776.426;   84.882;   88.213
549.269; 3129.333;   10.868;  139.239
549.550; 6931.059;  215.877;  117.222
549.830; 6318.615; -758.111; -556.799
550.110; 1301.527; -468.110; -320.801
550.390; 1291.267; -128.122;  -56.779
550.670; 1637.182; -868.114; -783.795
550.950; 1160.988; -509.121; -471.782
551.230;  377.882;  549.879;  460.218
551.510;   14.386; -381.121; -326.782
551.790;   75.739; -173.109; -127.803
552.070;  521.453;  940.877; 1181.223
552.350;  583.417; -492.119; -377.786
552.630;  841.079;   -2.121;   77.219
552.909;  456.555;  181.884;   73.209
553.189;  365.342;  -49.132;   33.237
553.469;  255.517; -703.119; -514.786
553.749;  286.409; -469.127; -357.772
554.029;  267.041;   33.883;  -24.790
554.308;  212.172; -154.115;  -37.794
554.588;  147.497; -196.128; -204.770
554.868;  130.489; -366.121;  -47.782
555.147;  271.768; -114.115;  -46.793
555.427;  963.458; -260.116; -250.792
555.707; 5719.264; -284.115; -200.793
555.986; 6493.020; -719.111; -538.800
556.266; 3634.146;   23.884;   72.210
556.546;  123.786; -888.121; -675.782
556.825;  336.078; -657.114; -556.794
557.105; 2640.694; -125.128;   17.230
557.384; 3024.253;  122.884;  187.209
557.664; 1125.157; -717.116; -508.792
557.943;  145.788; -557.121; -411.782
558.222;  250.031; -345.118; -344.788
558.502;  437.270; -116.115;  -76.793
558.781;  759.763;  194.885;  499.208
559.061;  550.230; -232.118; -227.788
559.340;  491.138;  302.883;  353.211
559.619; 1090.646;   93.884;  148.210
559.899; 1422.641; -239.117; -266.789
560.178; 1401.169; -778.115; -593.793
560.457; 4652.243; -623.117; -562.790
560.736; 6073.622; -472.111; -482.800
561.015; 4195.790; -500.128; -502.769
561.295;  619.369;  180.893;  215.193
561.574;  517.265;  119.885;  116.207
561.853;  766.445;  274.891;  303.197
562.132;  749.473;  -45.114;  182.206
562.411;  713.679;  396.879;  553.219
562.690;  162.062; -592.115; -458.792
562.969;  258.799;  472.888;  630.203
563.248; 1015.076; 2966.878; 2487.219
563.527;  407.321; -290.111; -408.800
563.806;  525.204; -650.127; -521.771
564.085;  614.392; -297.105; -206.810
564.364;  315.045; -594.117; -405.790
564.643;  802.080; -276.121; -223.781
564.922; 2798.036;  221.890;  397.198
565.201; 2612.541; -640.109; -700.803
565.479; 1159.760; -297.115; -219.792
565.758;  442.994; -810.128; -712.770
566.037;  670.943; -155.109; -100.803
566.316;  417.654; -286.116;  -28.791
566.595;  104.465;  -17.115;  -12.793
566.873;  252.224; -166.111;  -79.801
567.152;  -95.502; -490.113; -590.797
567.431;   54.248; -113.116;    6.210
567.709;   41.869; -344.107; -212.807
567.988;  362.478; -810.114; -769.794
568.266;  747.465; -160.115;  -68.793
568.545;  518.963; -644.100; -514.819
568.824;  894.959;  160.885;  356.208
569.102;  782.377; -351.114; -235.794
569.381;  312.058; -492.116; -407.792
569.659;  -84.307; -553.113; -553.796
569.938;   36.773; -743.122; -465.780
570.216;  160.047; -225.109; -225.804
570.494;  -46.917; -632.114; -572.795
570.773;   98.386;  202.879;  114.218
571.051;   15.457; -373.123; -357.778
571.330;  119.689; -221.113; -174.796
571.608;   69.890; -181.098; -173.823
571.886; -128.287; -671.111; -581.799
572.164; -117.011; -739.121; -621.782
572.443;  -68.102; -562.105; -512.811
572.721;  -37.857; -399.117; -289.790
572.999;  -32.666; -280.117; -168.788
573.277;  193.988;  379.894;  620.191
573.555;  470.391;   94.894;   37.190
573.834; 1910.033;  -86.117; -114.788
574.112; 2202.373;  880.893;  811.193
574.390;  700.123; -143.111;  -96.801
574.668;   34.300;  -91.112;  -61.797
574.946;  -22.109; -165.106; -187.810
575.224;   26.241;   71.891;  -16.803
575.502;  -31.050; -200.116; -204.791
575.780; -152.398; -767.112; -829.798
576.058;  546.622; 1589.889; 1004.200
576.336;  -17.370; -210.110; -129.801
576.614;  -91.298; -511.112; -340.798
576.891;   50.871; -711.115; -823.794
577.169;  630.759; -158.108; -285.805
577.447;  857.972;  169.893;  202.193
577.725;  458.509;  629.888;  854.201
578.003;   18.206;  -71.112; -371.798
578.280;  142.811; -208.104; -242.812
578.558;   54.170; -450.115; -422.793
578.836;  193.382; -210.114; -145.795
579.114;   24.999; -630.112; -670.797
579.391;  135.136;   -6.117;  -18.789
579.669; -117.227; -595.114; -704.794
579.947;  262.067; -326.107; -127.806
580.224;  425.967; -692.107; -524.806
580.502;  511.773;  127.893;   76.193
580.779;   74.645;  -42.117;   75.210
581.057; -127.352; -584.109; -470.804
581.334; -177.666; -726.102; -695.815
581.612;  117.692;   54.895;  511.190
581.889;  -26.946;  -83.101; -129.818
582.167;  -59.725; -298.099; -190.821
582.444; -157.954; -845.102; -814.817
582.721;  256.147;  657.899;  715.183
582.999;  132.771; -326.100; -167.821
583.276;  704.464; -812.123; -713.779
583.553;  927.038; -364.102; -294.816
583.831;  303.406; -607.104; -631.812
584.108;  143.456;  349.892;  174.195
584.385;   44.233; -122.102;  -98.815
584.662; -118.375; -651.111; -828.801
584.940;   98.924;  204.889;  204.199
585.217;  -29.008;  -73.113; -303.796
585.494;   78.737;   71.890;  118.198
585.771;  337.549; -250.109; -354.804
586.048;  661.292; -196.113;  -76.796
586.325;  423.829; -721.110; -773.801
586.602;  177.112;  230.896;  213.188
586.879;  -39.234; -499.100; -580.820
587.156;   76.294; -156.105; -331.810
587.433;  -80.057; -701.102; -667.817
587.710;  120.003;  152.888;  234.202
587.987;  489.502; -264.105; -236.811
588.264; 1171.605;  315.888;  387.202
588.541; 2080.915;  -61.104;   26.187
588.818; 3959.852;   72.892;  171.196
589.095; 3389.309; -163.104; -174.812
589.371;  574.246; -459.109; -414.804
589.648;   17.273; -581.107; -437.807
589.925;   22.784; -517.114; -621.795
590.202;   -7.098; -741.112; -607.798
590.478;  161.404; -166.105;  -73.811
590.755;  466.461; -241.108; -132.806
591.032; 3592.832; -741.110; -699.802
591.308; 4643.051; -732.094; -790.831
591.585; 2486.231; -573.110; -560.802
591.862;  132.445;-1056.102; -950.817
592.138;   82.058; -475.108; -474.805
592.415;  214.113; -486.104; -495.813
592.691; 2264.910;  460.896;  518.188
592.968; 2670.193; -208.098; -123.824
593.244; 1275.248; -695.116; -595.790
593.521;  171.245; -105.102;  -42.817
593.797;  -74.231; -810.122; -720.780
594.074;  431.112; -611.096; -588.826
594.350; 1049.129;  828.905;  729.172
594.626;  449.125; -303.111; -283.801
594.903;  117.846; -643.101; -645.817
595.179;  329.819;  243.896;  418.187
595.455;   16.375; -136.107; -150.807
595.731;   65.821;  -19.103;  -38.814
596.008;  -79.884; -464.111; -434.800
596.284;   62.970; -187.100; -242.820
596.560;   78.461; -501.093; -493.833
596.836;  316.197; -173.105;  -70.810
597.112;  467.459; -582.108; -437.805
597.388;  438.609;  -49.097;  -48.826
597.665;  220.296;  437.887;  530.203
597.941; -106.695; -572.089; -658.839
598.217;   69.337; -323.110; -293.802
598.493;  386.351;   61.891; -204.804
598.769;  724.361; -175.100;  -50.819
599.045;  411.563; -490.108; -562.806
599.321;   98.768; -193.100; -261.820
599.597;  204.250; -355.109; -476.804
599.872;  752.915;  409.896;  429.187
600.148;  541.911;  -61.097; -172.826
600.424;  468.171;   91.893;  202.193
600.700;  362.574; -170.107; -280.807
600.976;  182.103; -442.097; -464.825
601.252;  347.745; -226.109; -272.803
601.527;  222.017; -833.104; -840.813
601.803;  201.805; -453.105; -404.812
602.079;  318.261; -124.100; -118.819
602.354;  815.676; -620.092; -531.835
602.630; 1165.792; -140.113; -482.796
602.906; 3505.854; -910.101; -863.818
603.181; 9187.417; -627.119; -534.786
603.457; 8011.908;   98.903; -278.826
603.733; 1208.992; -605.120; -626.783
604.008; 1499.192; -245.106; -164.810
604.284; 4207.948; -636.101; -580.817
604.559; 3829.309;   -3.112;  -42.799
604.835;  713.796; -163.105; -225.810
605.110;  572.676; -732.099; -892.821
605.385;  983.265;  224.907;  267.167
605.661;  959.733; -625.095; -729.829
605.936; 1533.664; -664.108; -737.806
606.211; 1400.531;  -17.103; -170.815
606.487;  293.576; -329.114; -376.794
606.762;   -5.083; -791.119; -745.786
607.037;  -66.603; -501.105; -433.810
607.313; -106.277; -589.096; -574.828
607.588;   -6.009; -375.106; -137.810
607.863;   81.453;  -28.101; -143.818
608.138;  340.135;  513.890;  516.198
608.413;   33.182; -576.099; -592.822
608.688;   57.058; -203.108; -267.805
608.964;  290.183; -509.106; -218.809
609.239;  350.692; -107.105; -212.810
609.514;  443.505;  281.895;  240.188
609.789;  946.611; -187.104; -716.812
610.064; 1222.921; -435.096; -609.827
610.339; 1250.646; -855.109; -799.804
610.614; 1611.469; -131.100; -315.820
610.889;  937.205;  215.895;  107.188
611.163;   33.106; -407.104; -591.812
611.438;  119.578;   81.886; -167.794
611.713;   -1.552; -467.101; -499.817
611.988;   94.152; -144.101; -328.818
612.263;  -57.166; -771.102; -717.815
612.538;  391.591;  385.887;  251.204
612.812;  195.871; -832.100; -911.820
613.087;  162.390; -358.098; -338.823
613.362;  -80.726; -497.107; -557.807
613.637;  110.125;  261.897;  138.186
613.911;  -10.223; -256.092; -345.835
614.186;  152.372; -249.107; -292.807
614.460;  869.419; -842.081; -758.854
614.735; 1076.341;  -55.087;  -17.843
615.010;  277.826;   43.912;  -82.841
615.284;  431.157;  360.892;  246.195
615.559;  470.775; -792.092; -955.835
615.833;  455.479;  -76.099;  -87.822
616.108;    7.293; -225.090; -390.837
616.382;  281.643;  274.913;  402.156
616.656;  242.194; -241.090; -232.837
616.931;  678.480; -785.099; -700.822
617.205; 1498.417; -973.104; -979.813
617.480; 1380.233;  -91.125;    6.225
617.754;  245.329; -396.125; -128.774
618.028;   28.884; -369.129; -382.768
618.302;  102.655;   73.892;  -25.805
618.577; -104.073; -371.103; -518.815
618.851;  -96.360; -399.109; -600.803
619.125;  -82.283; -335.134; -378.759
619.399;  -55.582; -244.104; -374.813
619.673;  -76.840; -330.115; -515.792
619.947;  -47.018; -333.114; -448.795
620.222;    4.226; -198.110; -204.801
620.496;   34.189;  -47.121;  -96.782
620.770;   48.276; -187.122;  -93.781
621.044;  355.794;  323.895;  346.190
621.318; 1042.893; -653.120; -614.783
621.592;  915.890; -430.121; -409.783
621.866;  447.710; -476.112; -572.799
622.140;   60.350; -207.116; -356.791
622.413;  126.116;  138.889;  112.200
622.687;  -80.751; -746.101; -492.817
622.961;   56.855; -130.108; -143.805
623.235; -110.482; -633.111; -661.800
623.509; -192.296; -816.105; -848.811
623.783;   52.368;  -12.107;   48.193
624.056;  -18.205; -254.120; -280.783
624.330;  109.300;   63.888;   -3.797
624.604;   60.945; -271.116; -355.790
624.877;  141.033;  180.890;   26.198
625.151;   79.674; -249.114; -238.794
625.425;  -28.079; -150.103; -283.814
625.698;  -98.191; -367.119; -374.785
625.972; -170.263; -799.110; -765.802
626.245;  203.348;  685.884;  484.210
626.519;  -48.099; -426.120; -340.784
626.792;  -42.026; -192.107; -380.807
627.066; -137.135; -485.122; -662.779
627.339; -193.769; -736.110; -663.802
627.613;  124.599;  351.880;  148.216
627.886;  156.140;  187.891; -612.803
628.160;  -19.608;  312.880; -161.783
628.433; -164.163; -695.125; -703.775
628.706; -147.799; -517.120; -615.784
628.979;   85.947;  296.876;  117.223
629.253; -169.784; -785.119; -833.786
629.526;  538.613; -334.126; -253.772
629.799;  402.458; -641.123; -479.778
630.072;  257.286; -497.128; -516.769
630.346; -170.852;-1115.116;-1080.790
630.619;  622.675; -467.107; -545.808
630.892;  917.418;  709.889;  593.200
631.165;  513.618;  790.896;  679.187
631.438; -175.695;-1092.112;-1055.798
631.711;  129.662;  453.877;  257.221
631.984;  -88.359; -523.117; -624.789
632.257; -142.964; -636.117; -681.789
632.530; -103.291; -412.119; -433.785
632.803;   75.271; -109.115;    7.207
633.076;  -99.847; -360.123; -422.777
633.349;   58.693;  173.872;  121.231
633.622;  -26.193; -187.119; -240.785
633.895; -237.106; -903.120; -823.783
634.167;  -87.383; -496.126; -525.773
634.440;   -9.642;  -19.116; -137.792
634.713;   46.614;  -22.119; -120.786
634.986;  221.877;  593.871;  453.233
635.258; -123.232; -507.115; -597.793
635.531;  245.530;  742.882; -343.788
635.804;  -54.661; -303.117; -318.789
636.077; -184.148; -830.116; -852.791
636.349;   -6.534; -586.115; -474.793
636.622;  753.912; 1695.874; 1392.228
636.894;  340.301; -474.120; -909.784
637.167;  152.603; -836.127; -789.771
637.439;   55.798; -278.128; -213.770
637.712;  -59.285; -312.126; -293.772
637.984; -145.747; -635.116; -707.791
638.257;  622.953;  515.877;  488.222
638.529;  759.538; -881.125; -924.776
638.802;  329.886; -508.128; -449.769
639.074; -194.825; -927.122; -952.781
639.346; -241.496; -942.135; -930.757
639.619;   32.905;  -79.142; -319.744
639.891;   -0.335;  -83.122; -168.779
640.163; -155.932; -689.122; -756.780
640.435;   90.471;  273.878;  103.220
640.708;   24.074;  -72.122; -132.780
640.980;  -27.723; -366.122; -362.781
641.252;  367.579;  -25.121;  -71.781
641.524; 2762.282;  580.879;  573.219
641.796; 2551.885;-1094.121; -907.782
642.068;  472.488; -191.121; -300.782
642.340;  -99.910; -486.121; -566.783
642.613;  142.293;  294.880;  323.217
642.885; -165.304; -787.120; -878.783
643.157;  -97.501; -810.120; -658.784
643.428;  140.701;  170.880;  218.216
643.700;  -92.296; -498.120; -425.784
643.972;  -27.293;  -16.119; -133.785
644.244; -143.290; -474.119; -559.785
644.516;  -60.187; -250.119; -114.786
644.788;  140.215;  662.881;  548.214
645.060;   28.418;  -12.119; -124.786
645.332; -170.279; -525.118; -535.787
645.603;  119.024;  479.882;  342.213
645.875; -117.474; -334.118; -369.787
646.147;  390.629; 1487.882; 1242.212
646.418; -154.068; -931.117; -918.788
646.690;  139.435; -714.117; -715.789
646.962;   31.638; -413.117; -451.789
647.233;   53.940;   15.883;   11.211
647.505; -194.957; -595.117; -475.790
647.776;  132.846;  328.884;  229.210
648.048;   13.149; -248.116; -418.790
648.320; -125.949; -752.116; -679.791
648.591; -271.946;-1055.116; -958.791
648.862; -104.743; -505.116; -577.792
649.134;   71.860;  115.885;  198.208
649.405;  -98.737; -661.115; -618.792
649.677; -119.535; -475.115; -598.793
649.948;   -1.732; -181.115; -296.793
650.219;   32.471;  -37.115; -147.793
650.491; -141.026; -431.114; -520.794
650.762; -208.424; -705.114; -731.794
651.033; -150.021; -437.114; -424.795
651.304; -169.818; -743.114; -728.795
651.576; -135.715; -680.114; -645.795
651.847;  -36.612; -250.113; -140.796
652.118;    0.190;  -32.113; -189.796
652.389; -169.807; -639.113; -722.796
652.660;  -43.204; -147.113;  -89.797
652.931; -260.501; -897.112; -871.797
653.202; -133.299; -382.112; -541.798
653.473; -108.096; -633.112; -533.798
653.744;  187.307; -595.112; -590.798
654.015;  216.510; -356.112; -303.799
654.286; -110.887; -642.111; -663.799
654.557; -104.885; -586.111; -521.799
654.828; -299.982;-1114.111;-1088.800
655.099; -131.679; -404.111; -291.800
655.370; -152.076; -427.111; -543.801
655.641; -189.874; -656.110; -714.801
655.911; -176.471; -618.110; -638.801
656.182;  152.932;  437.890;  387.198
656.453;  245.635;  830.890;  746.198
656.724;  -93.563; -466.110; -426.802
656.994; -140.560; -553.109; -568.803
657.265; -195.857; -862.109; -873.803
657.536; -140.354; -500.109; -377.804
657.806; -165.851; -561.109; -593.804
658.077; -228.849; -866.109; -950.804
658.347; -163.346; -523.108; -598.805
658.618; -200.243; -646.108; -694.805
658.888;   10.860;  -41.108;  112.195
659.159; -108.338; -432.108; -548.806
659.429;  -34.335; -292.108; -349.806
659.700;   -6.232; -435.107; -390.807
659.970;  -15.229; -370.107; -359.807
660.241;   -0.626; -754.107; -921.807
660.511;  723.376; -147.107; -174.808
660.781;   75.479; -793.106; -748.808
661.052;  -58.618; -222.106; -381.808
661.322;    3.585;   21.894;   -9.809
661.592;   69.087;  257.894;  148.191
661.862; -112.210; -369.106; -382.810
662.133; -169.807; -551.105; -502.810
662.403; -192.104; -770.105; -676.810
662.673;  -65.301; -256.105; -213.811
662.943; -180.499; -612.105; -551.811
663.213;   24.304;  -85.105;  -81.811
663.483; -141.593; -593.104; -568.812
663.753;  -40.890; -194.104; -152.812
664.023;   21.412;   68.896;  -32.813
664.293;  -97.985; -319.104; -126.813
664.563; -179.782; -694.104; -648.813
664.833; -198.279; -743.103; -608.814
665.103; -229.176; -730.103; -793.814
665.373; -189.674; -766.103; -806.814
665.643; -160.671; -863.103; -918.815
665.913;   21.332; -534.103; -714.815
666.182;  186.735; -685.102; -719.816
666.452;  360.437;  -22.102;  -89.816
666.722;  -75.660; -724.102; -784.816
666.992; -264.557; -948.102; -921.817
667.261; -168.354; -824.102; -808.817
667.531;  367.448;  134.899;   45.183
667.801;  815.251; -440.101; -412.818
668.070;  455.054;  714.899;  697.182
668.340; -165.343; -883.101; -840.819
668.609;  175.360;  588.900;  301.181
668.879; -107.838; -490.100; -558.819
669.149;  -93.135; -539.100; -516.820
669.418; -171.232; -698.100; -726.820
669.688;  -59.129; -482.100; -666.820
669.957;   79.773; -423.099; -546.821
670.226;  -15.924; -268.099; -331.821
670.496; -166.621; -431.099; -635.822
670.765; -135.018; -418.099; -501.822
671.034; -235.515; -872.099; -828.822
671.304;   14.187;   55.902; -111.823
671.573; -257.710;-1085.098; -957.823
671.842;  127.193; -380.098; -294.823
672.112;    3.896; -692.098; -586.824
672.381;   -3.602; -239.098; -214.824
672.650; -245.099;-1005.097;-1021.825
672.919; -134.396; -631.097; -507.825
673.188; -139.293; -681.097; -878.825
673.457; -270.590;-1101.097;-1143.826
673.726; -148.288; -579.096; -646.826
673.995;  -62.685; -533.096; -479.826
674.265;  -34.282; -263.096; -333.827
674.534;   -0.179; -183.096; -235.827
674.802;   13.023; -618.096; -703.828
675.071; 1452.326; -886.095; -801.828
675.340; 5204.329; -464.095; -339.828
675.609; 1788.232;  103.905;   82.171
675.878;   73.835; -949.095; -893.829
676.147;   90.237;  -26.095;   -8.829
676.416;  178.640; -210.094; -294.830
676.685; 1128.543; 1000.906; -622.830
676.953;  136.546; -603.094; -452.831
677.222;  -28.252; -193.094; -273.831
677.491;  -12.349;  -24.094; -127.831
677.759;   28.654;   11.907;  172.168
678.028;  -10.943; -279.093; -222.832
678.297;   61.659;   71.907;  197.168
678.565; -249.938; -898.093; -944.833
678.834;  -57.135; -311.093; -268.833
679.102; -116.532; -411.092; -391.834
679.371; -243.929; -898.092; -727.834
679.639; -194.927; -797.092; -786.834
679.908; -211.824; -794.092; -724.835
680.176; -260.721; -895.091; -941.835
680.445;  -99.118; -346.091; -352.835
680.713;   19.284;  -58.091;  -23.836
680.982; -165.613; -523.091; -525.836
681.250; -146.110; -578.091; -507.837
681.518; -176.007; -534.090; -751.837
681.787;  -29.504; -204.090; -167.837
682.055;  -90.902; -490.090; -422.838
682.323; -263.599; -993.090; -992.838
682.591;   56.504; -216.090; -538.838
682.859;  118.107;    9.911;  -35.839
683.128;   67.309;  232.911;  497.161
683.396; -274.688;-1102.089;-1122.840
683.664;  -47.085; -241.089;   21.160
683.932;   57.918;  144.911;  -76.840
684.200; -110.779; -576.088; -320.841
684.468;  -15.777;  -73.088; -124.841
684.736;   -9.574; -214.088; -175.841
685.004; -215.571;-1024.088; -982.842
685.272; -126.168; -880.088; -774.842
685.540; -128.366; -499.087; -557.843
685.808; -137.063; -651.087; -682.843
686.076; -179.960; -894.087; -969.843
686.343; -119.557; -601.087; -815.844
686.611;   77.546; -195.087; -224.844
686.879;  784.748; -530.086; -553.844
687.147; 4459.651; -483.086; -480.845
687.414; 1306.554;  -12.086; -169.845
687.682;  -12.643; -658.086; -757.846
687.950;  521.659;  259.915;  263.154
688.217;  -52.338; -792.085; -760.846
688.485;  -11.735; -632.085; -636.847
688.753;  755.268;  -11.085; -102.847
689.020;  182.171; -820.085; -851.847
689.288; -177.327; -853.084; -787.848
689.555;    5.876; -195.084; -148.848
689.823;  -69.521; -241.084; -345.849
690.090; -143.418; -546.084; -651.849
690.358; -257.616; -877.084; -897.849
690.625;   40.987;  120.917;   45.150
690.892;  -86.710; -403.083; -369.850
691.160;   -7.507;   72.917;  -35.850
691.427;   55.295;  141.917;  130.149
691.694; -239.002; -855.083; -929.851
691.962; -274.899;-1177.082;-1060.852
692.229;   32.904;  127.918;   56.148
692.496;  172.507;  130.918;  -49.852
692.763;   41.009; -164.082; -201.853
693.031; -124.288; -739.082; -716.853
693.298;  -46.285; -509.081; -368.853
693.565;  480.518; -155.081; -163.854
693.832; 1688.320;   -5.081;   -9.854
694.099;  175.823; -643.081; -642.855
694.366; -110.974; -882.081; -896.855
694.633; -110.071; -920.080; -633.855
694.900; 1544.632; 4367.920; -114.856
695.167;  678.734; -214.080; -380.856
695.434;  126.737; -646.080; -623.856
695.701;  382.240;  121.921;  -61.857
695.968;  686.243; -365.079; -361.857
696.234; 1790.845; -415.079; -646.858
696.501;16917.048; -776.079; -614.858
696.768; 8075.851; -554.079; -617.858
697.035;  552.454; -632.078; -667.859
697.302;   91.457; -448.078; -552.859
697.568;   66.859; -458.078; -497.859
697.835;   -9.638; -683.078; -624.860
698.102;  -51.635; -498.078; -407.860
698.368;  250.268;  384.923;  396.139
698.635;  -24.330;  -47.077; -424.861
698.901;    1.973; -240.077; -348.861
699.168;  119.176; -534.077; -456.862
699.435;  162.879;  -72.077;  -13.862
699.701; -200.418; -868.076; -764.862
699.968;  -69.716;  144.924; -441.863
700.234; -161.313; -783.076; -822.863
700.500;  -76.810; -448.076; -539.864
700.767;   32.193;   -1.075;   26.136
701.033; -193.705;-1015.075; -963.864
701.299;  -64.402; -450.075; -483.865
701.566;  332.801;  950.925;  763.135
701.832;   90.104;  -31.075;  -76.865
702.098; -179.094;-1054.074;-1034.866
702.365; -167.391;-1098.074;-1030.866
702.631;  -91.788;-1038.074;-1063.867
702.897; 2124.615; -765.074; -676.867
703.163; 3135.218;  348.926;  254.133
703.429;  279.820; -256.073; -273.868
703.695;  -53.877; -796.073; -792.868
703.961;  101.926; -214.073; -210.868
704.227;  -74.971; -630.073; -725.869
704.493;  310.931;  613.927;  510.131
704.759;  -29.566; -565.072; -540.870
705.025;   88.137; -203.072; -194.870
705.291;   17.440; -666.072; -562.870
705.557;  424.043;  719.928;   34.129
705.823;  117.945; -742.072; -694.871
706.089;  261.248; -307.071; -326.871
706.355;  665.251; -315.071; -244.872
706.620; 9920.354; -776.071; -729.872
706.886;12289.656; -309.071; -362.873
707.152; 1046.459; -818.070; -973.873
707.418;  -65.138;-1153.070;-1186.873
707.683;   30.865; -550.070; -530.874
707.949;  -34.432; -547.070; -578.874
708.215;   31.470; -129.070; -207.874
708.480;   -7.427; -520.069; -420.875
708.746;  190.376;   68.931;   28.125
709.011;  -88.521; -578.069; -612.876
709.277; -115.319; -538.069; -543.876
709.542;  -49.016; -428.069; -387.876
709.808;   38.187;  -59.068;   89.123
710.073; -126.710; -577.068; -695.877
710.339;   -1.107; -242.068; -228.877
710.604;  114.595; -780.068; -845.878
710.869;  454.798; -277.068; -366.878
711.135; -132.999; -715.067; -628.879
711.400; -106.096; -507.067; -608.879
711.665;  -98.494; -404.067; -479.879
711.931; -151.891; -661.067; -677.880
712.196; -182.288; -876.067; -954.880
712.461;  176.315; -402.066; -490.880
712.726;  167.717; -727.066; -771.881
712.991; -128.480; -647.066; -664.881
713.256;  -54.177; -350.066; -332.882
713.521;  -59.074; -417.065; -381.882
713.787;  -73.171; -454.065; -472.882
714.052;  -16.669; -214.065; -400.883
714.317; -170.766;-1045.065; -981.883
714.581; 1797.537; -374.065; -268.883
714.846; 2116.740; -822.064; -888.884
715.111;  290.042;  261.936;  257.116
715.376;   -6.255;  -86.064; -223.885
715.641;   26.048; -365.064; -367.885
715.906;  396.951;   15.936; -551.885
716.171;  269.054;  221.937;  209.114
716.436;   99.156;  -78.063; -104.886
716.700; -173.541; -818.063; -692.886
716.965; -223.338; -794.063; -807.887
717.230;  -87.335; -339.063; -392.887
717.494;    1.067;  -40.062; -134.888
717.759; -170.130; -784.062; -640.888
718.024;   74.173;  269.938;  250.112
718.288;  194.976;  685.938;  395.111
718.553; -257.221; -803.062; -977.889
718.817; -239.619; -883.061; -899.889
719.082;    4.284; -115.061; -125.890
719.346; -245.013;-1000.061; -947.890
719.611;  -52.510; -300.061; -255.891
719.875; -136.708; -568.060; -537.891
720.140;  -98.905; -453.060; -603.891
720.404;   90.098; -136.060; -249.892
720.668; 1194.801; -475.060; -411.892
720.933;  496.004;  146.940;  137.108
721.197; -142.394; -667.059; -600.893
721.461; -233.491; -851.059; -826.893
721.725;   45.912;  -21.059; -250.894
721.990;  -24.485; -284.059; -204.894
722.254;   11.117;  -26.059; -108.894
722.518;  -85.480; -286.058; -442.895
722.782; -146.377; -743.058; -594.895
723.046;  282.926;  614.942;  570.105
723.310;   96.429;  374.942;  210.104
723.574; -149.969; -654.058; -614.896
723.838; -153.466; -576.057; -642.897
724.102;  -45.663; -226.057; -239.897
724.366; -230.460;-1032.057; -978.897
724.630; -180.358; -749.057; -571.898
724.894; -102.855; -722.057; -514.898
725.158;   12.048;   38.944; -295.898
725.422;  -62.649; -394.056; -327.899
725.685;  -94.547; -441.056; -349.899
725.949; -123.844; -566.056; -519.900
726.213; -116.141; -732.056; -811.900
726.477;  222.962;-1020.055; -933.900
726.740;  239.165; -274.055; -104.901
727.004;  643.967; -384.055; -510.901
727.268; 5301.570; -442.055; -400.901
727.531; 1325.573; -961.055; -775.902
727.795;  -63.424; -713.054; -673.902
728.059;  -87.322; -552.054; -557.903
728.322; -123.119; -841.054; -669.903
728.586;   10.784; -692.054; -701.903
728.849; -121.513; -695.053; -756.904
729.112; -193.410; -812.053; -912.904
729.376; -201.708; -959.053; -905.904
729.639; -135.705; -536.053; -536.905
729.903; -173.602; -733.053; -699.905
730.166;  -29.999; -437.052; -399.906
730.429;  -24.397; -317.052; -468.906
730.693; -104.894; -355.052; -894.906
730.956;  430.809;  810.948;  651.093
731.219; 1005.412; -310.052; -103.907
731.482;  166.615;-1003.051; -894.907
731.745;   73.017; -794.051; -935.908
732.009;   72.220;  -30.051;   50.092
732.272; -153.377; -904.051; -771.909
732.535;  -25.874; -300.051; -310.909
732.798; -272.972;-1083.050;-1166.909
733.061;  -70.469; -430.050; -456.910
733.324;   77.134;   31.950; -180.910
733.587;  173.337;  290.950;  365.090
733.850;  -90.560; -973.049;-1050.911
734.113;  109.042;   33.951;   32.089
734.376;   32.345; -328.049; -447.912
734.639;  503.148; 1188.951; 1011.088
734.901;  176.851; -180.049; -402.912
735.164;  771.453; -883.048; -837.913
735.427; 1787.756; -166.048; -355.913
735.690;  198.559; -205.048; -234.913
735.952;  -49.938; -923.048; -925.914
736.215;  -93.336;-1113.048;-1009.914
736.478;   69.667; -771.047; -774.915
736.740;  399.770;   33.953;  129.085
737.003; 1115.173; -658.047; -672.915
737.266; 5569.676;  -94.047;   46.084
737.528;  642.578; -682.047; -660.916
737.791;  532.781; -316.046; -327.916
738.053; 1481.184;  465.954;  649.083
738.316;17952.087; -162.046; -136.917
738.578;11067.789; -770.046; -736.918
738.841;  712.492; -382.046; -446.918
739.103;  306.195; -875.045; -777.918
739.365;  796.898;   79.955;  -69.919
739.628;    1.901; -884.045; -805.919
739.890;  -24.497; -758.045; -710.919
740.152;  -55.794; -692.044; -754.920
740.414;    7.909; -408.044; -359.920
740.677;  -79.988; -785.044; -634.921
740.939;  -66.086; -587.044; -487.921
741.201;  414.417; -432.044; -572.921
741.463;   30.920; -689.043; -745.922
741.725;   66.423;  -21.043; -199.922
741.987;  154.726;  220.957;  116.078
742.249;  -14.272; -751.043; -859.923
742.511;  303.531; -703.043; -794.923
742.773;   26.534; -546.042; -546.924
743.035;  266.037;  796.958;  533.076
743.297;  -63.161; -963.042;-1013.924
743.559; 1065.842; -278.042; -262.925
743.821;   73.345; -735.042; -744.925
744.083;   34.948;  -44.041; -149.925
744.345; -136.749; -869.041; -892.926
744.607;  137.353;   75.959;  122.074
744.868;  -96.444; -490.041; -554.927
745.130; -190.441; -994.041;-1008.927
745.392;   97.462;   -1.040;  -44.927
745.653;   17.964; -411.040; -378.928
745.915;  378.367;  896.960;  631.072
746.177;  149.870;   35.960;  -43.928
746.438;   24.773; -428.040; -543.929
746.700;  -59.825; -947.039; -988.929
746.961;   19.378; -659.039; -740.930
747.223;  233.581; -190.039;  -74.930
747.484;  185.184; -391.039; -471.930
747.746;  301.787;  -23.038; -106.931
748.007;  181.289; -647.038; -689.931
748.269;  462.192; -468.038; -440.931
748.530;  675.495; -852.038; -638.932
748.791;  397.798; -354.038; -420.932
749.053;  697.800;  286.963;  163.067
749.314;  692.403; -236.037; -169.933
749.575;  729.806; -945.037; -905.933
749.836; 1346.009; -217.037;   86.066
750.098; 4243.912;  -60.037;  -21.934
750.359;53254.314;  414.964;  555.066
750.620;12241.917; -121.036; -220.935
750.881; 1570.420; -585.036; -513.935
751.142; 2174.023; -950.036; -938.936
751.403;26856.525; -789.036; -705.936
751.664;10301.728;-1034.035; -999.936
751.925;  793.331; -175.035; -262.937
752.186;  527.134; -298.035; -278.937
752.447;  228.537; -590.035; -445.937
752.708;  126.839; -532.035; -648.938
752.969;   31.742; -566.034; -576.938
753.230;   26.345; -777.034; -672.939
753.491;   36.348; -650.034; -631.939
753.751;  181.250;  109.966;   19.061
754.012;  217.553;  258.967;  181.060
754.273;  122.856; -174.033;  -71.940
754.534;   44.259; -487.033; -580.940
754.794; -138.038; -926.033; -911.941
755.055;  348.864; 1051.967;  881.059
755.316;  -62.033; -700.032; -566.942
755.576;  -43.230; -606.032; -576.942
755.837;  -54.727; -527.032; -695.942
756.097;  -70.325; -530.032; -564.943
756.358; -137.922; -725.032; -770.943
756.618;  -56.919; -705.031; -641.943
756.879;   52.084; -254.031; -349.944
757.139; -212.814;-1098.031;-1116.944
757.400;  -68.311; -538.031; -553.945
757.660;   19.692; -365.031; -401.945
757.920;   36.595; -266.030; -228.945
758.181;   11.398; -468.030; -351.946
758.441; -137.700; -870.030; -809.946
758.701;   -3.797; -308.030; -215.946
758.961;    3.006; -220.030; -278.947
759.222;  -63.691; -574.029; -502.947
759.482; -119.489; -683.029; -723.948
759.742; -124.386; -706.029; -547.948
760.002;   47.917;  -83.029; -143.948
760.262;   95.820;   50.972;  182.051
760.522;  -11.377; -498.028; -574.949
760.782;  -94.975; -738.028; -612.949
761.042;  -24.272; -618.028; -573.950
761.302;  145.831;   55.972;  -18.950
761.562;  148.234; -164.027; -154.951
761.822;  164.136; -710.027; -551.951
762.082;  -56.061;-1104.027;-1093.951
762.342;  179.842; -328.027; -403.952
762.601;  168.645; -567.027; -506.952
762.861;  593.148; -281.026; -207.952
763.121;  817.450; -406.026; -411.953
763.381;13840.253; -499.026; -485.953
763.640;12880.056; -139.026; -307.954
763.900;  660.159; -242.026; -203.954
764.160;  183.261; -458.025; -491.954
764.419;    3.064; -726.025; -782.955
764.679; -100.133; -795.025; -726.955
764.939;   53.870; -124.025; -210.955
765.198;  -96.627; -608.025; -563.956
765.458; -128.125; -710.024; -612.956
765.717; -100.922; -454.024; -590.957
765.976;  -66.219; -428.024; -411.957
766.236;  -94.916; -475.024; -610.957
766.495;  113.586;  260.977;   73.042
766.755; -184.611;-1090.023; -987.958
767.014;   13.292; -594.023; -665.958
767.273;  -58.505; -373.023; -397.959
767.533;  -28.302; -228.023; -307.959
767.792;   -9.600; -151.022; -188.960
768.051;  -42.297; -228.022; -276.960
768.310;  -96.594; -546.022; -650.960
768.569;   47.909; -161.022;    4.039
768.828;  -11.089; -285.022; -363.961
769.088; -195.286;-1050.021; -942.961
769.347; -143.383; -755.021; -599.962
769.606; -130.580; -876.021; -857.962
769.865; -222.278;-1016.021;-1033.963
770.124;   50.525; -411.021; -336.963
770.383;  -70.572; -778.020; -910.963
770.641;   33.531; -398.020; -400.964
770.900; -106.766; -953.020; -846.964
771.159;  -85.064; -851.020; -951.964
771.418;  -11.061; -917.020; -779.965
771.677;  236.342; -224.019; -293.965
771.936;  268.745; -794.019; -865.966
772.194; 4569.247; -465.019; -437.966
772.453;17555.750; -213.019; -391.966
772.712; 1326.353;  416.982;  329.033
772.970;  265.056;   32.982;   63.033
773.229;  193.859;  -22.018;  102.033
773.488; -126.339; -814.018; -770.968
773.746;  165.164;  296.982;  335.032
774.005;   67.667;  190.983;  -22.969
774.263;   84.470;  243.983;  177.031
774.522; -105.428; -422.017; -548.969
774.780;  -97.525; -484.017; -417.970
775.039; -116.922; -551.017; -531.970
775.297;   37.881; -135.016; -351.970
775.555; -161.216; -489.016; -612.971
775.814; -172.114; -618.016; -570.971
776.072; -222.411; -749.016; -740.971
776.330; -146.608; -630.016; -520.972
776.589; -210.105; -703.015; -721.972
776.847; -179.103; -645.015; -624.973
777.105; -265.200;-1016.015;-1032.973
777.363;  -85.297; -459.015; -454.973
777.621; -224.194; -660.015; -717.974
777.879;    5.709;  -42.014;   32.026
778.138; -132.589; -554.014; -717.974
778.396; -154.586; -585.014; -526.975
778.654; -291.983;-1015.014; -970.975
778.912;  -45.680; -269.014; -371.976
779.170; -191.678; -880.013; -803.976
779.427; -258.675; -922.013; -897.976
779.685; -231.372; -880.013; -832.977
779.943; -144.769; -654.013; -593.977
780.201; -253.567; -964.012; -883.978
780.459; -202.564; -651.012; -610.978
780.717; -111.961; -440.012; -390.978
780.974; -123.658; -449.012; -490.979
781.232;  -77.455; -358.012; -338.979
781.490; -115.353; -551.011; -472.979
781.747; -130.050; -555.011; -476.980
782.005;  133.853;  462.989;  254.020
782.263; -260.544; -542.011;-1004.981
782.520;  -94.042; -326.011; -501.981
782.778; -290.939;-1013.010;-1051.981
783.035; -286.536; -962.010; -938.982
783.293;  -53.633; -248.010; -206.982
783.550;  -40.230; -134.010; -198.982
783.808; -223.028; -764.010; -776.983
784.065; -247.125; -745.009; -874.983
784.322;  -11.422;   25.991;  -86.984
784.580; -244.619; -915.009; -771.984
784.837; -134.017; -392.009; -466.984
785.094; -217.814; -783.009; -762.985
785.352;  -74.811; -304.008; -404.985
785.609; -217.208; -934.008; -839.985
785.866; -112.005; -345.008; -401.986
786.123; -130.103; -639.008; -583.986
786.380; -175.900; -665.008; -604.987
786.637;  -10.997; -225.007; -380.987
786.895;  -26.394; -456.007; -543.987
787.152;  -26.692; -135.007; -267.988
787.409;   -4.689; -123.007; -225.988
787.666;  -98.386; -299.006; -378.988
787.923; -156.883; -616.006; -695.989
788.179; -150.680; -551.006; -584.989
788.436; -137.078; -585.006; -585.990
788.693;   13.925;  -92.006;  -87.990
788.950;  250.528; -125.005; -112.990
789.207;  282.031; -381.005; -372.991
789.464;  -58.567; -161.005; -301.991
789.720;   72.436;  150.995;  110.009
789.977; -268.861;-1003.005; -671.992
790.234;   45.142;   44.996;  -66.992
790.490; -266.556; -884.004;-1031.993
790.747;   13.547;  -85.004;   22.007
791.004;  -25.850; -426.004; -348.993
791.260;  -89.647; -430.004; -560.994
791.517; -170.044; -843.003; -788.994
791.773;  -31.942; -379.003; -342.994
792.030; -181.339; -596.003; -660.995
792.286; -134.236; -686.003; -636.995
792.543;   23.667;  -74.002; -159.995
792.799;  -47.631; -584.002; -382.996
793.055; -273.128;-1179.002;-1210.996
793.312; -102.625; -827.002; -816.997
793.568;  -79.422; -746.002; -599.997
793.824;   52.381; -226.001; -284.997
794.081;   58.083; -447.001; -508.998
794.337;  116.586; -664.001; -561.998
794.593; 2747.589; -319.001; -271.999
794.849;10403.892; -746.001; -772.999
795.105;  542.494; -270.000; -261.999
795.361;   86.897; -490.000; -457.000
795.617; -112.700; -875.000; -945.000
795.873;  -59.100; -360.000; -407.000
796.129;    4.200; -368.000; -306.000
796.385;   12.600; -124.000; -156.000
796.641;  183.600;  412.000;  550.000
796.897; -103.500; -666.000; -635.000
797.153;  224.000;  453.000;  357.000
797.409; -140.100; -785.000; -868.000
797.665; -103.900; -625.000; -732.000
797.921; -130.000; -775.000; -762.000
798.176;  -82.400; -744.000; -747.000
798.432;  -78.300; -824.000; -596.000
798.688; -101.100;-1174.000;-1078.000
798.943;  176.700; -165.000; -147.000
799.199;    9.400;-1005.000; -959.000
799.455;  481.500;  369.000;  316.000
799.710;  217.700; -813.000; -380.000
799.966;  562.600; -162.000; -160.000
800.221;  840.800; -638.000; -721.000
800.477;18532.000; -743.000; -710.000
800.732;12964.700; -773.000; -800.000
800.988; 1147.300;  205.000;  -19.000
801.243; 4030.400; -454.000; -344.000
801.498;13679.600; -814.000; -739.000
801.754;  817.500; -289.000; -163.000
802.009;  197.300; -257.000; -335.000
802.264;  -42.500; -967.000;-1033.000
802.520;  124.700;  222.000;   -3.000
802.775;  -45.400; -524.000; -359.000
803.030;  177.700;  395.000;  356.000
803.285; -179.400; -840.000; -903.000
803.540;  -58.000; -686.000; -699.000
803.795;  -77.900; -648.000; -583.000
804.051;   -6.200; -279.000; -346.000
804.306;  110.500;  168.000;  128.000
804.561;  300.300;  451.000;  362.000
804.816;  323.500;  714.000;  861.000
805.071;   59.200; -185.000; -280.000
805.325;  312.400; -257.000; -427.000
805.580; -183.400; -841.000; -877.000
805.835;   30.900; -204.000; -297.000
806.090; -109.100; -760.000; -676.000
806.345;   22.300; -344.000; -264.000
806.600;  -48.300; -549.000; -632.000
806.854;   -6.600; -408.000; -538.000
807.109;   20.500; -493.000; -577.000
807.364;   98.400; -407.000; -328.000
807.618;   54.500; -415.000; -381.000
807.873;   93.300; -470.000; -494.000
808.128;  153.600; -257.000; -518.000
808.382;  207.300; -224.000; -332.000
808.637;  148.000; -440.000; -511.000
808.891;  384.900; -257.000; -180.000
809.146;  169.800; -902.000; -794.000
809.400;  464.000; -848.000; -923.000
809.654;  538.000; -779.000; -551.000
809.909;  790.500; -841.000; -927.000
810.163;12216.400; -813.000; -651.000
810.418;24726.100; -940.000; -861.000
810.672; 1616.700; -685.000; -690.000
810.926; 1265.900; -993.000; -973.000
811.180; 2797.500; -439.000; -372.000
811.434;58003.500;  240.000;  135.000
811.689;18359.500; -231.000; -365.000
811.943; 1040.700; -936.000; -953.000
812.197;  633.000; -893.000; -671.000
812.451;  286.300; -379.000; -514.000
812.705;    2.200; -809.000; -619.000
812.959;  -38.100; -263.000; -388.000
813.213;   33.100; -283.000; -209.000
813.467;  211.600;  470.000;  253.000
813.721; -143.200; -764.000; -792.000
813.975; -155.200; -826.000; -877.000
814.229;  171.500;  430.000;  353.000
814.482;  -85.900; -517.000; -566.000
814.736; -189.100; -766.000; -744.000
814.990; -175.000; -779.000; -872.000
815.244;  -37.900; -228.000; -285.000
815.497; -113.700; -636.000; -601.000
815.751;   54.600; -141.000;   82.000
816.005;  -97.300; -470.000; -586.000
816.258;  -45.800; -510.000; -363.000
816.512; -152.900; -693.000; -610.000
816.766;   75.400;  121.000;  157.000
817.019;   99.200;  148.000;  149.000
817.273; -192.200;-1000.000; -802.000
817.526;   -1.600; -206.000; -173.000
817.779;  -75.900;-1049.000; -960.000
818.033; -122.400; -693.000; -807.000
818.286; -183.900; -725.000; -792.000
818.540; -113.100; -403.000; -403.000
818.793;  -64.800; -402.000; -489.000
819.046; -150.000; -582.000; -520.000
819.299;   -3.900; -157.000; -166.000
819.553; -124.300; -552.000; -592.000
819.806; -279.300;-1016.000; -838.000
820.059;  -47.900; -334.000; -354.000
820.312;   88.300;  152.000;  185.000
820.565;   38.900;  110.000;  -27.000
820.818;  -15.600;  -59.000; -173.000
821.071; -251.600;-1041.000; -957.000
821.324; -149.200; -536.000; -540.000
821.577; -138.800; -457.000; -483.000
821.830;  -66.700; -270.000; -172.000
822.083; -191.500; -733.000; -288.000
822.336;  -44.700; -261.000; -167.000
822.589; -188.000; -805.000; -688.000
822.842; -225.500; -875.000; -770.000
823.094; -277.400;-1076.000;-1114.000
823.347; -217.500; -925.000; -729.000
823.600;  105.200;  402.000;  187.000
823.853;  -42.500; -311.000; -267.000
824.105;  -94.200; -331.000; -575.000
824.358; -158.200; -617.000; -716.000
824.611;  137.100;  234.000;   40.000
824.863;  -52.000; -612.000; -591.000
825.116;  109.900;  -33.000;   27.000
825.368;  115.700; -366.000; -372.000
825.621;  290.600; -186.000; -240.000
825.873;  145.600; -704.000; -737.000
826.126; 1152.800; -669.000; -641.000
826.378;19275.100; -389.000; -505.000
826.630; 3421.100; -890.000; -898.000
826.883;   54.500; -754.000; -693.000
827.135;  112.200; -279.000; -270.000
827.387; -193.700; -893.000; -839.000
827.639;  -11.900;  -86.000;   32.000
827.892; -187.700; -742.000; -582.000
828.144; -221.500; -848.000; -804.000
828.396;  -16.800;  104.000;  -80.000
828.648; -139.500; -440.000; -333.000
828.900; -221.700; -702.000; -795.000
829.152; -152.500; -684.000; -683.000
829.404;  -53.700; -215.000; -267.000
829.656;   52.300;  321.000;  214.000
829.908;   57.600;  393.000;  229.000
830.160; -253.800;-1064.000;-1047.000
830.412; -128.800; -481.000; -430.000
830.664; -165.100; -557.000; -665.000
830.916;  -98.400; -268.000; -206.000
831.167; -281.800;-1073.000; -951.000
831.419; -153.700; -623.000; -566.000
831.671; -216.100; -764.000; -809.000
831.923;  -98.700; -311.000; -447.000
832.174;  -70.900; -273.000; -331.000
832.426; -142.900; -493.000; -582.000
832.678; -311.700;-1043.000;-1091.000
832.929; -274.800; -947.000; -935.000
833.181;  -98.600; -575.000; -677.000
833.432;   -9.500;  -59.000; -186.000
833.684;   36.600;  112.000;  -27.000
833.935; -188.300; -610.000; -566.000
834.187; -195.200; -829.000; -823.000
834.438;  -12.600;  -58.000;  -25.000
834.689;  -36.100; -255.000; -123.000
834.941;  -64.200; -343.000; -244.000
835.192; -143.200; -590.000; -533.000
835.443; -102.100; -419.000; -506.000
835.695;   42.500;  138.000;  -16.000
835.946; -106.900; -608.000; -378.000
836.197; -163.900; -599.000; -622.000
836.448; -111.600; -528.000; -395.000
836.699;  -56.000; -253.000; -341.000
836.950;   77.200;   72.000;    7.000
837.201; -244.300;-1003.000; -987.000
837.452;  -24.900; -356.000; -170.000
837.703; -165.800; -791.000; -737.000
837.954;  -44.800; -205.000; -365.000
838.205; -151.400;-1029.000;-1008.000
838.456;  266.700; -196.000; -282.000
838.707;   39.700; -423.000; -519.000
838.958;   21.400; -634.000; -647.000
839.209;  459.600;   18.000;   40.000
839.460;  204.500; -439.000; -201.000
839.710;  310.900; -135.000; -297.000
839.961;  752.600;  730.000;  612.000
840.212;  590.600; -382.000; -497.000
840.462; 2063.800; -328.000; -277.000
840.713;30440.200; -571.000; -536.000
840.964; 9298.200;  -62.000; -143.000
841.214;  778.100; -384.000; -624.000
841.465;  961.700; -214.000; -141.000
841.715;  771.800; -417.000; -380.000
841.966; 1052.100; -746.000; -685.000
842.216;17358.300; -330.000; -431.000
842.466;50480.900; -169.000; -313.000
842.717; 1973.100; -964.000; -952.000
842.967;  526.300; -635.000; -641.000
843.217;  471.000;   20.000;   28.000
843.468;  190.700; -104.000; -132.000
843.718;  -56.900; -718.000; -726.000
843.968; -144.500; -837.000; -765.000
844.218;   48.700; -315.000; -262.000
844.469;  -62.800; -577.000; -561.000
844.719; -149.700; -537.000; -682.000
844.969; -138.000; -550.000; -580.000
845.219; -215.700; -814.000; -862.000
845.469;  -64.000; -392.000; -342.000
845.719; -208.500; -792.000; -884.000
845.969;   32.500;  119.000;  174.000
846.219; -163.000; -738.000; -720.000
846.469;  100.600;  464.000;  432.000
846.718;  -28.500; -115.000;   31.000
846.968; -188.700; -827.000; -827.000
847.218;   -4.200; -224.000; -371.000
847.468; -145.200; -586.000; -555.000
847.718; -229.400; -827.000; -798.000
847.967; -203.300; -826.000; -915.000
848.217; -106.000; -449.000; -569.000
848.467;  -44.200; -405.000; -376.000
848.716; -137.900; -708.000; -725.000
848.966;   18.400; -372.000; -358.000
849.215;  -93.000; -428.000; -419.000
849.465; -164.500; -785.000; -615.000
849.714; -249.600;-1132.000;-1150.000
849.964;  -64.100; -551.000; -613.000
850.213;   13.800; -393.000; -355.000
850.463;  220.900;  137.000;  340.000
850.712;   17.500; -542.000; -567.000
850.961;    7.700; -739.000; -678.000
851.211;  165.100; -513.000; -504.000
851.460;  258.800; -635.000; -650.000
851.709; 1002.000;  -25.000;   18.000
851.958;18851.300; -912.000; -750.000
852.208;17767.400; -859.000; -879.000
852.457;  713.700; -181.000;  -13.000
852.706;  144.800; -791.000; -823.000
852.955;   20.300; -507.000; -528.000
853.204;  -80.700; -521.000; -461.000
853.453; -118.300; -418.000; -458.000
853.702; -181.800; -660.000; -750.000
853.951; -114.400; -532.000; -520.000
854.200; -136.800; -613.000; -562.000
854.449; -208.400; -695.000; -661.000
854.698; -126.400; -340.000; -279.000
854.946; -100.000; -181.000; -284.000
855.195; -246.000; -843.000; -868.000
855.444; -113.700; -395.000; -420.000
855.693; -155.900; -345.000; -432.000
855.941; -119.900; -387.000; -516.000
856.190;  -69.000; -256.000; -382.000
856.439; -204.700; -652.000; -703.000
856.687;  -33.800;  -99.000;  -72.000
856.936; -147.300; -621.000; -323.000
857.184; -292.500;-1067.000;-1020.000
857.433; -118.400; -423.000; -512.000
857.681; -275.000; -989.000; -953.000
857.930;  -86.500; -282.000; -433.000
858.178; -263.500; -856.000; -929.000
858.427; -247.300; -802.000; -781.000
858.675; -175.400; -377.000; -544.000
858.923; -169.300; -527.000; -819.000
859.172; -306.300;-1094.000;-1070.000
859.420;  -95.900; -339.000; -239.000
859.668; -218.900; -624.000; -628.000
859.916;   34.600;  109.000;  115.000
860.164; -167.000; -699.000; -603.000
860.413;  419.400; -878.000; -696.000
860.661;  212.600; -709.000; -577.000
860.909; -118.500; -339.000; -325.000
861.157; -105.100; -277.000; -444.000
861.405; -192.300; -534.000; -670.000
861.653;   93.700;  310.000;  310.000
861.901;  263.800; -543.000; -613.000
862.149;  -88.700; -801.000; -824.000
862.396;  -92.500; -297.000; -187.000
862.644; -112.800; -368.000; -347.000
862.892;   -3.600;   98.000;  138.000
863.140; -143.300; -549.000; -530.000
863.388; -258.000; -815.000; -759.000
863.635; -206.900; -642.000; -601.000
863.883;   12.100;  231.000;  190.000
864.131; -119.300; -288.000; -357.000
864.378; -199.000; -675.000; -540.000
864.626; -133.000; -347.000; -415.000
864.873; -179.100; -556.000; -505.000
865.121; -205.200; -714.000; -799.000
865.368;   -5.100; -173.000;   75.000
865.616;   10.300;  -33.000;  -40.000
865.863;  -96.700; -462.000; -506.000
866.111; -174.000; -795.000; -824.000
866.358;  131.700; -426.000; -420.000
866.605; 4760.300;  -64.000; -804.000
866.853; 3528.500; -621.000; -537.000
867.100;  -86.400; -728.000; -775.000
867.347; -132.500; -672.000; -611.000
867.594; -109.200; -740.000; -714.000
867.841;  165.400;   97.000;   17.000
868.089; -234.600; -746.000; -698.000
868.336; -160.500; -477.000; -420.000
868.583; -193.600; -637.000; -741.000
868.830;  -25.800; -131.000; -170.000
869.077; -256.300; -859.000; -787.000
869.324; -172.200; -502.000; -458.000
869.571; -203.500; -398.000; -430.000
869.818; -159.700; -485.000; -439.000
870.065; -151.100; -439.000; -513.000
870.311; -169.200; -456.000; -542.000
870.558; -148.600; -332.000; -311.000
870.805;  -82.100; -320.000; -384.000
871.052; -148.400; -494.000; -369.000
871.298;  -44.300; -204.000; -131.000
871.545;  -30.700; -151.000; -185.000
871.792;  -87.800; -173.000; -222.000
872.038;  -50.200;   43.000; -126.000
872.285; -181.300; -496.000; -387.000
872.532; -144.300; -357.000; -387.000
872.778;  103.000;  556.000;  403.000
873.025; -119.900; -384.000; -359.000
873.271;  128.000;  501.000;  578.000
873.517;   14.300; -133.000; -209.000
873.764;  -39.300; -193.000;  -80.000
874.010;  -82.600; -143.000; -230.000
874.257;  -13.400;  123.000;   90.000
874.503; -182.800; -579.000; -479.000
874.749;  -77.800;   31.000;  275.000
874.995;  -59.300;  -80.000;  -20.000
875.242; -207.000; -540.000; -478.000
875.488; -135.500; -414.000; -439.000
875.734;  -28.300; -106.000; -234.000
875.980;  300.500; -872.000;-1032.000
876.226;  491.000; -157.000; -255.000
876.472;   39.800;  343.000;  237.000
876.718;  -18.500;  184.000;  158.000
876.964;  -24.600;   56.000;   55.000
877.210; -218.400; -547.000; -677.000
877.456; -204.700; -630.000; -557.000
877.702; -292.400; -821.000; -832.000
877.948; -162.700; -377.000; -497.000
878.193;  114.400;  361.000;  255.000
878.439; -141.600; -487.000; -472.000
878.685; -122.900; -272.000; -343.000
878.931; -215.900; -618.000; -676.000
879.176;  -90.400; -201.000; -201.000
879.422; -268.400; -933.000; -820.000
879.668;  144.700;   10.000;   79.000
879.913;  253.700;   53.000;  137.000
880.159;  -66.000; -112.000;  -17.000
880.404;  -54.900; -152.000; -162.000
880.650;  -37.600;   91.000;  141.000
880.895; -274.500; -670.000; -710.000
881.141; -169.600; -454.000; -428.000
881.386; -209.500; -503.000; -658.000
881.631; -137.900; -311.000; -166.000
881.877;  -25.300;  112.000;  -13.000
882.122; -191.200; -684.000; -600.000
882.367; -104.400; -136.000; -186.000
882.612;  -88.800;  -80.000; -176.000
882.858; -304.000; -877.000; -823.000
883.103; -138.800; -297.000; -267.000
883.348; -249.500; -759.000; -852.000
883.593; -223.100; -677.000; -602.000
883.838;  -53.800; -311.000;  -24.000
884.083;  108.200;  353.000;  288.000
884.328;  -95.500; -564.000; -545.000
884.573;  -42.800; -196.000; -143.000
884.818;  391.300; -694.000; -531.000
885.063;  211.600; -348.000; -315.000
885.308; -137.100; -475.000; -398.000
885.553;   69.000;  245.000;  325.000
885.797; -169.800; -545.000; -615.000
886.042;  -24.500;    8.000;   58.000
886.287; -114.300; -253.000; -211.000
886.532;  -23.700;   26.000;  204.000
886.776; -124.300; -407.000; -525.000
887.021; -217.800; -621.000; -574.000
887.265; -244.700; -685.000; -689.000
887.510; -208.100; -557.000; -496.000
887.755;  -90.300; -194.000; -164.000
887.999; -215.100; -552.000; -575.000
888.244;  -46.800;  -58.000;  161.000
888.488;   91.000;  371.000;  393.000
888.732; -189.300; -368.000; -520.000
888.977; -191.300; -622.000; -567.000
889.221; -243.800; -683.000; -659.000
889.465; -182.500; -422.000; -566.000
889.710;  -75.200;  -56.000; -299.000
889.954;  100.200;  579.000;  467.000
890.198; -204.500; -584.000; -707.000
890.442; -265.100; -716.000; -712.000
890.687; -255.100; -800.000; -753.000
890.931; -127.900; -273.000; -210.000
891.175; -190.400; -502.000; -500.000
891.419;  -76.200; -105.000; -110.000
891.663;  -81.700; -239.000; -112.000
891.907; -268.500; -801.000; -545.000
892.151; -293.000; -920.000; -815.000
892.395; -164.900; -274.000; -387.000
892.638;   58.400;  408.000;  291.000
892.882; -292.400; -780.000; -867.000
893.126;  120.700;  758.000;  558.000
893.370;  -99.200; -167.000; -168.000
893.614; -232.100; -714.000; -715.000
893.857; -119.900; -183.000; -197.000
894.101; -208.600; -527.000; -631.000
894.345;  -39.500;  300.000;  150.000
894.588;  129.800;  569.000;  380.000
894.832; -103.400; -178.000;  -84.000
895.075;  -59.300;   15.000;  -92.000
895.319; -174.600; -552.000; -420.000
895.563; -148.400; -413.000; -353.000
895.806; -233.500; -628.000; -741.000
896.049;  -82.500; -576.000; -368.000
896.293;  226.400;  527.000;  405.000
896.536; -107.100; -465.000; -468.000
896.779;  -59.100; -149.000;   -1.000
897.023; -217.600; -751.000; -714.000
897.266;   24.500;  325.000;  269.000
897.509; -292.800; -900.000; -901.000
897.752;  -24.000;  149.000;  171.000
897.996; -290.900; -972.000; -864.000
898.239;  -32.800;  168.000;  102.000
898.482; -152.600; -431.000; -453.000
898.725;  -26.200;  101.000;   53.000
898.968; -239.500; -609.000; -744.000
899.211; -127.600; -513.000; -361.000
899.454; -184.200; -633.000; -539.000
899.697;  -71.400;   90.000;  -43.000
899.940; -251.500; -761.000; -757.000
900.182; -119.600; -335.000; -405.000
900.425;  -99.800; -150.000; -298.000
900.668;    3.800;  491.000;  350.000
900.911; -150.800; -292.000; -345.000
901.154;  -31.200;  141.000;   -3.000
901.396; -196.300; -407.000; -412.000
901.639; -191.000; -430.000; -496.000
901.882; -290.000; -790.000; -809.000
902.124;  -82.200;  -29.000; -143.000
902.367; -166.000; -315.000; -361.000
902.609; -203.400; -476.000; -453.000
902.852;  -88.300; -108.000; -260.000
903.094; -162.400; -458.000; -337.000
903.337;  -22.800;  -26.000;   53.000
903.579; -167.600; -228.000; -441.000
903.821; -252.200; -597.000; -744.000
904.064;  -37.900;   85.000;  127.000
904.306;  -82.500; -126.000; -166.000
904.548; -125.200; -152.000; -366.000
904.790; -143.400; -195.000; -340.000
905.033; -182.700; -625.000; -577.000
905.275; -199.900; -513.000; -524.000
905.517;  151.600;  468.000;  256.000
905.759; -124.800; -667.000; -761.000
906.001; -169.700; -322.000; -369.000
906.243;  -77.800; -162.000; -224.000
906.485;  230.800; -265.000; -207.000
906.727;  113.300; -499.000; -542.000
906.969;  -14.800;  -30.000; -135.000
907.211;  261.800; -316.000; -382.000
907.453;  409.700; -188.000; -237.000
907.695;   11.000; -158.000; -385.000
907.936;  161.000;  818.000;  706.000
908.178;  -51.300;   92.000; -135.000
908.420;  -73.600; -111.000; -162.000
908.662; -213.800; -633.000; -682.000
908.903; -109.900; -208.000; -123.000
909.145;  -67.800; -240.000; -305.000
909.386;   88.300;  315.000;  280.000
909.628;  175.500;  363.000;  397.000
909.870;   77.000;   29.000;  264.000
910.111; -121.300; -809.000; -949.000
910.353;   88.400; -123.000; -161.000
910.594;   40.500; -574.000; -606.000
910.835;  166.600; -265.000; -326.000
911.077;  304.900; -503.000; -604.000
911.318;  576.400; -505.000; -471.000
911.559;  859.200; -577.000; -880.000
911.801; 2721.400; -284.000; -280.000
912.042;23280.600;  -50.000; -159.000
912.283;48825.200;  404.000;  371.000
912.524; 5793.600; -396.000; -457.000
912.765;  917.800; -193.000;   79.000
913.006;  506.800; -307.000; -338.000
913.247;  134.800; -270.000; -290.000
913.488;   68.200;  -43.000;   30.000
913.729;  -90.600; -373.000; -373.000
913.970;  -61.400;  -96.000; -292.000
914.211;  -74.400; -160.000; -198.000
914.452;  -62.000; -118.000;  -11.000
914.693;   83.100;  510.000;  592.000
914.934;  124.200;  510.000;  440.000
915.175;  -70.400;   53.000;  -95.000
915.415;  -83.400; -137.000;   27.000
915.656;  -71.500;  -28.000;  192.000
915.897;  -97.300; -252.000;  -82.000
916.137;  -77.500;   74.000;   -9.000
916.378; -215.300; -573.000; -517.000
916.619; -103.700; -159.000;  -63.000
916.859;   15.400;  303.000;  330.000
917.100;  369.700; 1655.000; 1070.000
917.340;  161.800;  930.000;  728.000
917.581;  143.800;  965.000;  789.000
917.821;  -18.600; -171.000;  143.000
918.061;   13.400; -199.000;  -72.000
918.302;  -41.800; -152.000; -211.000
918.542;  -19.200;  -22.000;    3.000
918.782;  125.400;  369.000;  377.000
919.023;  286.400;  360.000;  427.000
919.263; 2673.000; 8131.000;  202.000
919.503; 1670.200; -137.000;  -54.000
919.743; 1050.000;  390.000;  266.000
919.983;  417.300; -134.000;  -26.000
920.223;  177.200;  135.000;   14.000
920.463;  303.600;  631.000;  554.000
920.703;  297.900;   84.000;   39.000
920.943;  303.500; -110.000;   90.000
921.183;  416.700; -414.000; -405.000
921.423;  939.900;  307.000;  546.000
921.663; 1282.800; -174.000; -257.000
921.903; 2988.200;  237.000;  173.000
922.143;17870.500;  372.000;  389.000
922.383;60300.800;  158.000;  115.000
922.622;15755.300; -120.000;  -15.000
922.862; 2002.600;  796.000;  785.000
923.102;  806.900;  -51.000;   33.000
923.341;  343.200;   59.000;   74.000
923.581;  183.000;  450.000;  360.000
923.821;  126.400;  301.000;  398.000
924.060;   88.800;  351.000;  193.000
924.300;  -55.800;  -16.000; -128.000
924.539;   55.800;  584.000;  473.000
924.779;  101.200;  812.000;  597.000
925.018;   18.400;  247.000;  353.000
925.257;   84.900;  595.000;  666.000
925.497;   20.800;  447.000;  412.000
925.736;  -79.600;  -35.000;  102.000
925.975;  130.200;  687.000;  669.000
926.214;  132.500;  907.000;  850.000
926.454;   99.300;  706.000;  757.000
926.693;    7.400;  419.000;  543.000
926.932;  171.100; 1021.000;  825.000
927.171;  231.900; 1107.000; 1044.000
927.410;  207.400; 1144.000;  967.000
927.649;  161.400;  924.000;  742.000
927.888;   73.700;  590.000;  564.000
928.127;   57.700;  680.000;  678.000
928.366;  120.700;  842.000;  826.000
928.605;  173.700;  831.000;  737.000
928.844;  564.400; 1451.000; 1393.000
929.083; 1080.300;  770.000;  613.000
929.321;  571.200; 1335.000; 1359.000
929.560;  255.200; 1158.000; 1122.000
929.799;   63.400;  574.000;  475.000
930.038;  262.200; 1025.000; 1394.000
930.276;  -16.200;  334.000;  397.000
930.515;   97.500;  827.000;  681.000
930.753;   74.200;  614.000;  589.000
930.992;   50.600;  664.000;  717.000
931.230;   98.900;  847.000;  847.000
931.469;  419.500; 2162.000;  892.000
931.707;  235.900;  840.000;  751.000
931.946;  219.600; 1278.000; 1344.000
932.184;  251.200; 1437.000; 1175.000
932.423;  170.200; 1265.000;  963.000
932.661;  286.800; 1296.000; 1428.000
932.899;  106.700;  987.000;  821.000
933.137;   77.800;  754.000;  564.000
933.376;  340.700; 1664.000; 1335.000
933.614;  390.300; 1759.000; 1196.000
933.852;  187.000; 1357.000; 1171.000
934.090;  373.700; 1722.000; 1747.000
934.328;  299.600; 1252.000; 1457.000
934.566;  258.700; 1431.000; 1110.000
934.804;  372.000; 1263.000; 1309.000
935.042; 1010.700; 1861.000; 1850.000
935.280; 3946.600; 2088.000; 2063.000
935.518; 3015.600; 2113.000; 2007.000
935.756;  720.500; 2481.000; 2316.000
935.994;  403.200; 1808.000; 1751.000
936.231;  756.800; 2890.000; 2950.000
936.469;  457.200; 2367.000; 2378.000
936.707;  441.900; 2220.000; 2167.000
936.945;  533.500; 2825.000; 2882.000
937.182;  490.300; 2679.000; 2741.000
937.420;  719.500; 3602.000; 3031.000
937.657;  927.300; 3365.000; 3478.000
937.895;  750.400; 3331.000; 3488.000
938.133;  721.700; 3540.000; 3528.000
938.370;  781.800; 3896.000; 4191.000
938.607;  902.300; 4488.000; 4205.000
938.845; 1216.200; 5587.000; 5549.000
939.082; 1073.200; 5387.000; 5177.000
939.320; 1241.000; 5799.000; 5728.000
939.557; 1401.300; 6549.000; 6491.000
939.794; 1578.900; 7285.000; 7097.000
940.031; 1963.900; 8421.000; 8368.000
940.269; 2297.300; 9552.000; 9107.000
940.506; 2323.700;10901.000;10507.000

