
Integration time [ms]: 100.000
Averaging Nr. [scans]: 40
Smoothing Nr. [pixels]: 0
Data measured with spectrometer [name]: 2101013U2
Wave   ;Sample   ;Dark     ;Reference
[nm]   ;[counts] ;[counts] ;[counts] 

394.013;   54.783; -450.257; -315.536
394.305;  224.331; -461.258; -419.536
394.596; 1176.475; -676.269; -527.514
394.887; 2839.717; -796.268; -654.518
395.178; 1091.299;  145.736;   11.476
395.470;   88.910; -210.263; -356.526
395.761;  203.707;  305.734;  394.479
396.052;  344.246; -545.284; -306.489
396.343;  355.243; -557.276; -454.503
396.634;  102.811; -200.279; -290.497
396.926;  108.339; -618.268; -565.517
397.217;  108.423;   11.725;  -17.504
397.508;   41.064; -366.273; -154.507
397.799;   55.511; -555.279; -571.497
398.090;   10.505; -973.280; -902.495
398.381;  128.244;   11.708;  -11.473
398.672;   -1.580; -585.292; -742.473
398.963;   50.317; -348.279; -373.498
399.254;  123.030;   54.709; -209.475
399.545;  -18.921;-1017.266; -883.520
399.836;   60.657; -407.277; -343.501
400.127;   50.570; -205.295; -209.468
400.418;   62.958; -423.274; -392.506
400.709;   68.192; -359.281; -333.493
401.000;   42.034; -268.291; -309.476
401.290;   97.630;  225.698;  115.545
401.581;   62.629; -166.286; -228.485
401.872;   18.866; -542.298; -486.462
402.163;   53.337; -313.296; -252.467
402.454;   88.930; -123.291; -163.475
402.744;   77.003; -844.297; -813.465
403.035;  440.660; -226.293;  -86.471
403.326;  556.498; -366.292; -384.474
403.617;  375.860;  204.701;  165.539
403.907;  255.577; -593.283; -679.490
404.198; 2493.782; -545.307; -599.446
404.489; 6591.907; -618.283; -588.491
404.779; 2097.108; -618.302; -660.456
405.070;  231.611;  -67.304; -174.451
405.360;  344.537; -259.293; -238.472
405.651;  361.445;  125.699;   98.542
405.942;  183.174;  209.714;  127.516
406.232;  258.389; -432.285; -413.487
406.523;  465.155;  641.706;  758.530
406.813;   98.151; -579.286; -644.484
407.104;  334.618;  261.708;  144.527
407.394;  175.312; -604.299; -591.462
407.685;  141.138;  336.715;  222.513
407.975;   66.406; -400.283; -382.490
408.265;  108.620; -134.289; -190.478
408.556;   65.552; -472.291; -459.475
408.846;  156.481;  474.706;  429.530
409.137;   92.654;   -1.288; -216.480
409.427;   50.763; -193.285; -271.487
409.717;   53.142; -776.273; -692.508
410.007;  140.932;    4.715; -170.486
410.298;   93.148; -360.295; -342.469
410.588;   68.336; -495.285; -510.486
410.878;   37.190; -792.287; -873.482
411.168;  123.694; -481.298; -478.463
411.459;  126.125; -295.283; -242.489
411.749;   51.726; -609.292; -507.474
412.039;   61.502; -755.289; -386.480
412.329;  214.775;   40.722;  132.501
412.619;  197.976;  -62.286; -148.485
412.909;  347.373;  639.711;  594.521
413.199;  329.030; -130.280; -251.495
413.490;  399.513;  521.710;  352.523
413.780;  153.360;-1013.279; -913.496
414.070;  342.419;  -46.276;  235.497
414.360;  386.921; -729.278; -666.498
414.650;  441.311; -726.288; -688.482
414.940;  556.984; -538.280; -441.496
415.230;  958.458;   50.712;   74.519
415.520; 6306.374;  155.730;   66.486
415.809;25129.491; -305.281; -125.493
416.099;19132.909; -388.277; -229.501
416.389; 5404.206;  435.726;  236.494
416.679; 3183.489;   91.738;   85.473
416.969;  541.745; -527.287; -503.483
417.259;  477.686;  341.721;  171.503
417.549;  717.215;  522.718;  318.508
417.838; 1714.592; -205.268; -147.518
418.128; 5742.844;  650.710;  492.522
418.418; 4798.149; -491.272; -579.509
418.708; 3181.856;    9.726;  -48.506
418.997;12206.302; -474.275; -480.505
419.287;12546.038; -733.273; -790.507
419.577;11984.800; -160.283; -123.489
419.866;39919.757; -588.277; -498.501
420.156;40552.195; -242.270;  -55.513
420.446; 7081.056; -112.263;  -26.526
420.735;  876.239; -376.271; -446.512
421.025;  820.195; 1830.722;  315.502
421.314;  659.337; -203.271; -226.512
421.604; 1341.284;   89.732;  233.484
421.893;  806.383; -705.271; -602.511
422.183;  235.631; -487.263; -461.526
422.472;  393.585;  -36.271; -107.511
422.762;  472.810; -416.266; -379.521
423.051;  260.220; -916.276; -916.503
423.341;  335.590; -491.273; -439.507
423.630;  408.916; -121.265;   15.477
423.919;  391.751;   58.725;   49.495
424.209;  392.687;  -31.263;   56.473
424.498;  522.264;   68.732;  161.483
424.787; 1117.321; -535.267; -601.518
425.077; 3472.015;   34.735;   29.478
425.366; 4841.743; -734.262; -744.528
425.655;10250.216;  639.727;  259.493
425.945;22889.675; -313.247; -268.554
426.234;12483.416;  117.741;  300.467
426.523; 5277.871;  -86.259; -350.534
426.812; 7160.706;  107.734;  159.480
427.101;10712.680; -127.269; -323.515
427.390;13331.874;  -55.270;  -86.514
427.680; 2872.316; -624.257; -411.538
427.969;  479.303; -330.255; -301.540
428.258;  324.233; -385.257; -477.536
428.547;  540.603;  449.728;  397.490
428.836; 1239.869; -421.253; -398.543
429.125; 1778.773; -199.259;  -72.534
429.414;  815.517; -330.251; -294.548
429.703; 3243.542; -231.251; -213.548
429.992; 9805.671; -938.250; -828.549
430.281; 6296.824; -397.264; -331.524
430.570;  576.858;  -21.252;   32.454
430.859;  570.271;  279.741;  352.466
431.148;  438.296;  636.752;  631.446
431.437;  290.057;  391.748;  367.454
431.725;  152.834; -544.257; -481.536
432.014;  137.102; -845.253; -756.545
432.303;  404.573; -149.239; -105.569
432.592;  593.806; -460.263; -178.525
432.881; 1076.822; -601.248; -437.554
433.169; 6499.578; -343.255;  -61.540
433.458;13198.608;  445.765;  540.424
433.747; 5373.673; -397.261; -289.529
434.036;  899.524; -275.242; -280.564
434.324; 2170.034; -395.249; -379.551
434.613; 3774.542;   40.757;  159.437
434.902; 1198.688;  333.760;  439.433
435.190;  529.572;   75.761;  295.431
435.479;  302.123;  -52.245;   83.441
435.767;   99.707; -411.244; -427.561
436.056;  229.644; -340.242; -294.563
436.345;  386.591; -372.240; -223.568
436.633;  392.204;   60.750;  383.450
436.922;  254.543;  208.760;  414.432
437.210;  544.723; -194.236;    1.426
437.499; 1742.181; -583.235; -432.576
437.787; 1932.898; -339.236;  -10.574
438.075;  496.878;   56.761;  162.430
438.364;  692.681;  -44.238;  250.429
438.652;  418.538; -286.226; -138.592
438.941;  128.676;    3.770;  269.415
439.229;   21.280; -665.252; -466.545
439.517;   39.265; -160.234;  -85.577
439.806;    0.954; -501.225; -290.595
440.094;  166.448;  377.766;  650.421
440.382;  187.252; -653.233; -302.580
440.670;  198.056; -361.235; -285.576
440.959;   40.322; -347.223; -170.599
441.247;   60.563; -151.229; -109.587
441.535;   87.013; -266.235;   31.423
441.823;   28.970; -497.234; -305.578
442.111;  176.517;  173.771;  327.412
442.400;  492.773; -628.245; -335.559
442.688; 1289.997; -111.234; -620.579
442.976;  920.462; -786.213; -450.617
443.264;  101.436; -324.224; -364.597
443.552;   91.439; -258.226;   51.408
443.840;  152.112;  602.765;  876.423
444.128;   95.651;  265.767;  269.420
444.416;   -0.055; -694.228; -312.588
444.704;   31.078; -465.219;  -92.605
444.992;   69.142;   -0.226;  240.407
445.280;   60.927; -517.230;  -94.585
445.568;   44.741; -694.212; -396.618
445.856;  328.836; -174.221;  357.398
446.143;  725.024;  -54.220;   -7.604
446.431;  594.424;  -25.228;  625.411
446.719;  233.497;  489.783;  675.391
447.007;  186.346;  481.769;  705.416
447.295;  176.144;  597.777;  871.402
447.583;   83.136; -464.229;  -34.587
447.870;  162.383; -434.221; -202.601
448.158;  405.301; -104.230;  129.415
448.446;  301.100; -800.219; -338.604
448.733;  174.913;   13.776;  269.403
449.021;  239.590;   60.788;  341.382
449.309;  174.331; -296.210;  208.379
449.596;  233.343;  128.783;   59.392
449.884;  159.301; -571.222; -325.600
450.172;  167.629; -756.227; -406.590
450.459;  433.795;  645.786;  780.387
450.747; 2506.692; -411.218; -147.608
451.034; 8019.650;  493.772;  889.411
451.322; 6577.073; -413.214; -170.614
451.609;  543.914;  292.777;  508.403
451.897;  637.946; -550.203; -183.634
452.184; 1893.519; -622.223; -400.598
452.472; 1758.853;   97.792;  269.375
452.759;  335.125;  512.781;  864.395
453.047;  129.388; -407.212; -125.617
453.334;   66.983; -732.219; -216.606
453.621;   70.126; -438.214; -161.615
453.909;  119.687;   13.796;  384.368
454.196;   92.784; -299.199; -123.641
454.483;  201.684;  317.798;  540.364
454.771;  108.581; -215.208;  196.374
455.058;   34.809; -316.207;  102.374
455.345;  105.815;   71.807;  344.347
455.632;   88.413; -128.207;  235.373
455.919;   44.232;  -82.196;  182.354
456.207;  -59.062; -774.198; -450.642
456.494;  -12.029; -475.200;  -66.639
456.781;    9.679; -399.202; -198.635
457.068;   63.419; -253.206;  -29.628
457.355;   -2.855; -698.206; -401.629
457.642;    0.701; -552.205; -290.630
457.929;   -6.444; -778.194; -417.651
458.216;   65.788; -575.212; -354.617
458.503;  234.161; -173.193;  -19.652
458.790;  240.104; -864.208; -630.625
459.077;  273.184;  -77.202;  110.364
459.364;  853.899; -350.195; -210.649
459.651; 1755.442;  -46.206;  220.372
459.938;  806.644; -864.209; -665.623
460.225;  142.638;  132.799;  276.363
460.512;  -34.871; -836.197; -688.645
460.799;   96.416;  -32.218;  320.392
461.086;   81.751; -370.200; -251.640
461.372;   41.939; -509.198; -279.642
461.659;  112.358; -165.196;  108.354
461.946;   58.410; -445.193;  -54.651
462.233;  246.248;  842.800;  888.361
462.519;  360.395; -814.201; -464.639
462.806; 1078.405; -768.197; -497.645
463.093;  890.556; -445.191;  -66.656
463.380;  -22.952; -920.186; -824.664
463.666;   46.081; -259.197;  -18.646
463.953;   97.869; -406.195; -243.648
464.239;  201.144; -173.195;  -77.648
464.526;  391.680;  413.806;  743.350
464.813;  342.418; -565.190; -304.658
465.099;  353.611;  606.807;  607.348
465.386;  319.590;  903.807;  921.348
465.672;   17.255; -694.197; -522.645
465.959;   13.411; -598.188; -520.662
466.245;   16.465; -468.193; -359.652
466.532;   82.616; -109.195;   63.352
466.818;   65.298; -357.186; -216.664
467.104;  -11.211; -488.182; -415.672
467.391;  -31.730; -628.189; -459.658
467.677;   29.877; -289.186;    9.335
467.964;    2.876; -682.189; -471.660
468.250;   46.604; -331.186; -160.665
468.536;   75.396;   90.811;  180.341
468.822;  -38.159; -821.184; -574.668
469.109;  133.497;  351.827;  471.311
469.395;  184.175;  729.808;  787.346
469.681;  188.799;   46.811;  156.341
469.967; 1279.854; -699.188; -382.660
470.254; 2861.237; -494.188; -306.662
470.540; 1771.732; -601.196; -476.646
470.826;  259.925; -488.181; -397.675
471.112;  305.870;  288.816;  113.331
471.398;   91.825; -253.183;  -58.670
471.684;   30.879; -626.177; -447.680
471.970;    3.204; -918.180; -981.675
472.256;   36.599; -521.192; -441.654
472.542;    7.358; -499.171; -434.691
472.828;    4.735; -743.182; -607.672
473.114;   30.553; -380.166; -283.700
473.400;   -6.279; -504.175; -293.684
473.686;   33.634; -452.166; -400.701
473.972;   53.636; -230.174; -131.687
474.258;  -35.178; -925.173; -843.689
474.544;  197.771; -183.178;   -2.679
474.830;  324.598;  -65.175;   45.316
475.116;  509.244; -123.190; -196.658
475.401;  687.232; -558.180; -467.676
475.687;  193.506; -725.180; -718.676
475.973;    5.043; -673.181; -770.673
476.259;  227.400;  736.825;  764.315
476.544;  368.463; -539.176; -437.682
476.830;  870.629; -398.172; -322.690
477.116;  746.886; -430.177; -336.682
477.401;  128.006;  346.820;  358.324
477.687;  -17.828; -289.175; -405.684
477.973;   29.422;   21.819;   28.326
478.258;   -9.545; -448.163; -348.706
478.544;   49.610;   21.815;   61.334
478.829;  -49.736; -818.171; -738.692
479.115;  -42.521; -749.172; -651.690
479.401;   -3.868; -444.174; -449.686
479.686;   19.005; -253.180;  -74.676
479.972;  -25.174; -886.178; -776.680
480.257;   24.079; -258.166;  -65.700
480.542;    2.718; -614.170; -469.693
480.828;  217.495; 1288.824; 1392.317
481.113;  -37.983; -464.176; -426.683
481.399;   -5.045; -236.161; -202.711
481.684;  -52.146; -620.166; -462.700
481.969;   11.893; -158.159;  -73.713
482.255;    0.029; -439.169; -285.695
482.540;   -0.448; -569.178; -441.680
482.825;   16.218; -395.187; -404.663
483.110;   94.507;  -85.169; -105.696
483.396;  210.565; -840.157; -652.718
483.681;  493.337;  543.826;  730.313
483.966;  153.312; -696.160; -700.712
484.251;  -16.565; -404.174; -310.687
484.536;    5.140; -356.165; -378.703
484.822;   11.389; -205.173; -218.687
485.107;  -37.345; -599.152; -502.726
485.392;  121.195;  662.836;  541.296
485.677;   70.892;  354.832;  163.302
485.962;   97.438;  160.843;  270.283
486.247;   88.613;  -14.162;   -8.707
486.532;   51.905; -178.166; -325.701
486.817;  156.449;  381.839;  431.291
487.102;  113.987; -453.154; -514.722
487.387;  706.442; -637.156; -652.718
487.672; 1223.301; -154.164;  -38.705
487.957;  761.006; -394.160; -286.711
488.241;  220.797; -290.150; -314.729
488.526;  777.706; -280.152; -148.726
488.811; 1264.878; -881.177; -818.680
489.096;  930.165; -666.154; -702.723
489.381;  522.227;    3.847;  162.275
489.666;  399.354; -428.161; -510.710
489.950;  166.843;  558.846;  627.277
490.235;  -31.708; -480.151; -458.728
490.520;  -52.997; -756.161; -723.710
490.804;  -49.106; -827.156; -736.719
491.089;   14.938; -469.149; -299.732
491.374;   36.074; -132.164;  -75.704
491.658;   -6.100; -817.147; -717.735
491.943;  160.810; -657.152; -609.727
492.227;  261.108; -178.155;  -38.721
492.512;   55.212; -294.157; -341.717
492.797;  -63.518; -713.149; -716.731
493.081;  -51.548; -588.147; -598.735
493.366;  -45.420; -751.161; -635.711
493.650;  201.457;  831.859;  917.254
493.935;   37.574; -648.147; -447.734
494.219;  -45.081; -778.142; -687.743
494.503;  -44.124; -585.150; -487.730
494.788;   51.954;   46.842;   74.285
495.072;   99.548;  184.850;  434.271
495.356;  177.791; -463.148; -343.733
495.641;  465.984; -812.146; -736.736
495.925;  451.949; -976.156; -903.719
496.209;   27.262; -599.149; -451.732
496.494;  -48.856; -763.142; -544.744
496.778;    6.737; -364.154; -360.722
497.062;  -50.001; -819.156; -627.719
497.346;  -35.342; -869.160; -640.711
497.631;  150.695;  580.852;  560.266
497.915;   66.695;  -64.145;  175.261
498.199;   36.465; -341.157; -277.718
498.483;   44.554; -562.152; -508.725
498.767;  194.424;  301.850;  300.271
499.051;  184.735; -126.149; -100.732
499.335;   19.258; -693.149; -739.731
499.619;  -37.789; -381.129; -423.767
499.903;   21.232; -272.155;  -65.721
500.187;   16.170; -588.153; -316.724
500.471;   42.835; -796.152; -595.727
500.755;   99.679;   62.839;  -96.710
501.039;   27.107; -270.155; -357.721
501.323;   83.359;  -21.141;  264.254
501.607;   21.956; -447.163; -503.706
501.891;   -3.858; -607.156; -512.718
502.174;  -23.819; -726.144; -585.741
502.458;   64.189;   89.849;  370.273
502.742;   41.158; -180.138; -191.751
503.026;  118.423; -412.147; -254.734
503.310;  172.692; -437.159; -375.713
503.593;  125.925; -464.147; -325.735
503.877;  130.274; -232.133; -156.760
504.161;  189.947;    2.847;  -50.724
504.444;  128.381; -841.158; -710.716
504.728;  477.048; -487.164; -522.704
505.012;  759.046; -257.150;  -76.729
505.295;  549.430; -417.161; -212.711
505.579;  550.399; -256.156; -496.719
505.862;  789.366; -555.145; -333.738
506.146;  774.795; -681.159; -758.714
506.429;  402.495;  568.841;  461.286
506.713;   63.943; -732.151; -667.728
506.996;  325.237;   90.846;  295.278
507.280;  362.294; -633.165; -474.703
507.563;  258.455; -469.155; -261.721
507.847;  101.945; -423.153; -112.724
508.130;   88.630; -665.161; -456.711
508.413;  121.475; -758.167; -577.700
508.697;  246.850; -151.167;   12.300
508.980;  152.947; -422.153; -312.724
509.263;   -9.199; -466.155; -450.720
509.547;   40.446; -124.150;   82.271
509.830;   35.033; -172.160;  140.289
510.113;   77.299;  128.844;  298.281
510.396;   19.353; -530.152; -300.725
510.680;  141.918; -818.145; -812.738
510.963;  572.991;  184.846;  180.277
511.246;  480.704; -493.150; -357.730
511.529;  255.298; -482.145;  -83.739
511.812;  399.746; -250.134;   10.241
512.095;  299.040; -740.151; -396.728
512.378;   64.104; -317.147; -245.736
512.661;   39.416; -703.137; -623.753
512.944;   30.721; -750.142; -637.744
513.227;   62.038; -170.137; -171.752
513.510;   17.331; -479.144; -671.741
513.793;   32.363; -485.140; -435.747
514.076;  138.532;  -43.127;  -39.771
514.359;   93.788; -294.149; -135.732
514.642;   82.874; -442.142; -567.744
514.925;  770.187;  581.860;  561.253
515.208; 1062.667; -498.134; -443.758
515.491;  677.506; -276.133; -182.761
515.773;  395.635; -410.143; -337.742
516.056; 2192.948;  249.864;  409.246
516.339; 2964.552; -754.136; -652.755
516.622; 1918.401; -518.150; -488.730
516.904; 1198.942;  882.857;  975.257
517.187;  544.912; -730.138; -523.752
517.470;  399.966; -568.143; -510.743
517.752;  456.129; -624.136; -470.756
518.035;  360.649; -708.139; -725.749
518.318;  380.352; -799.136; -744.755
518.600; 2547.560; -300.132; -325.762
518.883; 3574.448;  310.858;   88.256
519.165; 1681.529; -585.138; -426.751
519.448;  380.335;  -61.132;  -19.762
519.730;  196.215; -573.126; -415.773
520.013;  305.452;  588.867;  664.240
520.295;  796.423;  -94.134;  -15.759
520.578; 1796.798; -335.131; -305.764
520.860; 2060.510; -254.132;   56.238
521.143; 1056.832; -763.135; -584.756
521.425;  506.603; -251.125; -279.775
521.707;  698.282; -622.127; -380.771
521.990; 1853.958; -199.127;  167.229
522.272; 2134.565; -116.140;   -4.748
522.554;  945.761; -237.143; -157.742
522.836;  364.395;  -24.134;   99.241
523.119;  213.747; -496.148; -189.734
523.401;  153.780; -448.130; -314.766
523.683;   83.691; -865.137; -693.753
523.965;  273.860;  408.862;  260.248
524.247;  277.375;   54.878;  170.220
524.529;  211.098; -451.134; -367.759
524.812;  362.107;   -3.130;  191.234
525.094;  895.809; -773.138; -631.751
525.376; 1411.162; -143.124;   78.223
525.658;  855.324; -441.136; -339.754
525.940;   23.570; -805.131; -671.764
526.222;   46.927; -188.136;  -88.755
526.504;  124.142; -190.131;   32.237
526.786;  180.850; -960.133; -647.760
527.068;  316.318; -124.123;  -67.778
527.349;  144.220; -865.137; -774.754
527.631;  133.984; -137.132;   22.238
527.913;  133.256; -664.127; -450.771
528.195;  191.696; -761.125; -639.774
528.477;  258.367;  -93.134;  -30.758
528.759;  142.332; -648.130; -522.766
529.040;   71.967; -569.123; -293.778
529.322;   54.848; -235.125;  -10.774
529.604;  131.109;  -47.130;   93.233
529.886;  128.964; -546.126; -302.773
530.167;  104.126;  232.870;  192.235
530.449;   52.629;    1.853;   63.265
530.731;   18.549; -572.122; -459.779
531.012;   77.420; -513.120; -216.784
531.294;   79.110; -118.116;  -43.792
531.575;  141.878;  290.875;  538.225
531.857;   70.387; -548.135; -266.757
532.138;   98.957; -113.141;   40.254
532.420;  162.333;  294.865;  403.244
532.701;  219.053; -722.133; -751.760
532.983;  346.331;  232.867;  182.239
533.264;  117.812; -243.126;  175.228
533.546;  -42.573; -491.136; -508.755
533.827;   38.549;  173.867;   -1.759
534.109;   25.787; -352.135;  -80.757
534.390;  102.514; -725.132; -582.762
534.671;  250.208; -270.135;  -82.756
534.953;  152.319; -751.123; -611.779
535.234;   14.470; -426.117; -255.789
535.515;  -76.196; -891.119; -735.785
535.796;  -17.698; -431.128; -193.770
536.078; -118.263;-1050.124; -904.777
536.359;    5.245;  -22.123;    3.221
536.640;  -19.128; -480.125; -197.774
536.921;  155.665;  225.871;  143.232
537.202;  392.881;  -87.138;  -16.751
537.483;  461.398;  251.869;  377.236
537.764;  184.751;   17.870;   98.235
538.045;  -45.184; -543.134; -371.758
538.326;  -25.459; -596.129; -447.768
538.607;   27.633; -686.127; -476.771
538.888;  163.486;   98.879;    5.218
539.169;  192.030; -704.122; -535.781
539.450;  339.163;  236.871;   16.233
539.731;  215.490; -361.121; -182.783
540.012;  136.020;  199.880;  412.216
540.293;   72.556;   82.876;  158.224
540.574;    7.556; -895.113; -717.796
540.855;  453.663;  435.879;  377.218
541.136;  520.553;   47.878;  139.220
541.416;  276.783; -161.130; -220.766
541.697;  188.493; -274.131; -170.763
541.978; 1080.035; -270.135; -315.757
542.259; 1349.458; -211.127; -236.771
542.539;  649.004; -191.116; -186.790
542.820;  188.752;  461.875;  480.225
543.101;  126.444;  -52.145;  -77.738
543.381;   47.558; -638.127; -591.771
543.662;  271.505;  159.873; -254.771
543.942;  591.078; -751.127; -830.770
544.223; 1094.229;  193.878;  161.219
544.504;  717.787; -275.124; -182.777
544.784;  594.039; -592.126; -408.773
545.065; 1743.282;  104.884; -254.791
545.345; 2029.829;  227.881;   14.215
545.626; 1318.405;  -14.113; -108.796
545.906;  907.150;   77.869;   98.235
546.186;  360.619;   92.874;  -95.773
546.467;  203.364;   99.877;  -95.778
546.747;  336.629;  264.884;  327.210
547.027;  388.710;   91.876;  111.223
547.308;  351.653; -376.127; -530.770
547.588;  404.592;  299.871;  371.232
547.868;  189.376;  458.870;  588.235
548.149;  176.990;  609.885;  593.207
548.429;  139.531; -347.127; -299.771
548.709;  197.620; -645.120; -461.784
548.989;  481.639;   84.882;   88.213
549.269; 2165.833;   10.868;  139.239
549.550; 5102.568;  215.877;  117.222
549.830; 4515.749; -758.111; -556.799
550.110;  889.057; -468.110; -320.801
550.390;  850.249; -128.122;  -56.779
550.670; 1200.551; -868.114; -783.795
550.950;  827.638; -509.121; -471.782
551.230;  195.184;  549.879;  460.218
551.510;   -9.863; -381.121; -326.782
551.790;   38.240; -173.109; -127.803
552.070;  255.414;  940.877; 1181.223
552.350;  416.708; -492.119; -377.786
552.630;  616.982;   -2.121;   77.219
552.909;  345.783;  181.884;   73.209
553.189;  244.715;  -49.132;   33.237
553.469;  200.082; -703.119; -514.786
553.749;  203.609; -469.127; -357.772
554.029;  168.299;   33.883;  -24.790
554.308;  150.169; -154.115;  -37.794
554.588;   63.601; -196.128; -204.770
554.868;   65.989; -366.121;  -47.782
555.147;  158.617; -114.115;  -46.793
555.427;  611.835; -260.116; -250.792
555.707; 4050.614; -284.115; -200.793
555.986; 4993.027; -719.111; -538.800
556.266; 2572.302;   23.884;   72.210
556.546;  124.162; -888.121; -675.782
556.825;  283.174; -657.114; -556.794
557.105; 1865.299; -125.128;   17.230
557.384; 2216.507;  122.884;  187.209
557.664;  838.035; -717.116; -508.792
557.943;  123.538; -557.121; -411.782
558.222;  179.167; -345.118; -344.788
558.502;  268.193; -116.115;  -76.793
558.781;  504.088;  194.885;  499.208
559.061;  423.816; -232.118; -227.788
559.340;  305.096;  302.883;  353.211
559.619;  733.702;   93.884;  148.210
559.899; 1081.298; -239.117; -266.789
560.178;  958.642; -778.115; -593.793
560.457; 3313.475; -623.117; -562.790
560.736; 4657.779; -472.111; -482.800
561.015; 3053.947; -500.128; -502.769
561.295;  393.910;  180.893;  215.193
561.574;  337.615;  119.885;  116.207
561.853;  515.569;  274.891;  303.197
562.132;  517.870;  -45.114;  182.206
562.411;  457.457;  396.879;  553.219
562.690;  138.488; -592.115; -458.792
562.969;  134.088;  472.888;  630.203
563.248;  480.880; 2966.878; 2487.219
563.527;  291.428; -290.111; -408.800
563.806;  391.556; -650.127; -521.771
564.085;  426.550; -297.105; -206.810
564.364;  258.002; -594.117; -405.790
564.643;  527.033; -276.121; -223.781
564.922; 1991.538;  221.890;  397.198
565.201; 2033.241; -640.109; -700.803
565.479;  842.912; -297.115; -219.792
565.758;  348.799; -810.128; -712.770
566.037;  490.068; -155.109; -100.803
566.316;  238.207; -286.116;  -28.791
566.595;   48.415;  -17.115;  -12.793
566.873;  105.455; -166.111;  -79.801
567.152;  -60.813; -490.113; -590.797
567.431;   -4.572; -113.116;    6.210
567.709;   16.135; -344.107; -212.807
567.988;  279.449; -810.114; -769.794
568.266;  525.914; -160.115;  -68.793
568.545;  427.673; -644.100; -514.819
568.824;  594.011;  160.885;  356.208
569.102;  581.598; -351.114; -235.794
569.381;  232.560; -492.116; -407.792
569.659;  -50.242; -553.113; -553.796
569.938;   51.378; -743.122; -465.780
570.216;  122.920; -225.109; -225.804
570.494;  -15.873; -632.114; -572.795
570.773;   40.062;  202.879;  114.218
571.051;   10.792; -373.123; -357.778
571.330;   59.181; -221.113; -174.796
571.608;   34.117; -181.098; -173.823
571.886;  -59.253; -671.111; -581.799
572.164;  -64.986; -739.121; -621.782
572.443;  -45.971; -562.105; -512.811
572.721;  -29.275; -399.117; -289.790
572.999;  -28.581; -280.117; -168.788
573.277;   77.523;  379.894;  620.191
573.555;  284.600;   94.894;   37.190
573.834; 1398.968;  -86.117; -114.788
574.112; 1655.587;  880.893;  811.193
574.390;  487.454; -143.111;  -96.801
574.668;    3.388;  -91.112;  -61.797
574.946;  -17.050; -165.106; -187.810
575.224;   -1.984;   71.891;  -16.803
575.502;  -28.145; -200.116; -204.791
575.780;  -79.660; -767.112; -829.798
576.058;  141.178; 1589.889; 1004.200
576.336;  -19.016; -210.110; -129.801
576.614;  -62.760; -511.112; -340.798
576.891;   51.419; -711.115; -823.794
577.169;  493.353; -158.108; -285.805
577.447;  578.162;  169.893;  202.193
577.725;  253.919;  629.888;  854.201
578.003;   31.667;  -71.112; -371.798
578.280;  100.988; -208.104; -242.812
578.558;   76.368; -450.115; -422.793
578.836;  132.176; -210.114; -145.795
579.114;   45.988; -630.112; -670.797
579.391;   50.720;   -6.117;  -18.789
579.669;  -66.230; -595.114; -704.794
579.947;  163.659; -326.107; -127.806
580.224;  334.333; -692.107; -524.806
580.502;  331.913;  127.893;   76.193
580.779;   12.651;  -42.117;   75.210
581.057;  -83.654; -584.109; -470.804
581.334;  -85.096; -726.102; -695.815
581.612;   23.776;   54.895;  511.190
581.889;  -37.033;  -83.101; -129.818
582.167;  -45.543; -298.099; -190.821
582.444; -101.413; -845.102; -814.817
582.721;   98.262;  657.899;  715.183
582.999;   63.054; -326.100; -167.821
583.276;  544.771; -812.123; -713.779
583.553;  750.482; -364.102; -294.816
583.831;  250.360; -607.104; -631.812
584.108;   34.251;  349.892;  174.195
584.385;    9.053; -122.102;  -98.815
584.662;  -70.945; -651.111; -828.801
584.940;   18.604;  204.889;  204.199
585.217;  -24.167;  -73.113; -303.796
585.494;   43.214;   71.890;  118.198
585.771;  203.246; -250.109; -354.804
586.048;  515.083; -196.113;  -76.796
586.325;  320.208; -721.110; -773.801
586.602;   94.814;  230.896;  213.188
586.879;  -20.000; -499.100; -580.820
587.156;   46.752; -156.105; -331.810
587.433;  -35.140; -701.102; -667.817
587.710;   61.690;  152.888;  234.202
587.987;  305.482; -264.105; -236.811
588.264;  787.192;  315.888;  387.202
588.541; 1383.516;  -61.104;   26.187
588.818; 2807.249;   72.892;  171.196
589.095; 2392.787; -163.104; -174.812
589.371;  394.469; -459.109; -414.804
589.648;    9.287; -581.107; -437.807
589.925;   34.702; -517.114; -621.795
590.202;   32.115; -741.112; -607.798
590.478;  100.609; -166.105;  -73.811
590.755;  246.655; -241.108; -132.806
591.032; 2582.410; -741.110; -699.802
591.308; 3591.858; -732.094; -790.831
591.585; 1837.535; -573.110; -560.802
591.862;  167.636;-1056.102; -950.817
592.138;   69.452; -475.108; -474.805
592.415;  132.540; -486.104; -495.813
592.691; 1496.612;  460.896;  518.188
592.968; 1931.544; -208.098; -123.824
593.244;  932.378; -695.116; -595.790
593.521;   61.786; -105.102;  -42.817
593.797;  -19.525; -810.122; -720.780
594.074;  338.332; -611.096; -588.826
594.350;  673.843;  828.905;  729.172
594.626;  301.380; -303.111; -283.801
594.903;  113.412; -643.101; -645.817
595.179;  190.118;  243.896;  418.187
595.455;   11.514; -136.107; -150.807
595.731;    9.620;  -19.103;  -38.814
596.008;  -45.425; -464.111; -434.800
596.284;   46.053; -187.100; -242.820
596.560;   52.789; -501.093; -493.833
596.836;  211.929; -173.105;  -70.810
597.112;  357.928; -582.108; -437.805
597.388;  282.655;  -49.097;  -48.826
597.665;  121.061;  437.887;  530.203
597.941;  -67.031; -572.089; -658.839
598.217;   12.763; -323.110; -293.802
598.493;  274.448;   61.891; -204.804
598.769;  541.572; -175.100;  -50.819
599.045;  320.906; -490.108; -562.806
599.321;   44.527; -193.100; -261.820
599.597;  153.097; -355.109; -476.804
599.872;  492.291;  409.896;  429.187
600.148;  374.281;  -61.097; -172.826
600.424;  283.411;   91.893;  202.193
600.700;  244.613; -170.107; -280.807
600.976;  130.175; -442.097; -464.825
601.252;  256.844; -226.109; -272.803
601.527;  223.792; -833.104; -840.813
601.803;  149.159; -453.105; -404.812
602.079;  193.197; -124.100; -118.819
602.354;  592.674; -620.092; -531.835
602.630;  858.083; -140.113; -482.796
602.906; 2352.417; -910.101; -863.818
603.181; 6987.258; -627.119; -534.786
603.457; 5980.254;   98.903; -278.826
603.733;  861.491; -605.120; -626.783
604.008;  990.150; -245.106; -164.810
604.284; 3215.538; -636.101; -580.817
604.559; 2760.519;   -3.112;  -42.799
604.835;  499.728; -163.105; -225.810
605.110;  429.107; -732.099; -892.821
605.385;  716.592;  224.907;  267.167
605.661;  681.121; -625.095; -729.829
605.936; 1225.106; -664.108; -737.806
606.211; 1045.527;  -17.103; -170.815
606.487;  204.897; -329.114; -376.794
606.762;   25.558; -791.119; -745.786
607.037;  -28.971; -501.105; -433.810
607.313;  -48.136; -589.096; -574.828
607.588;    1.175; -375.106; -137.810
607.863;   43.417;  -28.101; -143.818
608.138;  174.912;  513.890;  516.198
608.413;   33.211; -576.099; -592.822
608.688;   53.303; -203.108; -267.805
608.964;  198.794; -509.106; -218.809
609.239;  257.351; -107.105; -212.810
609.514;  249.509;  281.895;  240.188
609.789;  681.438; -187.104; -716.812
610.064;  904.638; -435.096; -609.827
610.339;  899.219; -855.109; -799.804
610.614; 1246.277; -131.100; -315.820
610.889;  676.609;  215.895;  107.188
611.163;   34.335; -407.104; -591.812
611.438;   85.798;   81.886; -167.794
611.713;   14.563; -467.101; -499.817
611.988;   59.791; -144.101; -328.818
612.263;   -5.671; -771.102; -717.815
612.538;  209.007;  385.887;  251.204
612.812;  178.279; -832.100; -911.820
613.087;  126.866; -358.098; -338.823
613.362;  -55.386; -497.107; -557.807
613.637;   38.498;  261.897;  138.186
613.911;  -23.450; -256.092; -345.835
614.186;  115.537; -249.107; -292.807
614.460;  702.071; -842.081; -758.854
614.735;  815.943;  -55.087;  -17.843
615.010;  168.633;   43.912;  -82.841
615.284;  241.152;  360.892;  246.195
615.559;  389.974; -792.092; -955.835
615.833;  284.759;  -76.099;  -87.822
616.108;   13.411; -225.090; -390.837
616.382;  151.495;  274.913;  402.156
616.656;  164.811; -241.090; -232.837
616.931;  513.035; -785.099; -700.822
617.205; 1131.718; -973.104; -979.813
617.480;  992.751;  -91.125;    6.225
617.754;  177.473; -396.125; -128.774
618.028;   15.693; -369.129; -382.768
618.302;   65.326;   73.892;  -25.805
618.577;  -52.601; -371.103; -518.815
618.851;  -67.184; -399.109; -600.803
619.125;  -51.827; -335.134; -378.759
619.399;  -43.507; -244.104; -374.813
619.673;  -50.064; -330.115; -515.792
619.947;  -56.824; -333.114; -448.795
620.222;  -13.644; -198.110; -204.801
620.496;    6.313;  -47.121;  -96.782
620.770;   16.530; -187.122;  -93.781
621.044;  194.152;  323.895;  346.190
621.318;  768.016; -653.120; -614.783
621.592;  688.764; -430.121; -409.783
621.866;  376.045; -476.112; -572.799
622.140;   18.930; -207.116; -356.791
622.413;   47.449;  138.889;  112.200
622.687;  -50.011; -746.101; -492.817
622.961;   14.751; -130.108; -143.805
623.235;  -56.150; -633.111; -661.800
623.509; -106.566; -816.105; -848.811
623.783;    4.934;  -12.107;   48.193
624.056;  -22.458; -254.120; -280.783
624.330;   46.688;   63.888;   -3.797
624.604;   59.352; -271.116; -355.790
624.877;   80.636;  180.890;   26.198
625.151;   42.821; -249.114; -238.794
625.425;  -39.155; -150.103; -283.814
625.698;  -68.023; -367.119; -374.785
625.972;  -92.787; -799.110; -765.802
626.245;   57.903;  685.884;  484.210
626.519;  -51.228; -426.120; -340.784
626.792;  -32.662; -192.107; -380.807
627.066;  -95.377; -485.122; -662.779
627.339;  -96.566; -736.110; -663.802
627.613;   31.470;  351.880;  148.216
627.886;   39.740;  187.891; -612.803
628.160;  -15.684;  312.880; -161.783
628.433; -103.647; -695.125; -703.775
628.706;  -70.953; -517.120; -615.784
628.979;   24.410;  296.876;  117.223
629.253;  -91.543; -785.119; -833.786
629.526;  375.713; -334.126; -253.772
629.799;  359.942; -641.123; -479.778
630.072;  175.044; -497.128; -516.769
630.346;  -51.096;-1115.116;-1080.790
630.619;  474.764; -467.107; -545.808
630.892;  620.226;  709.889;  593.200
631.165;  337.443;  790.896;  679.187
631.438;  -82.858;-1092.112;-1055.798
631.711;   36.046;  453.877;  257.221
631.984;  -64.826; -523.117; -624.789
632.257;  -74.355; -636.117; -681.789
632.530;  -50.548; -412.119; -433.785
632.803;   10.844; -109.115;    7.207
633.076;  -70.711; -360.123; -422.777
633.349;    8.799;  173.872;  121.231
633.622;  -44.899; -187.119; -240.785
633.895; -130.858; -903.120; -823.783
634.167;  -62.135; -496.126; -525.773
634.440;  -20.440;  -19.116; -137.792
634.713;   -1.394;  -22.119; -120.786
634.986;   73.788;  593.871;  453.233
635.258;  -77.708; -507.115; -597.793
635.531;   78.841;  742.882; -343.788
635.804;  -40.103; -303.117; -318.789
636.077;  -83.544; -830.116; -852.791
636.349;   -6.810; -586.115; -474.793
636.622;  384.862; 1695.874; 1392.228
636.894;  252.072; -474.120; -909.784
637.167;  167.006; -836.127; -789.771
637.439;   21.202; -278.128; -213.770
637.712;  -57.536; -312.126; -293.772
637.984;  -73.718; -635.116; -707.791
638.257;  388.364;  515.877;  488.222
638.529;  591.479; -881.125; -924.776
638.802;  252.219; -508.128; -449.769
639.074; -105.471; -927.122; -952.781
639.346; -134.561; -942.135; -930.757
639.619;   -3.103;  -79.142; -319.744
639.891;  -20.752;  -83.122; -168.779
640.163;  -78.525; -689.122; -756.780
640.435;   18.701;  273.878;  103.220
640.708;    6.378;  -72.122; -132.780
640.980;  -32.420; -366.122; -362.781
641.252;  177.057;  -25.121;  -71.781
641.524; 1859.009;  580.879;  573.219
641.796; 1895.736;-1094.121; -907.782
642.068;  340.663; -191.121; -300.782
642.340;  -50.285; -486.121; -566.783
642.613;   33.541;  294.880;  323.217
642.885;  -96.907; -787.120; -878.783
643.157;  -50.380; -810.120; -658.784
643.428;   53.947;  170.880;  218.216
643.700;  -80.451; -498.120; -425.784
643.972;  -39.874;  -16.119; -133.785
644.244;  -88.372; -474.119; -559.785
644.516;  -48.696; -250.119; -114.786
644.788;   46.456;  662.881;  548.214
645.060;  -31.942;  -12.119; -124.786
645.332; -112.640; -525.118; -535.787
645.603;   27.412;  479.882;  342.213
645.875;  -80.911; -334.118; -369.787
646.147;  146.591; 1487.882; 1242.212
646.418;  -76.457; -931.117; -918.788
646.690;  154.794; -714.117; -715.789
646.962;   46.271; -413.117; -451.789
647.233;   -7.527;   15.883;   11.211
647.505; -105.500; -595.117; -475.790
647.776;    6.777;  328.884;  229.210
648.048;   -6.421; -248.116; -418.790
648.320;  -77.019; -752.116; -679.791
648.591; -153.967;-1055.116; -958.791
648.862;  -92.891; -505.116; -577.792
649.134;   -0.814;  115.885;  198.208
649.405;  -44.212; -661.115; -618.792
649.677;  -61.410; -475.115; -598.793
649.948;  -17.708; -181.115; -296.793
650.219;   -7.681;  -37.115; -147.793
650.491;  -83.154; -431.114; -520.794
650.762; -117.077; -705.114; -731.794
651.033;  -89.726; -437.114; -424.795
651.304;  -90.449; -743.114; -728.795
651.576;  -67.697; -680.114; -645.795
651.847;  -43.170; -250.113; -140.796
652.118;  -25.318;  -32.113; -189.796
652.389; -110.766; -639.113; -722.796
652.660;  -36.489; -147.113;  -89.797
652.931; -143.862; -897.112; -871.797
653.202;  -87.661; -382.112; -541.798
653.473;  -54.534; -633.112; -533.798
653.744;  152.468; -595.112; -590.798
654.015;  148.070; -356.112; -303.799
654.286;  -67.153; -642.111; -663.799
654.557;  -56.676; -586.111; -521.799
654.828; -168.449;-1114.111;-1088.800
655.099;  -90.773; -404.111; -291.800
655.370;  -93.521; -427.111; -543.801
655.641; -125.094; -656.110; -714.801
655.911; -107.467; -618.110; -638.801
656.182;   38.810;  437.890;  387.198
656.453;   87.437;  830.890;  746.198
656.724;  -78.036; -466.110; -426.802
656.994;  -96.609; -553.109; -568.803
657.265; -124.858; -862.109; -873.803
657.536;  -92.731; -500.109; -377.804
657.806; -102.704; -561.109; -593.804
658.077; -143.827; -866.109; -950.804
658.347;  -97.075; -523.108; -598.805
658.618; -128.473; -646.108; -694.805
658.888;   -7.696;  -41.108;  112.195
659.159;  -77.644; -432.108; -548.806
659.429;  -15.093; -292.108; -349.806
659.700;   24.884; -435.107; -390.807
659.970;  -11.864; -370.107; -359.807
660.241;   10.388; -754.107; -921.807
660.511;  510.965; -147.107; -174.808
660.781;   96.042; -793.106; -748.808
661.052;  -58.056; -222.106; -381.808
661.322;  -34.079;   21.894;   -9.809
661.592;    3.772;  257.894;  148.191
661.862;  -76.976; -369.106; -382.810
662.133;  -97.349; -551.105; -502.810
662.403; -119.397; -770.105; -676.810
662.673;  -71.845; -256.105; -213.811
662.943; -100.293; -612.105; -551.811
663.213;  -13.466;  -85.105;  -81.811
663.483;  -74.114; -593.104; -568.812
663.753;  -63.963; -194.104; -152.812
664.023;  -16.086;   68.896;  -32.813
664.293;  -71.109; -319.104; -126.813
664.563; -107.682; -694.104; -648.813
664.833; -119.730; -743.103; -608.814
665.103; -124.278; -730.103; -793.814
665.373; -119.026; -766.103; -806.814
665.643;  -76.425; -863.103; -918.815
665.913;   41.927; -534.103; -714.815
666.182;  145.679; -685.102; -719.816
666.452;  276.731;  -22.102;  -89.816
666.722;  -18.092; -724.102; -784.816
666.992; -135.540; -948.102; -921.817
667.261;  -99.938; -824.102; -808.817
667.531;  184.739;  134.899;   45.183
667.801;  570.090; -440.101; -412.818
668.070;  218.342;  714.899;  697.182
668.340; -103.006; -883.101; -840.819
668.609;   80.596;  588.900;  301.181
668.879;  -84.077; -490.100; -558.819
669.149;  -85.200; -539.100; -516.820
669.418; -107.448; -698.100; -726.820
669.688;  -36.896; -482.100; -666.820
669.957;   64.205; -423.099; -546.821
670.226;  -17.768; -268.099; -331.821
670.496;  -91.791; -431.099; -635.822
670.765;  -80.114; -418.099; -501.822
671.034; -138.487; -872.099; -828.822
671.304;  -23.310;   55.902; -111.823
671.573; -141.008;-1085.098; -957.823
671.842;   78.844; -380.098; -294.823
672.112;   28.795; -692.098; -586.824
672.381;   -0.353; -239.098; -214.824
672.650; -144.076;-1005.097;-1021.825
672.919;  -92.574; -631.097; -507.825
673.188; -108.822; -681.097; -878.825
673.457; -159.670;-1101.097;-1143.826
673.726;  -85.618; -579.096; -646.826
673.995;  -45.367; -533.096; -479.826
674.265;  -16.640; -263.096; -333.827
674.534;    3.362; -183.096; -235.827
674.802;    6.739; -618.096; -703.828
675.071;  982.316; -886.095; -801.828
675.340; 4096.318; -464.095; -339.828
675.609; 1352.995;  103.905;   82.171
675.878;   77.972; -949.095; -893.829
676.147;   20.998;  -26.095;   -8.829
676.416;   90.625; -210.094; -294.830
676.685;  725.852; 1000.906; -622.830
676.953;  119.554; -603.094; -452.831
677.222;  -30.994; -193.094; -273.831
677.491;  -36.567;  -24.094; -127.831
677.759;   -7.440;   11.907;  172.168
678.028;  -32.313; -279.093; -222.832
678.297;  -21.012;   71.907;  197.168
678.565; -148.935; -898.093; -944.833
678.834;  -68.733; -311.093; -268.833
679.102;  -79.781; -411.092; -391.834
679.371; -148.704; -898.092; -727.834
679.639; -133.202; -797.092; -786.834
679.908; -128.850; -794.092; -724.835
680.176; -154.673; -895.091; -941.835
680.445;  -79.922; -346.091; -352.835
680.713;  -41.845;  -58.091;  -23.836
680.982; -107.193; -523.091; -525.836
681.250;  -99.791; -578.091; -507.837
681.518; -108.739; -534.090; -751.837
681.787;  -23.337; -204.090; -167.837
682.055;  -69.710; -490.090; -422.838
682.323; -145.458; -993.090; -992.838
682.591;   29.393; -216.090; -538.838
682.859;   91.070;    9.911;  -35.839
683.128;    0.397;  232.911;  497.161
683.396; -162.701;-1102.089;-1122.840
683.664;  -45.324; -241.089;   21.160
683.932;   -2.547;  144.911;  -76.840
684.200;  -88.020; -576.088; -320.841
684.468;  -23.169;  -73.088; -124.841
684.736;  -30.592; -214.088; -175.841
685.004; -113.740;-1024.088; -982.842
685.272;  -59.788; -880.088; -774.842
685.540;  -70.386; -499.087; -557.843
685.808;  -88.034; -651.087; -682.843
686.076;  -95.632; -894.087; -969.843
686.343;  -64.030; -601.087; -815.844
686.611;   37.296; -195.087; -224.844
686.879;  430.223; -530.086; -553.844
687.147; 3436.875; -483.086; -480.845
687.414; 1002.952;  -12.086; -169.845
687.682;   12.404; -658.086; -757.846
687.950;  299.881;  259.915;  263.154
688.217;    1.583; -792.085; -760.846
688.485;   -5.115; -632.085; -636.847
688.753;  528.586;  -11.085; -102.847
689.020;  178.263; -820.085; -851.847
689.288;  -88.035; -853.084; -787.848
689.555;  -36.283; -195.084; -148.848
689.823;  -41.981; -241.084; -345.849
690.090;  -81.304; -546.084; -651.849
690.358; -163.577; -877.084; -897.849
690.625;    0.125;  120.917;   45.150
690.892;  -90.899; -403.083; -369.850
691.160;  -16.697;   72.917;  -35.850
691.427;   -0.670;  141.917;  130.149
691.694; -129.468; -855.083; -929.851
691.962; -136.616;-1177.082;-1060.852
692.229;    5.236;  127.918;   56.148
692.496;   80.563;  130.918;  -49.852
692.763;   15.539; -164.082; -201.853
693.031;  -64.759; -739.082; -716.853
693.298;  -41.257; -509.081; -368.853
693.565;  282.520; -155.081; -163.854
693.832; 1323.697;   -5.081;   -9.854
694.099;  154.324; -643.081; -642.855
694.366;  -51.374; -882.081; -896.855
694.633;  -54.597; -920.080; -633.855
694.900;  717.929; 4367.920; -114.856
695.167;  457.631; -214.080; -380.856
695.434;   95.783; -646.080; -623.856
695.701;  193.610;  121.921;  -61.857
695.968;  465.537; -365.079; -361.857
696.234;  981.114; -415.079; -646.858
696.501;10488.166; -776.079; -614.858
696.768; 5589.968; -554.079; -617.858
697.035;  337.344; -632.078; -667.859
697.302;   45.271; -448.078; -552.859
697.568;   12.298; -458.078; -497.859
697.835;  -41.700; -683.078; -624.860
698.102;  -15.323; -498.078; -407.860
698.368;   64.204;  384.923;  396.139
698.635;  -43.469;  -47.077; -424.861
698.901;  -10.667; -240.077; -348.861
699.168;   60.109; -534.077; -456.862
699.435;   79.711;  -72.077;  -13.862
699.701; -109.162; -868.076; -764.862
699.968;    7.415;  144.924; -441.863
700.234; -105.558; -783.076; -822.863
700.500;  -62.606; -448.076; -539.864
700.767;   -9.104;   -1.075;   26.136
701.033; -124.352;-1015.075; -963.864
701.299;  -52.626; -450.075; -483.865
701.566;  102.326;  950.925;  763.135
701.832;   22.903;  -31.075;  -76.865
702.098;  -98.420;-1054.074;-1034.866
702.365;  -85.393;-1098.074;-1030.866
702.631;  -20.466;-1038.074;-1063.867
702.897; 1352.586; -765.074; -676.867
703.163; 2349.212;  348.926;  254.133
703.429;  173.839; -256.073; -273.868
703.695;  -30.934; -796.073; -792.868
703.961;   11.618; -214.073; -210.868
704.227;  -43.630; -630.073; -725.869
704.493;  119.747;  613.927;  510.131
704.759;  -25.426; -565.072; -540.870
705.025;   26.476; -203.072; -194.870
705.291;  -12.748; -666.072; -562.870
705.557;  191.329;  719.928;   34.129
705.823;   24.031; -742.072; -694.871
706.089;  154.908; -307.071; -326.871
706.355;  357.885; -315.071; -244.872
706.620; 5404.862; -776.071; -729.872
706.886; 8113.039; -309.071; -362.873
707.152;  779.816; -818.070; -973.873
707.418;  -10.133;-1153.070;-1186.873
707.683;   -4.256; -550.070; -530.874
707.949;  -41.004; -547.070; -578.874
708.215;   -5.977; -129.070; -207.874
708.480;  -21.925; -520.069; -420.875
708.746;   86.602;   68.931;   28.125
709.011;  -75.496; -578.069; -612.876
709.277;  -73.594; -538.069; -543.876
709.542;  -46.668; -428.069; -387.876
709.808;  -12.141;  -59.068;   89.123
710.073;  -79.714; -577.068; -695.877
710.339;  -27.762; -242.068; -228.877
710.604;   51.215; -780.068; -845.878
710.869;  339.417; -277.068; -366.878
711.135;  -60.781; -715.067; -628.879
711.400;  -92.529; -507.067; -608.879
711.665;  -71.678; -404.067; -479.879
711.931;  -95.226; -661.067; -677.880
712.196; -115.274; -876.067; -954.880
712.461;   98.953; -402.066; -490.880
712.726;  153.955; -727.066; -771.881
712.991;  -93.493; -647.066; -664.881
713.256;  -52.266; -350.066; -332.882
713.521;  -54.065; -417.065; -381.882
713.787;  -70.888; -454.065; -472.882
714.052;  -44.761; -214.065; -400.883
714.317; -108.384;-1045.065; -981.883
714.581;  990.093; -374.065; -268.883
714.846; 1482.470; -822.064; -888.884
715.111;  119.822;  261.936;  257.116
715.376;  -15.526;  -86.064; -223.885
715.641;  -30.400; -365.064; -367.885
715.906;  307.627;   15.936; -551.885
716.171;  112.804;  221.937;  209.114
716.436;   51.456;  -78.063; -104.886
716.700; -115.067; -818.063; -692.886
716.965; -131.465; -794.063; -807.887
717.230;  -80.738; -339.063; -392.887
717.494;  -28.736;  -40.062; -134.888
717.759;  -93.485; -784.062; -640.888
718.024;   -3.383;  269.938;  250.112
718.288;   74.344;  685.938;  395.111
718.553; -142.154; -803.062; -977.889
718.817; -136.752; -883.061; -899.889
719.082;  -33.000; -115.061; -125.890
719.346; -147.198;-1000.061; -947.890
719.611;  -42.971; -300.061; -255.891
719.875;  -90.970; -568.060; -537.891
720.140;  -73.393; -453.060; -603.891
720.404;   27.459; -136.060; -249.892
720.668;  862.711; -475.060; -411.892
720.933;  350.488;  146.940;  137.108
721.197;  -92.585; -667.059; -600.893
721.461; -138.183; -851.059; -826.893
721.725;  -16.357;  -21.059; -250.894
721.990;  -61.280; -284.059; -204.894
722.254;  -34.553;  -26.059; -108.894
722.518;  -66.151; -286.058; -442.895
722.782;  -95.974; -743.058; -594.895
723.046;  111.153;  614.942;  570.105
723.310;   18.530;  374.942;  210.104
723.574; -103.168; -654.058; -614.896
723.838; -110.942; -576.057; -642.897
724.102;  -54.915; -226.057; -239.897
724.366; -131.313;-1032.057; -978.897
724.630; -102.961; -749.057; -571.898
724.894;  -80.984; -722.057; -514.898
725.158;   -8.382;   38.944; -295.898
725.422;  -57.605; -394.056; -327.899
725.685;  -75.753; -441.056; -349.899
725.949;  -85.477; -566.056; -519.900
726.213;  -81.150; -732.056; -811.900
726.477;  174.002;-1020.055; -933.900
726.740;  151.754; -274.055; -104.901
727.004;  314.631; -384.055; -510.901
727.268; 3326.083; -442.055; -400.901
727.531;  989.485; -961.055; -775.902
727.795;  -33.663; -713.054; -673.902
728.059;  -70.987; -552.054; -557.903
728.322;  -79.460; -841.054; -669.903
728.586;   23.442; -692.054; -701.903
728.849;  -81.556; -695.053; -756.904
729.112; -112.179; -812.053; -912.904
729.376; -117.752; -959.053; -905.904
729.639;  -75.800; -536.053; -536.905
729.903; -110.198; -733.053; -699.905
730.166;  -44.397; -437.052; -399.906
730.429;  -36.670; -317.052; -468.906
730.693;  -75.718; -355.052; -894.906
730.956;  170.884;  810.948;  651.093
731.219;  723.561; -310.052; -103.907
731.482;  135.988;-1003.051; -894.907
731.745;  108.065; -794.051; -935.908
732.009;    6.666;  -30.051;   50.092
732.272;  -99.832; -904.051; -771.909
732.535;  -41.655; -300.051; -310.909
732.798; -139.003;-1083.050;-1166.909
733.061;  -63.101; -430.050; -456.910
733.324;   -3.399;   31.950; -180.910
733.587;   56.928;  290.950;  365.090
733.850;  -73.145; -973.049;-1050.911
734.113;   29.981;   33.951;   32.089
734.376;   -0.217; -328.049; -447.912
734.639;  208.860; 1188.951; 1011.088
734.901;   51.012; -180.049; -402.912
735.164;  486.789; -883.048; -837.913
735.427; 1389.741; -166.048; -355.913
735.690;  122.668; -205.048; -234.913
735.952;  -29.505; -923.048; -925.914
736.215;  -15.879;-1113.048;-1009.914
736.478;   50.623; -771.047; -774.915
736.740;  209.625;   33.953;  129.085
737.003;  654.177; -658.047; -672.915
737.266; 4227.254;  -94.047;   46.084
737.528;  466.131; -682.047; -660.916
737.791;  310.408; -316.046; -327.916
738.053;  777.035;  465.954;  649.083
738.316;10679.636; -162.046; -136.917
738.578; 8184.088; -770.046; -736.918
738.841;  454.990; -382.046; -446.918
739.103;  183.767; -875.045; -777.918
739.365;  527.144;   79.955;  -69.919
739.628;   -3.779; -884.045; -805.919
739.890;  -30.052; -758.045; -710.919
740.152;  -41.826; -692.044; -754.920
740.414;  -17.074; -408.044; -359.920
740.677;  -42.247; -785.044; -634.921
740.939;  -51.220; -587.044; -487.921
741.201;  275.957; -432.044; -572.921
741.463;   46.984; -689.043; -745.922
741.725;    7.236;  -21.043; -199.922
741.987;   55.463;  220.957;  116.078
742.249;   -6.061; -751.043; -859.923
742.511;  225.466; -703.043; -794.923
742.773;   23.543; -546.042; -546.924
743.035;  118.520;  796.958;  533.076
743.297;  -49.003; -963.042;-1013.924
743.559;  743.824; -278.042; -262.925
743.821;   70.526; -735.042; -744.925
744.083;   13.053;  -44.041; -149.925
744.345;  -87.371; -869.041; -892.926
744.607;   36.906;   75.959;  122.074
744.868;  -48.517; -490.041; -554.927
745.130; -117.390; -994.041;-1008.927
745.392;   36.937;   -1.040;  -44.927
745.653;  -13.861; -411.040; -378.928
745.915;  141.291;  896.960;  631.072
746.177;   64.018;   35.960;  -43.928
746.438;   10.769; -428.040; -543.929
746.700;  -54.379; -947.039; -988.929
746.961;   10.748; -659.039; -740.930
747.223;  134.150; -190.039;  -74.930
747.484;   83.427; -391.039; -471.930
747.746;  145.979;  -23.038; -106.931
748.007;  131.231; -647.038; -689.931
748.269;  284.508; -468.038; -440.931
748.530;  499.159; -852.038; -638.932
748.791;  269.011; -354.038; -420.932
749.053;  450.063;  286.963;  163.067
749.314;  456.515; -236.037; -169.933
749.575;  536.842; -945.037; -905.933
749.836;  857.894; -217.037;   86.066
750.098; 2374.646;  -60.037;  -21.934
750.359;36924.472;  414.964;  555.066
750.620;10337.774; -121.036; -220.935
750.881; 1056.176; -585.036; -513.935
751.142; 1361.178; -950.036; -938.936
751.403;16544.455; -789.036; -705.936
751.664; 8100.832;-1034.035; -999.936
751.925;  506.634; -175.035; -262.937
752.186;  271.636; -298.035; -278.937
752.447;  132.587; -590.035; -445.937
752.708;   45.739; -532.035; -648.938
752.969;   25.241; -566.034; -576.938
753.230;    0.768; -777.034; -672.939
753.491;  -12.605; -650.034; -631.939
753.751;   66.047;  109.966;   19.061
754.012;   76.599;  258.967;  181.060
754.273;   68.701; -174.033;  -71.940
754.534;   -3.148; -487.033; -580.940
754.794;  -77.421; -926.033; -911.941
755.055;  131.631; 1051.967;  881.059
755.316;  -33.292; -700.032; -566.942
755.576;  -37.840; -606.032; -576.942
755.837;  -49.788; -527.032; -695.942
756.097;  -48.736; -530.032; -564.943
756.358;  -64.334; -725.032; -770.943
756.618;  -57.783; -705.031; -641.943
756.879;   -0.756; -254.031; -349.944
757.139; -112.679;-1098.031;-1116.944
757.400;  -54.902; -538.031; -553.945
757.660;  -21.100; -365.031; -401.945
757.920;   -0.223; -266.030; -228.945
758.181;  -12.146; -468.030; -351.946
758.441;  -88.344; -870.030; -809.946
758.701;  -32.243; -308.030; -215.946
758.961;  -30.166; -220.030; -278.947
759.222;  -53.989; -574.029; -502.947
759.482;  -73.087; -683.029; -723.948
759.742;  -93.610; -706.029; -547.948
760.002;   18.217;  -83.029; -143.948
760.262;   16.419;   50.972;  182.051
760.522;  -41.805; -498.028; -574.949
760.782;  -70.453; -738.028; -612.949
761.042;  -24.726; -618.028; -573.950
761.302;   52.751;   55.972;  -18.950
761.562;   52.653; -164.027; -154.951
761.822;  100.580; -710.027; -551.951
762.082;  -17.418;-1104.027;-1093.951
762.342;   73.184; -328.027; -403.952
762.601;   90.960; -567.027; -506.952
762.861;  373.887; -281.026; -207.952
763.121;  415.914; -406.026; -411.953
763.381; 7315.341; -499.026; -485.953
763.640; 8988.593; -139.026; -307.954
763.900;  380.095; -242.026; -203.954
764.160;  107.397; -458.025; -491.954
764.419;   10.124; -726.025; -782.955
764.679;  -59.325; -795.025; -726.955
764.939;  -26.898; -124.025; -210.955
765.198;  -93.246; -608.025; -563.956
765.458;  -94.644; -710.024; -612.956
765.717;  -91.392; -454.024; -590.957
765.976;  -56.290; -428.024; -411.957
766.236;  -81.638; -475.024; -610.957
766.495;    4.539;  260.977;   73.042
766.755;  -91.935;-1090.023; -987.958
767.014;    9.467; -594.023; -665.958
767.273;  -58.231; -373.023; -397.959
767.533;  -53.729; -228.023; -307.959
767.792;  -37.302; -151.022; -188.960
768.051;  -59.300; -228.022; -276.960
768.310;  -78.298; -546.022; -650.960
768.569;  -16.222; -161.022;    4.039
768.828;  -41.345; -285.022; -363.961
769.088; -114.343;-1050.021; -942.961
769.347;  -85.066; -755.021; -599.962
769.606;  -92.489; -876.021; -857.962
769.865; -126.612;-1016.021;-1033.963
770.124;   -4.835; -411.021; -336.963
770.383;  -62.433; -778.020; -910.963
770.641;   -8.407; -398.020; -400.964
770.900;  -68.030; -953.020; -846.964
771.159;  -43.578; -851.020; -951.964
771.418;  -20.451; -917.020; -779.965
771.677;  120.551; -224.019; -293.965
771.936;  134.803; -794.019; -865.966
772.194; 1984.980; -465.019; -437.966
772.453;11540.757; -213.019; -391.966
772.712;  824.808;  416.982;  329.033
772.970;  115.885;   32.982;   63.033
773.229;   84.512;  -22.018;  102.033
773.488;  -88.411; -814.018; -770.968
773.746;   45.441;  296.982;  335.032
774.005;    3.393;  190.983;  -22.969
774.263;   -6.705;  243.983;  177.031
774.522;  -58.628; -422.017; -548.969
774.780;  -79.677; -484.017; -417.970
775.039;  -87.275; -551.017; -531.970
775.297;  -32.973; -135.016; -351.970
775.555; -110.696; -489.016; -612.971
775.814; -130.544; -618.016; -570.971
776.072; -100.417; -749.016; -740.971
776.330;  -90.715; -630.016; -520.972
776.589; -121.113; -703.015; -721.972
776.847; -130.362; -645.015; -624.973
777.105; -170.810;-1016.015;-1032.973
777.363;  -89.033; -459.015; -454.973
777.621; -140.281; -660.015; -717.974
777.879;  -23.479;  -42.014;   32.026
778.138; -118.152; -554.014; -717.974
778.396; -117.300; -585.014; -526.975
778.654; -169.049;-1015.014; -970.975
778.912;  -84.997; -269.014; -371.976
779.170; -136.420; -880.013; -803.976
779.427; -155.343; -922.013; -897.976
779.685; -122.416; -880.013; -832.977
779.943;  -89.789; -654.013; -593.977
780.201; -149.012; -964.012; -883.978
780.459; -122.960; -651.012; -610.978
780.717;  -86.459; -440.012; -390.978
780.974; -117.182; -449.012; -490.979
781.232;  -72.355; -358.012; -338.979
781.490;  -77.453; -551.011; -472.979
781.747;  -98.626; -555.011; -476.980
782.005;    7.701;  462.989;  254.020
782.263; -164.647; -542.011;-1004.981
782.520;  -95.020; -326.011; -501.981
782.778; -176.869;-1013.010;-1051.981
783.035; -169.642; -962.010; -938.982
783.293;  -63.390; -248.010; -206.982
783.550;  -56.938; -134.010; -198.982
783.808; -155.286; -764.010; -776.983
784.065; -161.734; -745.009; -874.983
784.322;  -53.382;   25.991;  -86.984
784.580; -144.905; -915.009; -771.984
784.837;  -88.479; -392.009; -466.984
785.094; -133.502; -783.009; -762.985
785.352;  -71.475; -304.008; -404.985
785.609; -118.223; -934.008; -839.985
785.866;  -77.421; -345.008; -401.986
786.123;  -75.794; -639.008; -583.986
786.380;  -98.817; -665.008; -604.987
786.637;  -49.966; -225.007; -380.987
786.895;  -12.639; -456.007; -543.987
787.152;  -48.887; -135.007; -267.988
787.409;  -35.685; -123.007; -225.988
787.666;  -99.133; -299.006; -378.988
787.923; -116.981; -616.006; -695.989
788.179; -104.779; -551.006; -584.989
788.436;  -99.252; -585.006; -585.990
788.693;  -35.276;  -92.006;  -87.990
788.950;  126.201; -125.005; -112.990
789.207;  228.003; -381.005; -372.991
789.464;  -54.370; -161.005; -301.991
789.720;   -8.518;  150.995;  110.009
789.977; -165.916;-1003.005; -671.992
790.234;  -40.489;   44.996;  -66.992
790.490; -151.112; -884.004;-1031.993
790.747;  -26.436;  -85.004;   22.007
791.004;  -29.734; -426.004; -348.993
791.260;  -88.907; -430.004; -560.994
791.517;  -97.030; -843.003; -788.994
791.773;  -64.728; -379.003; -342.994
792.030; -101.351; -596.003; -660.995
792.286; -108.099; -686.003; -636.995
792.543;  -27.997;  -74.002; -159.995
792.799;  -52.021; -584.002; -382.996
793.055; -166.919;-1179.002;-1210.996
793.312;  -87.892; -827.002; -816.997
793.568;  -58.190; -746.002; -599.997
793.824;    7.162; -226.001; -284.997
794.081;   15.239; -447.001; -508.998
794.337;   55.016; -664.001; -561.998
794.593; 1195.343; -319.001; -271.999
794.849; 6963.819; -746.001; -772.999
795.105;  391.571; -270.000; -261.999
795.361;   16.448; -490.000; -457.000
795.617;  -62.600; -875.000; -945.000
795.873;  -49.800; -360.000; -407.000
796.129;  -56.075; -368.000; -306.000
796.385;  -27.700; -124.000; -156.000
796.641;   79.025;  412.000;  550.000
796.897;  -87.075; -666.000; -635.000
797.153;   50.125;  453.000;  357.000
797.409; -115.525; -785.000; -868.000
797.665;  -70.825; -625.000; -732.000
797.921;  -71.850; -775.000; -762.000
798.176;  -58.650; -744.000; -747.000
798.432;  -51.500; -824.000; -596.000
798.688;  -82.800;-1174.000;-1078.000
798.943;   84.825; -165.000; -147.000
799.199;   -3.600;-1005.000; -959.000
799.455;  217.750;  369.000;  316.000
799.710;  137.100; -813.000; -380.000
799.966;  293.275; -162.000; -160.000
800.221;  470.450; -638.000; -721.000
800.477; 9973.150; -743.000; -710.000
800.732;10239.125; -773.000; -800.000
800.988;  665.925;  205.000;  -19.000
801.243; 1614.150; -454.000; -344.000
801.498; 8057.850; -814.000; -739.000
801.754;  514.750; -289.000; -163.000
802.009;   85.475; -257.000; -335.000
802.264;  -54.500; -967.000;-1033.000
802.520;   12.025;  222.000;   -3.000
802.775;  -43.750; -524.000; -359.000
803.030;   36.325;  395.000;  356.000
803.285; -108.625; -840.000; -903.000
803.540;  -82.900; -686.000; -699.000
803.795;  -48.550; -648.000; -583.000
804.051;  -23.750; -279.000; -346.000
804.306;   18.375;  168.000;  128.000
804.561;  141.250;  451.000;  362.000
804.816;  131.075;  714.000;  861.000
805.071;  -10.425; -185.000; -280.000
805.325;  210.200; -257.000; -427.000
805.580;  -91.500; -841.000; -877.000
805.835;   -7.975; -204.000; -297.000
806.090;  -75.925; -760.000; -676.000
806.345;  -26.325; -344.000; -264.000
806.600;  -24.850; -549.000; -632.000
806.854;  -17.625; -408.000; -538.000
807.109;  -18.350; -493.000; -577.000
807.364;    1.050; -407.000; -328.000
807.618;    0.000; -415.000; -381.000
807.873;   53.875; -470.000; -494.000
808.128;  102.100; -257.000; -518.000
808.382;   96.600; -224.000; -332.000
808.637;   79.050; -440.000; -511.000
808.891;  182.975; -257.000; -180.000
809.146;  110.725; -902.000; -794.000
809.400;  277.300; -848.000; -923.000
809.654;  345.150; -779.000; -551.000
809.909;  494.900; -841.000; -927.000
810.163; 6157.925; -813.000; -651.000
810.418;18563.250; -940.000; -861.000
810.672; 1157.625; -685.000; -690.000
810.926;  770.175; -993.000; -973.000
811.180; 1369.500; -439.000; -372.000
811.434;31490.275;  240.000;  135.000
811.689;14784.950; -231.000; -365.000
811.943;  713.850; -936.000; -953.000
812.197;  359.100; -893.000; -671.000
812.451;  135.575; -379.000; -514.000
812.705;  -18.200; -809.000; -619.000
812.959;   -8.725; -263.000; -388.000
813.213;   -9.400; -283.000; -209.000
813.467;   72.200;  470.000;  253.000
813.721; -102.575; -764.000; -792.000
813.975; -111.175; -826.000; -877.000
814.229;   39.200;  430.000;  353.000
814.482;  -62.650; -517.000; -566.000
814.736; -114.900; -766.000; -744.000
814.990; -136.775; -779.000; -872.000
815.244;  -63.500; -228.000; -285.000
815.497; -101.300; -636.000; -601.000
815.751;  -29.150; -141.000;   82.000
816.005;  -88.825; -470.000; -586.000
816.258;  -70.900; -510.000; -363.000
816.512; -110.575; -693.000; -610.000
816.766;   -6.225;  121.000;  157.000
817.019;   30.025;  148.000;  149.000
817.273; -117.750;-1000.000; -802.000
817.526;  -35.425; -206.000; -173.000
817.779;  -62.850;-1049.000; -960.000
818.033;  -54.550; -693.000; -807.000
818.286; -121.875; -725.000; -792.000
818.540;  -95.200; -403.000; -403.000
818.793;  -82.850; -402.000; -489.000
819.046; -117.225; -582.000; -520.000
819.299;  -55.875; -157.000; -166.000
819.553; -111.950; -552.000; -592.000
819.806; -170.875;-1016.000; -838.000
820.059;  -65.300; -334.000; -354.000
820.312;   -6.700;  152.000;  185.000
820.565;  -15.950;  110.000;  -27.000
820.818;  -68.775;  -59.000; -173.000
821.071; -166.025;-1041.000; -957.000
821.324; -103.800; -536.000; -540.000
821.577; -116.350; -457.000; -483.000
821.830;  -73.875; -270.000; -172.000
822.083; -133.950; -733.000; -288.000
822.336;  -60.975; -261.000; -167.000
822.589; -135.900; -805.000; -688.000
822.842; -151.200; -875.000; -770.000
823.094; -176.675;-1076.000;-1114.000
823.347; -131.850; -925.000; -729.000
823.600;    5.125;  402.000;  187.000
823.853;  -61.175; -311.000; -267.000
824.105;  -77.325; -331.000; -575.000
824.358; -121.525; -617.000; -716.000
824.611;   14.325;  234.000;   40.000
824.863;  -39.100; -612.000; -591.000
825.116;   51.975;  -33.000;   27.000
825.368;   72.975; -366.000; -372.000
825.621;  171.100; -186.000; -240.000
825.873;   76.725; -704.000; -737.000
826.126;  528.450; -669.000; -641.000
826.378;11498.350; -389.000; -505.000
826.630; 3378.150; -890.000; -898.000
826.883;   63.625; -754.000; -693.000
827.135;   46.850; -279.000; -270.000
827.387; -116.725; -893.000; -839.000
827.639;  -32.225;  -86.000;   32.000
827.892; -124.050; -742.000; -582.000
828.144; -138.250; -848.000; -804.000
828.396;  -44.675;  104.000;  -80.000
828.648; -109.675; -440.000; -333.000
828.900; -157.175; -702.000; -795.000
829.152; -116.950; -684.000; -683.000
829.404;  -69.125; -215.000; -267.000
829.656;  -11.250;  321.000;  214.000
829.908;  -31.575;  393.000;  229.000
830.160; -176.625;-1064.000;-1047.000
830.412; -103.850; -481.000; -430.000
830.664; -113.975; -557.000; -665.000
830.916;  -84.175; -268.000; -206.000
831.167; -175.825;-1073.000; -951.000
831.419; -107.575; -623.000; -566.000
831.671; -149.900; -764.000; -809.000
831.923; -105.675; -311.000; -447.000
832.174;  -78.500; -273.000; -331.000
832.426; -120.900; -493.000; -582.000
832.678; -188.775;-1043.000;-1091.000
832.929; -172.500; -947.000; -935.000
833.181;  -58.675; -575.000; -677.000
833.432;  -65.575;  -59.000; -186.000
833.684;  -26.300;  112.000;  -27.000
833.935; -125.875; -610.000; -566.000
834.187; -140.250; -829.000; -823.000
834.438;  -48.250;  -58.000;  -25.000
834.689;  -62.150; -255.000; -123.000
834.941;  -61.425; -343.000; -244.000
835.192; -103.000; -590.000; -533.000
835.443; -109.700; -419.000; -506.000
835.695;  -20.325;  138.000;  -16.000
835.946; -111.275; -608.000; -378.000
836.197; -110.275; -599.000; -622.000
836.448;  -94.925; -528.000; -395.000
836.699;  -65.750; -253.000; -341.000
836.950;  -15.625;   72.000;    7.000
837.201; -144.350;-1003.000; -987.000
837.452;  -61.125; -356.000; -170.000
837.703; -123.550; -791.000; -737.000
837.954;  -47.375; -205.000; -365.000
838.205;  -78.225;-1029.000;-1008.000
838.456;  182.075; -196.000; -282.000
838.707;   17.250; -423.000; -519.000
838.958;    3.425; -634.000; -647.000
839.209;  273.175;   18.000;   40.000
839.460;  133.275; -439.000; -201.000
839.710;  170.350; -135.000; -297.000
839.961;  420.525;  730.000;  612.000
840.212;  345.300; -382.000; -497.000
840.462; 1089.050; -328.000; -277.000
840.713;17483.175; -571.000; -536.000
840.964; 8308.925;  -62.000; -143.000
841.214;  527.025; -384.000; -624.000
841.465;  578.900; -214.000; -141.000
841.715;  539.050; -417.000; -380.000
841.966;  674.975; -746.000; -685.000
842.216; 8324.100; -330.000; -431.000
842.466;37017.125; -169.000; -313.000
842.717; 2454.700; -964.000; -952.000
842.967;  342.500; -635.000; -641.000
843.217;  310.450;   20.000;   28.000
843.468;   79.350; -104.000; -132.000
843.718;  -40.725; -718.000; -726.000
843.968;  -97.450; -837.000; -765.000
844.218;   12.100; -315.000; -262.000
844.469;  -54.275; -577.000; -561.000
844.719; -111.625; -537.000; -682.000
844.969; -101.700; -550.000; -580.000
845.219; -143.000; -814.000; -862.000
845.469;  -78.025; -392.000; -342.000
845.719; -141.150; -792.000; -884.000
845.969;  -32.125;  119.000;  174.000
846.219; -128.825; -738.000; -720.000
846.469;    5.400;  464.000;  432.000
846.718;  -44.500; -115.000;   31.000
846.968; -139.500; -827.000; -827.000
847.218;  -54.950; -224.000; -371.000
847.468;   -7.625; -586.000; -555.000
847.718; -149.075; -827.000; -798.000
847.967; -128.350; -826.000; -915.000
848.217;  -82.100; -449.000; -569.000
848.467;  -73.525; -405.000; -376.000
848.716; -116.650; -708.000; -725.000
848.966;  -11.975; -372.000; -358.000
849.215;  -52.050; -428.000; -419.000
849.465;  -91.025; -785.000; -615.000
849.714; -138.675;-1132.000;-1150.000
849.964;  -75.425; -551.000; -613.000
850.213;  -10.050; -393.000; -355.000
850.463;   59.575;  137.000;  340.000
850.712;   -5.550; -542.000; -567.000
850.961;   33.775; -739.000; -678.000
851.211;  106.875; -513.000; -504.000
851.460;  182.200; -635.000; -650.000
851.709;  545.375;  -25.000;   18.000
851.958; 9761.025; -912.000; -750.000
852.208;14130.750; -859.000; -879.000
852.457;  538.950; -181.000;  -13.000
852.706;   81.775; -791.000; -823.000
852.955;   20.500; -507.000; -528.000
853.204;  -72.000; -521.000; -461.000
853.453;  -84.725; -418.000; -458.000
853.702; -137.000; -660.000; -750.000
853.951; -114.025; -532.000; -520.000
854.200; -115.825; -613.000; -562.000
854.449; -138.350; -695.000; -661.000
854.698;  -97.900; -340.000; -279.000
854.946;  -80.950; -181.000; -284.000
855.195; -156.425; -843.000; -868.000
855.444; -101.250; -395.000; -420.000
855.693; -127.350; -345.000; -432.000
855.941; -106.825; -387.000; -516.000
856.190;  -68.400; -256.000; -382.000
856.439; -131.150; -652.000; -703.000
856.687;  -79.825;  -99.000;  -72.000
856.936; -135.475; -621.000; -323.000
857.184; -184.525;-1067.000;-1020.000
857.433; -122.125; -423.000; -512.000
857.681; -168.375; -989.000; -953.000
857.930;  -84.400; -282.000; -433.000
858.178; -169.475; -856.000; -929.000
858.427; -145.575; -802.000; -781.000
858.675; -114.325; -377.000; -544.000
858.923; -110.325; -527.000; -819.000
859.172; -179.725;-1094.000;-1070.000
859.420;  -91.500; -339.000; -239.000
859.668; -134.675; -624.000; -628.000
859.916;  -27.475;  109.000;  115.000
860.164; -124.250; -699.000; -603.000
860.413;  263.700; -878.000; -696.000
860.661;  262.500; -709.000; -577.000
860.909;  -92.425; -339.000; -325.000
861.157;  -90.075; -277.000; -444.000
861.405; -123.925; -534.000; -670.000
861.653;    6.075;  310.000;  310.000
861.901;  149.325; -543.000; -613.000
862.149;   16.425; -801.000; -824.000
862.396;  -85.450; -297.000; -187.000
862.644;  -91.450; -368.000; -347.000
862.892;  -46.275;   98.000;  138.000
863.140; -117.725; -549.000; -530.000
863.388; -168.550; -815.000; -759.000
863.635; -133.175; -642.000; -601.000
863.883;  -26.675;  231.000;  190.000
864.131; -105.100; -288.000; -357.000
864.378; -150.325; -675.000; -540.000
864.626; -114.325; -347.000; -415.000
864.873; -135.700; -556.000; -505.000
865.121; -155.175; -714.000; -799.000
865.368;  -50.975; -173.000;   75.000
865.616;  -45.325;  -33.000;  -40.000
865.863;  -86.900; -462.000; -506.000
866.111; -100.600; -795.000; -824.000
866.358;   26.500; -426.000; -420.000
866.605; 2082.750;  -64.000; -804.000
866.853; 2491.650; -621.000; -537.000
867.100;  -33.025; -728.000; -775.000
867.347; -109.475; -672.000; -611.000
867.594;  -90.175; -740.000; -714.000
867.841;   78.100;   97.000;   17.000
868.089; -147.100; -746.000; -698.000
868.336; -123.525; -477.000; -420.000
868.583; -129.700; -637.000; -741.000
868.830;  -73.075; -131.000; -170.000
869.077; -165.975; -859.000; -787.000
869.324; -132.525; -502.000; -458.000
869.571; -132.975; -398.000; -430.000
869.818; -129.525; -485.000; -439.000
870.065; -109.025; -439.000; -513.000
870.311; -118.475; -456.000; -542.000
870.558; -122.175; -332.000; -311.000
870.805;  -90.225; -320.000; -384.000
871.052; -122.350; -494.000; -369.000
871.298;  -67.500; -204.000; -131.000
871.545;  -72.650; -151.000; -185.000
871.792;  -91.250; -173.000; -222.000
872.038;  -66.275;   43.000; -126.000
872.285; -132.225; -496.000; -387.000
872.532; -111.000; -357.000; -387.000
872.778;    2.550;  556.000;  403.000
873.025; -106.150; -384.000; -359.000
873.271;    5.700;  501.000;  578.000
873.517;  -38.300; -133.000; -209.000
873.764;  -49.025; -193.000;  -80.000
874.010;  -72.575; -143.000; -230.000
874.257;  -36.200;  123.000;   90.000
874.503; -137.175; -579.000; -479.000
874.749;  -86.000;   31.000;  275.000
874.995;  -71.275;  -80.000;  -20.000
875.242; -139.175; -540.000; -478.000
875.488; -105.425; -414.000; -439.000
875.734;  -56.775; -106.000; -234.000
875.980;  167.675; -872.000;-1032.000
876.226;  404.125; -157.000; -255.000
876.472;   -3.500;  343.000;  237.000
876.718;  -45.500;  184.000;  158.000
876.964;  -58.700;   56.000;   55.000
877.210; -152.425; -547.000; -677.000
877.456; -133.300; -630.000; -557.000
877.702; -185.750; -821.000; -832.000
877.948; -127.575; -377.000; -497.000
878.193;  -28.000;  361.000;  255.000
878.439; -100.950; -487.000; -472.000
878.685; -103.975; -272.000; -343.000
878.931; -130.425; -618.000; -676.000
879.176;  -96.000; -201.000; -201.000
879.422; -180.250; -933.000; -820.000
879.668;   46.575;   10.000;   79.000
879.913;  137.275;   53.000;  137.000
880.159;  -73.450; -112.000;  -17.000
880.404;  -63.050; -152.000; -162.000
880.650;  -51.975;   91.000;  141.000
880.895; -160.750; -670.000; -710.000
881.141; -136.925; -454.000; -428.000
881.386; -151.025; -503.000; -658.000
881.631; -103.225; -311.000; -166.000
881.877;  -48.900;  112.000;  -13.000
882.122; -146.400; -684.000; -600.000
882.367;  -93.550; -136.000; -186.000
882.612;  -84.000;  -80.000; -176.000
882.858; -184.325; -877.000; -823.000
883.103; -112.625; -297.000; -267.000
883.348; -148.525; -759.000; -852.000
883.593; -149.925; -677.000; -602.000
883.838;  -72.725; -311.000;  -24.000
884.083;   24.075;  353.000;  288.000
884.328;  -98.700; -564.000; -545.000
884.573;  -73.825; -196.000; -143.000
884.818;  172.900; -694.000; -531.000
885.063;  203.225; -348.000; -315.000
885.308; -109.250; -475.000; -398.000
885.553;  -14.575;  245.000;  325.000
885.797; -143.100; -545.000; -615.000
886.042;  -59.475;    8.000;   58.000
886.287; -101.275; -253.000; -211.000
886.532;  -64.800;   26.000;  204.000
886.776; -103.425; -407.000; -525.000
887.021; -152.700; -621.000; -574.000
887.265; -160.500; -685.000; -689.000
887.510; -149.350; -557.000; -496.000
887.755; -106.100; -194.000; -164.000
887.999; -148.775; -552.000; -575.000
888.244;  -65.600;  -58.000;  161.000
888.488;  -12.000;  371.000;  393.000
888.732; -145.100; -368.000; -520.000
888.977; -132.025; -622.000; -567.000
889.221; -161.375; -683.000; -659.000
889.465; -137.475; -422.000; -566.000
889.710;  -90.950;  -56.000; -299.000
889.954;  -17.075;  579.000;  467.000
890.198; -160.100; -584.000; -707.000
890.442; -171.550; -716.000; -712.000
890.687; -174.000; -800.000; -753.000
890.931;  -95.500; -273.000; -210.000
891.175; -131.050; -502.000; -500.000
891.419;  -99.400; -105.000; -110.000
891.663;  -91.375; -239.000; -112.000
891.907; -170.875; -801.000; -545.000
892.151; -180.475; -920.000; -815.000
892.395; -122.200; -274.000; -387.000
892.638;  -25.275;  408.000;  291.000
892.882; -184.750; -780.000; -867.000
893.126;   -4.775;  758.000;  558.000
893.370;  -92.800; -167.000; -168.000
893.614; -143.225; -714.000; -715.000
893.857; -108.275; -183.000; -197.000
894.101; -137.750; -527.000; -631.000
894.345;  -65.950;  300.000;  150.000
894.588;   -3.000;  569.000;  380.000
894.832; -110.450; -178.000;  -84.000
895.075;  -79.350;   15.000;  -92.000
895.319; -137.925; -552.000; -420.000
895.563; -127.450; -413.000; -353.000
895.806; -151.125; -628.000; -741.000
896.049;  -67.150; -576.000; -368.000
896.293;   97.675;  527.000;  405.000
896.536;  -82.075; -465.000; -468.000
896.779;  -75.775; -149.000;   -1.000
897.023; -142.550; -751.000; -714.000
897.266;  -56.450;  325.000;  269.000
897.509; -188.000; -900.000; -901.000
897.752;  -63.100;  149.000;  171.000
897.996; -191.575; -972.000; -864.000
898.239;  -60.850;  168.000;  102.000
898.482; -149.500; -431.000; -453.000
898.725;  -52.750;  101.000;   53.000
898.968; -149.200; -609.000; -744.000
899.211; -131.625; -513.000; -361.000
899.454; -137.275; -633.000; -539.000
899.697;  -78.500;   90.000;  -43.000
899.940; -186.250; -761.000; -757.000
900.182; -115.875; -335.000; -405.000
900.425;  -88.775; -150.000; -298.000
900.668;  -19.400;  491.000;  350.000
900.911; -114.975; -292.000; -345.000
901.154;  -52.200;  141.000;   -3.000
901.396; -146.900; -407.000; -412.000
901.639; -158.000; -430.000; -496.000
901.882; -184.925; -790.000; -809.000
902.124; -108.700;  -29.000; -143.000
902.367; -120.100; -315.000; -361.000
902.609; -142.950; -476.000; -453.000
902.852;  -98.450; -108.000; -260.000
903.094; -123.625; -458.000; -337.000
903.337;  -62.550;  -26.000;   53.000
903.579; -120.275; -228.000; -441.000
903.821; -160.325; -597.000; -744.000
904.064;  -62.050;   85.000;  127.000
904.306;  -92.675; -126.000; -166.000
904.548; -107.900; -152.000; -366.000
904.790; -100.800; -195.000; -340.000
905.033; -142.725; -625.000; -577.000
905.275; -136.500; -513.000; -524.000
905.517;   32.975;  468.000;  256.000
905.759;  -68.450; -667.000; -761.000
906.001; -115.625; -322.000; -369.000
906.243;  -81.125; -162.000; -224.000
906.485;   87.500; -265.000; -207.000
906.727;  122.175; -499.000; -542.000
906.969;  -46.300;  -30.000; -135.000
907.211;  112.950; -316.000; -382.000
907.453;  294.275; -188.000; -237.000
907.695;    3.025; -158.000; -385.000
907.936;   33.500;  818.000;  706.000
908.178;  -51.675;   92.000; -135.000
908.420;  -82.100; -111.000; -162.000
908.662; -141.875; -633.000; -682.000
908.903;  -96.200; -208.000; -123.000
909.145;  -75.625; -240.000; -305.000
909.386;  -15.075;  315.000;  280.000
909.628;   18.325;  363.000;  397.000
909.870;   -6.850;   29.000;  264.000
910.111;  -89.175; -809.000; -949.000
910.353;   -8.075; -123.000; -161.000
910.594;    7.225; -574.000; -606.000
910.835;   87.300; -265.000; -326.000
911.077;  170.100; -503.000; -604.000
911.318;  288.300; -505.000; -471.000
911.559;  467.875; -577.000; -880.000
911.801; 1327.475; -284.000; -280.000
912.042; 9951.975;  -50.000; -159.000
912.283;28639.300;  404.000;  371.000
912.524; 5104.375; -396.000; -457.000
912.765;  554.075; -193.000;   79.000
913.006;  267.850; -307.000; -338.000
913.247;   60.125; -270.000; -290.000
913.488;   -0.525;  -43.000;   30.000
913.729;  -80.700; -373.000; -373.000
913.970;  -80.600;  -96.000; -292.000
914.211;  -68.250; -160.000; -198.000
914.452;  -62.000; -118.000;  -11.000
914.693;   11.725;  510.000;  592.000
914.934;   -0.600;  510.000;  440.000
915.175;  -66.300;   53.000;  -95.000
915.415;  -80.775; -137.000;   27.000
915.656;  -79.775;  -28.000;  192.000
915.897;  -96.000; -252.000;  -82.000
916.137;  -80.400;   74.000;   -9.000
916.378; -117.950; -573.000; -517.000
916.619;  -96.800; -159.000;  -63.000
916.859;  -35.500;  303.000;  330.000
917.100;  129.950; 1655.000; 1070.000
917.340;   35.050;  930.000;  728.000
917.581;   44.800;  965.000;  789.000
917.821;  -35.475; -171.000;  143.000
918.061;   -0.225; -199.000;  -72.000
918.302;  -51.225; -152.000; -211.000
918.542;  -40.725;  -22.000;    3.000
918.782;   32.025;  369.000;  377.000
919.023;  121.825;  360.000;  427.000
919.263; 1679.550; 8131.000;  202.000
919.503; 1187.850; -137.000;  -54.000
919.743;  644.675;  390.000;  266.000
919.983;  303.800; -134.000;  -26.000
920.223;   90.375;  135.000;   14.000
920.463;  136.925;  631.000;  554.000
920.703;  140.725;   84.000;   39.000
920.943;  170.050; -110.000;   90.000
921.183;  235.775; -414.000; -405.000
921.423;  512.000;  307.000;  546.000
921.663;  731.850; -174.000; -257.000
921.903; 1548.575;  237.000;  173.000
922.143; 8301.475;  372.000;  389.000
922.383;33812.175;  158.000;  115.000
922.622;13226.525; -120.000;  -15.000
922.862; 1352.525;  796.000;  785.000
923.102;  511.300;  -51.000;   33.000
923.341;  211.950;   59.000;   74.000
923.581;   88.950;  450.000;  360.000
923.821;   22.925;  301.000;  398.000
924.060;   17.725;  351.000;  193.000
924.300;  -58.675;  -16.000; -128.000
924.539;  -19.800;  584.000;  473.000
924.779;    0.550;  812.000;  597.000
925.018;  -56.525;  247.000;  353.000
925.257;  -16.925;  595.000;  666.000
925.497;  -42.550;  447.000;  412.000
925.736;  -80.175;  -35.000;  102.000
925.975;   -6.150;  687.000;  669.000
926.214;    5.650;  907.000;  850.000
926.454;   12.875;  706.000;  757.000
926.693;  -48.250;  419.000;  543.000
926.932;   33.425; 1021.000;  825.000
927.171;   52.125; 1107.000; 1044.000
927.410;   55.300; 1144.000;  967.000
927.649;   21.800;  924.000;  742.000
927.888;   -9.825;  590.000;  564.000
928.127;   -9.125;  680.000;  678.000
928.366;   13.650;  842.000;  826.000
928.605;   34.100;  831.000;  737.000
928.844;  222.650; 1451.000; 1393.000
929.083;  588.900;  770.000;  613.000
929.321;  340.350; 1335.000; 1359.000
929.560;   94.900; 1158.000; 1122.000
929.799;  -35.300;  574.000;  475.000
930.038;   76.450; 1025.000; 1394.000
930.276;  -49.075;  334.000;  397.000
930.515;   -3.100;  827.000;  681.000
930.753;  -28.425;  614.000;  589.000
930.992;  -40.875;  664.000;  717.000
931.230;  -17.500;  847.000;  847.000
931.469;  165.225; 2162.000;  892.000
931.707;   64.475;  840.000;  751.000
931.946;   65.125; 1278.000; 1344.000
932.184;   49.550; 1437.000; 1175.000
932.423;   37.175; 1265.000;  963.000
932.661;   82.475; 1296.000; 1428.000
932.899;   15.350;  987.000;  821.000
933.137;    7.425;  754.000;  564.000
933.376;  145.550; 1664.000; 1335.000
933.614;  158.225; 1759.000; 1196.000
933.852;   32.250; 1357.000; 1171.000
934.090;  126.550; 1722.000; 1747.000
934.328;  103.775; 1252.000; 1457.000
934.566;   84.325; 1431.000; 1110.000
934.804;  127.875; 1263.000; 1309.000
935.042;  426.825; 1861.000; 1850.000
935.280; 1686.225; 2088.000; 2063.000
935.518; 1814.700; 2113.000; 2007.000
935.756;  396.225; 2481.000; 2316.000
935.994;  166.500; 1808.000; 1751.000
936.231;  333.575; 2890.000; 2950.000
936.469;  188.675; 2367.000; 2378.000
936.707;  150.225; 2220.000; 2167.000
936.945;  221.675; 2825.000; 2882.000
937.182;  183.850; 2679.000; 2741.000
937.420;  290.100; 3602.000; 3031.000
937.657;  404.325; 3365.000; 3478.000
937.895;  372.075; 3331.000; 3488.000
938.133;  313.925; 3540.000; 3528.000
938.370;  322.325; 3896.000; 4191.000
938.607;  388.950; 4488.000; 4205.000
938.845;  532.250; 5587.000; 5549.000
939.082;  454.950; 5387.000; 5177.000
939.320;  530.875; 5799.000; 5728.000
939.557;  632.475; 6549.000; 6491.000
939.794;  719.000; 7285.000; 7097.000
940.031;  908.900; 8421.000; 8368.000
940.269; 1122.275; 9552.000; 9107.000
940.506; 1102.425;10901.000;10507.000

