
Integration time [ms]: 100.000
Averaging Nr. [scans]: 40
Smoothing Nr. [pixels]: 0
Data measured with spectrometer [name]: 2101013U2
Wave   ;Sample   ;Dark     ;Reference
[nm]   ;[counts] ;[counts] ;[counts] 

394.013;   81.608; -450.257; -315.536
394.305;  253.580; -461.258; -419.536
394.596; 1154.473; -676.269; -527.514
394.887; 2778.916; -796.268; -654.518
395.178; 1060.447;  145.736;   11.476
395.470;   93.109; -210.263; -356.526
395.761;  235.531;  305.734;  394.479
396.052;  380.418; -545.284; -306.489
396.343;  368.591; -557.276; -454.503
396.634;  117.383; -200.279; -290.497
396.926;  134.813; -618.268; -565.517
397.217;  120.396;   11.725;  -17.504
397.508;   65.412; -366.273; -154.507
397.799;   63.183; -555.279; -571.497
398.090;   14.128; -973.280; -902.495
398.381;  121.040;   11.708;  -11.473
398.672;    5.492; -585.292; -742.473
398.963;   64.540; -348.279; -373.498
399.254;  116.651;   54.709; -209.475
399.545;  -28.697;-1017.266; -883.520
399.836;   75.929; -407.277; -343.501
400.127;   60.666; -205.295; -209.468
400.418;   60.956; -423.274; -392.506
400.709;   79.789; -359.281; -333.493
401.000;   55.830; -268.291; -309.476
401.290;  101.150;  225.698;  115.545
401.581;   72.450; -166.286; -228.485
401.872;   34.712; -542.298; -486.462
402.163;   70.233; -313.296; -252.467
402.454;   99.952; -123.291; -163.475
402.744;   75.324; -844.297; -813.465
403.035;  457.656; -226.293;  -86.471
403.326;  602.220; -366.292; -384.474
403.617;  388.581;  204.701;  165.539
403.907;  249.624; -593.283; -679.490
404.198; 2469.177; -545.307; -599.446
404.489; 6421.829; -618.283; -588.491
404.779; 2110.853; -618.302; -660.456
405.070;  251.531;  -67.304; -174.451
405.360;  357.633; -259.293; -238.472
405.651;  376.940;  125.699;   98.542
405.942;  192.420;  209.714;  127.516
406.232;  287.461; -432.285; -413.487
406.523;  493.926;  641.706;  758.530
406.813;  113.848; -579.286; -644.484
407.104;  378.489;  261.708;  144.527
407.394;  202.182; -604.299; -591.462
407.685;  155.260;  336.715;  222.513
407.975;   80.803; -400.283; -382.490
408.265;  129.867; -134.289; -190.478
408.556;   66.948; -472.291; -459.475
408.846;  168.827;  474.706;  429.530
409.137;   95.700;   -1.288; -216.480
409.427;   64.160; -193.285; -271.487
409.717;   43.515; -776.273; -692.508
410.007;  163.479;    4.715; -170.486
410.298;  108.268; -360.295; -342.469
410.588;   83.358; -495.285; -510.486
410.878;   57.962; -792.287; -873.482
411.168;  116.189; -481.298; -478.463
411.459;  127.322; -295.283; -242.489
411.749;   72.797; -609.292; -507.474
412.039;   96.474; -755.289; -386.480
412.329;  211.547;   40.722;  132.501
412.619;  200.723;  -62.286; -148.485
412.909;  377.545;  639.711;  594.521
413.199;  355.403; -130.280; -251.495
413.490;  408.960;  521.710;  352.523
413.780;  149.132;-1013.279; -913.496
414.070;  346.592;  -46.276;  235.497
414.360;  394.268; -729.278; -666.498
414.650;  435.383; -726.288; -688.482
414.940;  566.731; -538.280; -441.496
415.230;  968.955;   50.712;   74.519
415.520; 6252.898;  155.730;   66.486
415.809;24827.389; -305.281; -125.493
416.099;18708.307; -388.277; -229.501
416.389; 5279.154;  435.726;  236.494
416.679; 3078.638;   91.738;   85.473
416.969;  543.142; -527.287; -503.483
417.259;  501.234;  341.721;  171.503
417.549;  718.937;  522.718;  318.508
417.838; 1680.640; -205.268; -147.518
418.128; 5640.540;  650.710;  492.522
418.418; 4633.697; -491.272; -579.509
418.708; 3123.929;    9.726;  -48.506
418.997;11935.650; -474.275; -480.505
419.287;12221.586; -733.273; -790.507
419.577;11563.922; -160.283; -123.489
419.866;38832.205; -588.277; -498.501
420.156;39585.168; -242.270;  -55.513
420.446; 6927.905; -112.263;  -26.526
420.735;  895.912; -376.271; -446.512
421.025;  811.742; 1830.722;  315.502
421.314;  692.735; -203.271; -226.512
421.604; 1458.733;   89.732;  233.484
421.893;  869.056; -705.271; -602.511
422.183;  246.080; -487.263; -461.526
422.472;  415.158;  -36.271; -107.511
422.762;  463.284; -416.266; -379.521
423.051;  292.642; -916.276; -916.503
423.341;  325.788; -491.273; -439.507
423.630;  433.790; -121.265;   15.477
423.919;  396.524;   58.725;   49.495
424.209;  393.911;  -31.263;   56.473
424.498;  516.362;   68.732;  161.483
424.787; 1135.869; -535.267; -601.518
425.077; 3415.288;   34.735;   29.478
425.366; 4810.017; -734.262; -744.528
425.655; 9972.264;  639.727;  259.493
425.945;21928.001; -313.247; -268.554
426.234;11822.465;  117.741;  300.467
426.523; 5233.121;  -86.259; -350.534
426.812; 7075.729;  107.734;  159.480
427.101;10477.929; -127.269; -323.515
427.390;13058.997;  -55.270;  -86.514
427.680; 2935.841; -624.257; -411.538
427.969;  489.327; -330.255; -301.540
428.258;  354.932; -385.257; -477.536
428.547;  556.001;  449.728;  397.490
428.836; 1278.669; -421.253; -398.543
429.125; 1850.973; -199.259;  -72.534
429.414;  831.668; -330.251; -294.548
429.703; 3215.668; -231.251; -213.548
429.992; 9626.396; -938.250; -828.549
430.281; 6171.923; -397.264; -331.524
430.570;  621.358;  -21.252;   32.454
430.859;  587.545;  279.741;  352.466
431.148;  464.846;  636.752;  631.446
431.437;  295.107;  391.748;  367.454
431.725;  162.984; -544.257; -481.536
432.014;  130.452; -845.253; -756.545
432.303;  399.450; -149.239; -105.569
432.592;  653.680; -460.263; -178.525
432.881; 1087.748; -601.248; -437.554
433.169; 6296.228; -343.255;  -61.540
433.458;12839.135;  445.765;  540.424
433.747; 5264.197; -397.261; -289.529
434.036;  917.750; -275.242; -280.564
434.324; 2128.659; -395.249; -379.551
434.613; 3699.343;   40.757;  159.437
434.902; 1201.515;  333.760;  439.433
435.190;  587.824;   75.761;  295.431
435.479;  323.924;  -52.245;   83.441
435.767;  122.633; -411.244; -427.561
436.056;  234.520; -340.242; -294.563
436.345;  387.192; -372.240; -223.568
436.633;  404.654;   60.750;  383.450
436.922;  273.044;  208.760;  414.432
437.210;  609.975; -194.236;    1.426
437.499; 1951.858; -583.235; -432.576
437.787; 2125.949; -339.236;  -10.574
438.075;  547.280;   56.761;  162.430
438.364;  777.532;  -44.238;  250.429
438.652;  469.691; -286.226; -138.592
438.941;  144.454;    3.770;  269.415
439.229;   16.230; -665.252; -466.545
439.517;   39.292; -160.234;  -85.577
439.806;   15.882; -501.225; -290.595
440.094;  183.300;  377.766;  650.421
440.382;  206.554; -653.233; -302.580
440.670;  228.208; -361.235; -285.576
440.959;   39.675; -347.223; -170.599
441.247;   83.165; -151.229; -109.587
441.535;  114.865; -266.235;   31.423
441.823;   50.622; -497.234; -305.578
442.111;  198.245;  173.771;  327.412
442.400;  565.149; -628.245; -335.559
442.688; 1429.824; -111.234; -620.579
442.976; 1002.141; -786.213; -450.617
443.264;  109.089; -324.224; -364.597
443.552;   97.992; -258.226;   51.408
443.840;  168.564;  602.765;  876.423
444.128;  117.003;  265.767;  269.420
444.416;    4.222; -694.228; -312.588
444.704;   42.406; -465.219;  -92.605
444.992;   85.820;   -0.226;  240.407
445.280;   59.654; -517.230;  -94.585
445.568;   61.170; -694.212; -396.618
445.856;  353.814; -174.221;  357.398
446.143;  797.002;  -54.220;   -7.604
446.431;  641.726;  -25.228;  625.411
446.719;  266.051;  489.783;  675.391
447.007;  183.423;  481.769;  705.416
447.295;  195.622;  597.777;  871.402
447.583;  101.088; -464.229;  -34.587
447.870;  166.811; -434.221; -202.601
448.158;  424.453; -104.230;  129.415
448.446;  345.703; -800.219; -338.604
448.733;  187.291;   13.776;  269.403
449.021;  280.995;   60.788;  341.382
449.309;  175.885; -296.210;  208.379
449.596;  215.297;  128.783;   59.392
449.884;  153.379; -571.222; -325.600
450.172;  167.532; -756.227; -406.590
450.459;  441.149;  645.786;  780.387
450.747; 2415.245; -411.218; -147.608
451.034; 7789.227;  493.772;  889.411
451.322; 6300.727; -413.214; -170.614
451.609;  526.667;  292.777;  508.403
451.897;  614.675; -550.203; -183.634
452.184; 1842.822; -622.223; -400.598
452.472; 1706.732;   97.792;  269.375
452.759;  361.254;  512.781;  864.395
453.047;  135.592; -407.212; -125.617
453.334;   91.637; -732.219; -216.606
453.621;   85.929; -438.214; -161.615
453.909;  109.242;   13.796;  384.368
454.196;  107.314; -299.199; -123.641
454.483;  214.714;  317.798;  540.364
454.771;  135.610; -215.208;  196.374
455.058;   30.664; -316.207;  102.374
455.345;  108.946;   71.807;  344.347
455.632;  103.867; -128.207;  235.373
455.919;   47.838;  -82.196;  182.354
456.207;  -42.831; -774.198; -450.642
456.494;   -4.649; -475.200;  -66.639
456.781;   17.934; -399.202; -198.635
457.068;   78.624; -253.206;  -29.628
457.355;  -11.925; -698.206; -401.629
457.642;   12.081; -552.205; -290.630
457.929;    9.712; -778.194; -417.651
458.216;   75.067; -575.212; -354.617
458.503;  236.567; -173.193;  -19.652
458.790;  249.158; -864.208; -630.625
459.077;  270.239;  -77.202;  110.364
459.364;  807.430; -350.195; -210.649
459.651; 1729.422;  -46.206;  220.372
459.938;  782.448; -864.209; -665.623
460.225;  145.593;  132.799;  276.363
460.512;  -21.915; -836.197; -688.645
460.799;  109.394;  -32.218;  320.392
461.086;   82.006; -370.200; -251.640
461.372;   34.519; -509.198; -279.642
461.659;  112.039; -165.196;  108.354
461.946;   64.141; -445.193;  -54.651
462.233;  232.029;  842.800;  888.361
462.519;  359.950; -814.201; -464.639
462.806; 1055.910; -768.197; -497.645
463.093;  885.512; -445.191;  -66.656
463.380;  -17.645; -920.186; -824.664
463.666;   60.087; -259.197;  -18.646
463.953;   93.474; -406.195; -243.648
464.239;  193.649; -173.195;  -77.648
464.526;  399.811;  413.806;  743.350
464.813;  359.899; -565.190; -304.658
465.099;  374.342;  606.807;  607.348
465.386;  319.721;  903.807;  921.348
465.672;   54.610; -694.197; -522.645
465.959;   27.443; -598.188; -520.662
466.245;   32.046; -468.193; -359.652
466.532;  103.647; -109.195;   63.352
466.818;   81.154; -357.186; -216.664
467.104;   13.121; -488.182; -415.672
467.391;  -11.099; -628.189; -459.658
467.677;   34.858; -289.186;    9.335
467.964;   14.708; -682.189; -471.660
468.250;   77.336; -331.186; -160.665
468.536;   87.377;   90.811;  180.341
468.822;  -24.127; -821.184; -574.668
469.109;  153.205;  351.827;  471.311
469.395;  201.856;  729.808;  787.346
469.681;  200.880;   46.811;  156.341
469.967; 1281.460; -699.188; -382.660
470.254; 2776.568; -494.188; -306.662
470.540; 1718.637; -601.196; -476.646
470.826;  275.333; -488.181; -397.675
471.112;  310.152;  288.816;  113.331
471.398;  102.532; -253.183;  -58.670
471.684;   51.837; -626.177; -447.680
471.970;   10.162; -918.180; -981.675
472.256;   22.555; -521.192; -441.654
472.542;   19.091; -499.171; -434.691
472.828;   22.517; -743.182; -607.672
473.114;   35.211; -380.166; -283.700
473.400;   22.629; -504.175; -293.684
473.686;   40.468; -452.166; -400.701
473.972;   50.069; -230.174; -131.687
474.258;  -34.345; -925.173; -843.689
474.544;  187.378; -183.178;   -2.679
474.830;  327.431;  -65.175;   45.316
475.116;  485.551; -123.190; -196.658
475.401;  669.389; -558.180; -467.676
475.687;  183.713; -725.180; -718.676
475.973;    5.775; -673.181; -770.673
476.259;  247.558;  736.825;  764.315
476.544;  376.795; -539.176; -437.682
476.830;  823.362; -398.172; -322.690
477.116;  702.319; -430.177; -336.682
477.401;  129.163;  346.820;  358.324
477.687;   -2.696; -289.175; -405.684
477.973;   36.929;   21.819;   28.326
478.258;    6.914; -448.163; -348.706
478.544;   57.966;   21.815;   61.334
478.829;  -41.728; -818.171; -738.692
479.115;  -33.288; -749.172; -651.690
479.401;    2.315; -444.174; -449.686
479.686;   39.887; -253.180;  -74.676
479.972;  -26.241; -886.178; -776.680
480.257;   37.913; -258.166;  -65.700
480.542;   11.576; -614.170; -469.693
480.828;  224.877; 1288.824; 1392.317
481.113;  -24.150; -464.176; -426.683
481.399;    1.089; -236.161; -202.711
481.684;  -42.763; -620.166; -462.700
481.969;   19.478; -158.159;  -73.713
482.255;   -6.063; -439.169; -285.695
482.540;    7.459; -569.178; -441.680
482.825;   11.775; -395.187; -404.663
483.110;   98.515;  -85.169; -105.696
483.396;  195.775; -840.157; -652.718
483.681;  491.869;  543.826;  730.313
483.966;  177.946; -696.160; -700.712
484.251;   13.718; -404.174; -310.687
484.536;    1.673; -356.165; -378.703
484.822;   17.921; -205.173; -218.687
485.107;  -20.160; -599.152; -502.726
485.392;  122.429;  662.836;  541.296
485.677;   75.451;  354.832;  163.302
485.962;  109.522;  160.843;  270.283
486.247;   87.147;  -14.162;   -8.707
486.532;   44.414; -178.166; -325.701
486.817;  171.158;  381.839;  431.291
487.102;  118.997; -453.154; -514.722
487.387;  668.127; -637.156; -652.718
487.672; 1182.535; -154.164;  -38.705
487.957;  728.940; -394.160; -286.711
488.241;  204.757; -290.150; -314.729
488.526;  731.666; -280.152; -148.726
488.811; 1201.961; -881.177; -818.680
489.096;  885.125; -666.154; -702.723
489.381;  502.087;    3.847;  162.275
489.666;  388.438; -428.161; -510.710
489.950;  161.128;  558.846;  627.277
490.235;  -24.748; -480.151; -458.728
490.520;  -41.013; -756.161; -723.710
490.804;  -39.821; -827.156; -736.719
491.089;    5.748; -469.149; -299.732
491.374;   43.758; -132.164;  -75.704
491.658;   16.510; -817.147; -717.735
491.943;  190.620; -657.152; -609.727
492.227;  278.868; -178.155;  -38.721
492.512;   63.197; -294.157; -341.717
492.797;  -65.058; -713.149; -716.731
493.081;  -21.637; -588.147; -598.735
493.366;  -27.786; -751.161; -635.711
493.650;  205.418;  831.859;  917.254
493.935;   23.209; -648.147; -447.734
494.219;  -29.420; -778.142; -687.743
494.503;  -15.538; -585.150; -487.730
494.788;   40.513;   46.842;   74.285
495.072;  111.858;  184.850;  434.271
495.356;  181.327; -463.148; -343.733
495.641;  467.345; -812.146; -736.736
495.925;  453.334; -976.156; -903.719
496.209;   44.248; -599.149; -451.732
496.494;  -34.370; -763.142; -544.744
496.778;   19.997; -364.154; -360.722
497.062;  -45.666; -819.156; -627.719
497.346;  -20.333; -869.160; -640.711
497.631;  151.880;  580.852;  560.266
497.915;   65.281;  -64.145;  175.261
498.199;   85.200; -341.157; -277.718
498.483;   48.789; -562.152; -508.725
498.767;  203.734;  301.850;  300.271
499.051;  186.445; -126.149; -100.732
499.335;   40.593; -693.149; -739.731
499.619;  -27.277; -381.129; -423.767
499.903;   33.466; -272.155;  -65.721
500.187;   32.254; -588.153; -316.724
500.471;   39.745; -796.152; -595.727
500.755;  123.363;   62.839;  -96.710
501.039;   35.867; -270.155; -357.721
501.323;   75.120;  -21.141;  264.254
501.607;   47.139; -447.163; -503.706
501.891;   -1.848; -607.156; -512.718
502.174;  -31.358; -726.144; -585.741
502.458;   74.299;   89.849;  370.273
502.742;   40.620; -180.138; -191.751
503.026;  113.009; -412.147; -254.734
503.310;  190.526; -437.159; -375.713
503.593;  127.811; -464.147; -325.735
503.877;  130.036; -232.133; -156.760
504.161;  195.357;    2.847;  -50.724
504.444;  157.791; -841.158; -710.716
504.728;  459.357; -487.164; -522.704
505.012;  728.906; -257.150;  -76.729
505.295;  551.664; -417.161; -212.711
505.579;  553.133; -256.156; -496.719
505.862;  750.027; -555.145; -333.738
506.146;  752.954; -681.159; -758.714
506.429;  399.355;  568.841;  461.286
506.713;   74.328; -732.151; -667.728
506.996;  327.496;   90.846;  295.278
507.280;  358.802; -633.165; -474.703
507.563;  238.865; -469.155; -261.721
507.847;  113.130; -423.153; -112.724
508.130;   87.790; -665.161; -456.711
508.413;  116.208; -758.167; -577.700
508.697;  238.783; -151.167;   12.300
508.980;  148.582; -422.153; -312.724
509.263;    3.686; -466.155; -450.720
509.547;   38.356; -124.150;   82.271
509.830;   39.867; -172.160;  140.289
510.113;   94.908;  128.844;  298.281
510.396;   29.238; -530.152; -300.725
510.680;  187.678; -818.145; -812.738
510.963;  637.301;  184.846;  180.277
511.246;  557.889; -493.150; -357.730
511.529;  268.783; -482.145;  -83.739
511.812;  375.658; -250.134;   10.241
512.095;  274.100; -740.151; -396.728
512.378;   95.165; -317.147; -245.736
512.661;   42.102; -703.137; -623.753
512.944;   42.682; -750.142; -637.744
513.227;   67.700; -170.137; -171.752
513.510;   33.667; -479.144; -671.741
513.793;   42.849; -485.140; -435.747
514.076;  137.494;  -43.127;  -39.771
514.359;  124.598; -294.149; -135.732
514.642;   94.635; -442.142; -567.744
514.925;  749.098;  581.860;  561.253
515.208; 1034.079; -498.134; -443.758
515.491;  658.868; -276.133; -182.761
515.773;  390.846; -410.143; -337.742
516.056; 2111.859;  249.864;  409.246
516.339; 2864.013; -754.136; -652.755
516.622; 1905.636; -518.150; -488.730
516.904; 1298.653;  882.857;  975.257
517.187;  598.873; -730.138; -523.752
517.470;  396.252; -568.143; -510.743
517.752;  442.566; -624.136; -470.756
518.035;  349.435; -708.139; -725.749
518.318;  361.888; -799.136; -744.755
518.600; 2397.022; -300.132; -325.762
518.883; 3330.934;  310.858;   88.256
519.165; 1588.266; -585.138; -426.751
519.448;  401.447;  -61.132;  -19.762
519.730;  217.402; -573.126; -415.773
520.013;  317.839;  588.867;  664.240
520.295;  873.859;  -94.134;  -15.759
520.578; 1974.535; -335.131; -305.764
520.860; 2190.172; -254.132;   56.238
521.143; 1125.743; -763.135; -584.756
521.425;  482.090; -251.125; -279.775
521.707;  656.295; -622.127; -380.771
521.990; 1779.495; -199.127;  167.229
522.272; 2024.126; -116.140;   -4.748
522.554;  910.597; -237.143; -157.742
522.836;  387.782;  -24.134;   99.241
523.119;  225.833; -496.148; -189.734
523.401;  164.892; -448.130; -314.766
523.683;  106.678; -865.137; -693.753
523.965;  264.296;  408.862;  260.248
524.247;  270.287;   54.878;  170.220
524.529;  198.009; -451.134; -367.759
524.812;  363.469;   -3.130;  191.234
525.094;  856.270; -773.138; -631.751
525.376; 1379.300; -143.124;   78.223
525.658;  829.435; -441.136; -339.754
525.940;   33.057; -805.131; -671.764
526.222;   43.739; -188.136;  -88.755
526.504;  124.605; -190.131;   32.237
526.786;  200.912; -960.133; -647.760
527.068;  317.681; -124.123;  -67.778
527.349;  136.707; -865.137; -774.754
527.631;  133.571; -137.132;   22.238
527.913;  134.669; -664.127; -450.771
528.195;  174.708; -761.125; -639.774
528.477;  247.154;  -93.134;  -30.758
528.759;  147.094; -648.130; -522.766
529.040;   63.529; -569.123; -293.778
529.322;   75.811; -235.125;  -10.774
529.604;  140.496;  -47.130;   93.233
529.886;  152.902; -546.126; -302.773
530.167;  136.488;  232.870;  192.235
530.449;   58.864;    1.853;   63.265
530.731;   31.287; -572.122; -459.779
531.012;   83.083; -513.120; -216.784
531.294;   71.024; -118.116;  -43.792
531.575;  146.890;  290.875;  538.225
531.857;   57.499; -548.135; -266.757
532.138;   92.868; -113.141;   40.254
532.420;  185.720;  294.865;  403.244
532.701;  220.039; -722.133; -751.760
532.983;  364.268;  232.867;  182.239
533.264;  130.650; -243.126;  175.228
533.546;  -28.086; -491.136; -508.755
533.827;   55.661;  173.867;   -1.759
534.109;   60.699; -352.135;  -80.757
534.390;  102.726; -725.132; -582.762
534.671;  268.370; -270.135;  -82.756
534.953;  134.307; -751.123; -611.779
535.234;   22.433; -426.117; -255.789
535.515;  -75.583; -891.119; -735.785
535.796;  -24.610; -431.128; -193.770
536.078; -104.250;-1050.124; -904.777
536.359;   30.308;  -22.123;    3.221
536.640;  -10.040; -480.125; -197.774
536.921;  153.827;  225.871;  143.232
537.202;  381.667;  -87.138;  -16.751
537.483;  467.485;  251.869;  377.236
537.764;  176.913;   17.870;   98.235
538.045;  -37.872; -543.134; -371.758
538.326;   -9.821; -596.129; -447.768
538.607;   25.571; -686.127; -476.771
538.888;  168.949;   98.879;    5.218
539.169;  184.918; -704.122; -535.781
539.450;  340.151;  236.871;   16.233
539.731;  213.403; -361.121; -182.783
540.012;  144.933;  199.880;  412.216
540.293;   85.044;   82.876;  158.224
540.574;   30.820; -895.113; -717.796
540.855;  459.076;  435.879;  377.218
541.136;  533.715;   47.878;  139.220
541.416;  279.445; -161.130; -220.766
541.697;  185.780; -274.131; -170.763
541.978; 1055.397; -270.135; -315.757
542.259; 1323.245; -211.127; -236.771
542.539;  644.867; -191.116; -186.790
542.820;  199.890;  461.875;  480.225
543.101;  124.555;  -52.145;  -77.738
543.381;   37.870; -638.127; -591.771
543.662;  269.968;  159.873; -254.771
543.942;  589.666; -751.127; -830.770
544.223; 1044.367;  193.878;  161.219
544.504;  686.674; -275.124; -182.777
544.784;  558.977; -592.126; -408.773
545.065; 1689.671;  104.884; -254.791
545.345; 1985.342;  227.881;   14.215
545.626; 1260.644;  -14.113; -108.796
545.906;  880.812;   77.869;   98.235
546.186;  345.382;   92.874;  -95.773
546.467;  216.077;   99.877;  -95.778
546.747;  329.567;  264.884;  327.210
547.027;  359.373;   91.876;  111.223
547.308;  324.565; -376.127; -530.770
547.588;  400.254;  299.871;  371.232
547.868;  189.438;  458.870;  588.235
548.149;  192.154;  609.885;  593.207
548.429;  145.244; -347.127; -299.771
548.709;  197.708; -645.120; -461.784
548.989;  482.902;   84.882;   88.213
549.269; 2060.470;   10.868;  139.239
549.550; 4892.856;  215.877;  117.222
549.830; 4331.538; -758.111; -556.799
550.110;  838.471; -468.110; -320.801
550.390;  809.937; -128.122;  -56.779
550.670; 1153.815; -868.114; -783.795
550.950;  802.151; -509.121; -471.782
551.230;  181.722;  549.879;  460.218
551.510;    4.575; -381.121; -326.782
551.790;   41.279; -173.109; -127.803
552.070;  251.952;  940.877; 1181.223
552.350;  412.096; -492.119; -377.786
552.630;  589.970;   -2.121;   77.219
552.909;  349.597;  181.884;   73.209
553.189;  223.027;  -49.132;   33.237
553.469;  217.821; -703.119; -514.786
553.749;  181.247; -469.127; -357.772
554.029;  172.187;   33.883;  -24.790
554.308;  126.283; -154.115;  -37.794
554.588;   72.639; -196.128; -204.770
554.868;   72.977; -366.121;  -47.782
555.147;  167.805; -114.115;  -46.793
555.427;  580.824; -260.116; -250.792
555.707; 3896.403; -284.115; -200.793
555.986; 4749.316; -719.111; -538.800
556.266; 2490.766;   23.884;   72.210
556.546;  120.925; -888.121; -675.782
556.825;  267.088; -657.114; -556.794
557.105; 1752.812; -125.128;   17.230
557.384; 2133.245;  122.884;  187.209
557.664;  777.273; -717.116; -508.792
557.943;  125.201; -557.121; -411.782
558.222;  183.180; -345.118; -344.788
558.502;  284.082; -116.115;  -76.793
558.781;  487.602;  194.885;  499.208
559.061;  409.680; -232.118; -227.788
559.340;  288.185;  302.883;  353.211
559.619;  702.991;   93.884;  148.210
559.899; 1002.787; -239.117; -266.789
560.178;  939.856; -778.115; -593.793
560.457; 3131.964; -623.117; -562.790
560.736; 4454.118; -472.111; -482.800
561.015; 2900.059; -500.128; -502.769
561.295;  420.824;  180.893;  215.193
561.574;  342.329;  119.885;  116.207
561.853;  503.758;  274.891;  303.197
562.132;  497.234;  -45.114;  182.206
562.411;  444.770;  396.879;  553.219
562.690;  127.177; -592.115; -458.792
562.969;  142.902;  472.888;  630.203
563.248;  475.793; 2966.878; 2487.219
563.527;  276.092; -290.111; -408.800
563.806;  384.544; -650.127; -521.771
564.085;  414.940; -297.105; -206.810
564.364;  243.440; -594.117; -405.790
564.643;  482.621; -276.121; -223.781
564.922; 1871.252;  221.890;  397.198
565.201; 1931.231; -640.109; -700.803
565.479;  810.125; -297.115; -219.792
565.758;  337.012; -810.128; -712.770
566.037;  482.957; -155.109; -100.803
566.316;  251.971; -286.116;  -28.791
566.595;   41.778;  -17.115;  -12.793
566.873;  105.544; -166.111;  -79.801
567.152;  -61.449; -490.113; -590.797
567.431;   21.442; -113.116;    6.210
567.709;   22.775; -344.107; -212.807
567.988;  276.612; -810.114; -769.794
568.266;  505.528; -160.115;  -68.793
568.545;  378.514; -644.100; -514.819
568.824;  582.025;  160.885;  356.208
569.102;  549.887; -351.114; -235.794
569.381;  213.324; -492.116; -407.792
569.659;  -38.028; -553.113; -553.796
569.938;   50.316; -743.122; -465.780
570.216;  121.534; -225.109; -225.804
570.494;  -23.585; -632.114; -572.795
570.773;   27.250;  202.879;  114.218
571.051;   17.680; -373.123; -357.778
571.330;   62.720; -221.113; -174.796
571.608;   41.207; -181.098; -173.823
571.886;  -54.814; -671.111; -581.799
572.164;  -62.923; -739.121; -621.782
572.443;  -26.281; -562.105; -512.811
572.721;  -22.411; -399.117; -289.790
572.999;   -9.993; -280.117; -168.788
573.277;   92.037;  379.894;  620.191
573.555;  282.139;   94.894;   37.190
573.834; 1339.532;  -86.117; -114.788
574.112; 1571.977;  880.893;  811.193
574.390;  459.668; -143.111;  -96.801
574.668;   11.377;  -91.112;  -61.797
574.946;   -9.486; -165.106; -187.810
575.224;    2.580;   71.891;  -16.803
575.502;  -22.907; -200.116; -204.791
575.780;  -69.022; -767.112; -829.798
576.058;  214.192; 1589.889; 1004.200
576.336;   -9.477; -210.110; -129.801
576.614;  -57.821; -511.112; -340.798
576.891;   52.158; -711.115; -823.794
577.169;  464.243; -158.108; -285.805
577.447;  582.851;  169.893;  202.193
577.725;  257.283;  629.888;  854.201
578.003;   14.706;  -71.112; -371.798
578.280;   83.478; -208.104; -242.812
578.558;   65.957; -450.115; -422.793
578.836;  133.915; -210.114; -145.795
579.114;   42.302; -630.112; -670.797
579.391;   60.558;   -6.117;  -18.789
579.669;  -58.816; -595.114; -704.794
579.947;  175.748; -326.107; -127.806
580.224;  321.998; -692.107; -524.806
580.502;  313.002;  127.893;   76.193
580.779;   27.715;  -42.117;   75.210
581.057;  -64.365; -584.109; -470.804
581.334;  -93.907; -726.102; -695.815
581.612;   40.940;   54.895;  511.190
581.889;  -22.068;  -83.101; -129.818
582.167;  -43.028; -298.099; -190.821
582.444;  -92.373; -845.102; -814.817
582.721;   99.827;  657.899;  715.183
582.999;   49.569; -326.100; -167.821
583.276;  531.084; -812.123; -713.779
583.553;  729.272; -364.102; -294.816
583.831;  227.700; -607.104; -631.812
584.108;   55.541;  349.892;  174.195
584.385;   12.318; -122.102;  -98.815
584.662;  -65.481; -651.111; -828.801
584.940;   28.718;  204.889;  204.199
585.217;  -10.603;  -73.113; -303.796
585.494;   33.428;   71.890;  118.198
585.771;  213.611; -250.109; -354.804
586.048;  506.522; -196.113;  -76.796
586.325;  312.672; -721.110; -773.801
586.602;   84.853;  230.896;  213.188
586.879;  -10.384; -499.100; -580.820
587.156;   51.541; -156.105; -331.810
587.433;  -22.300; -701.102; -667.817
587.710;   73.304;  152.888;  234.202
587.987;  299.347; -264.105; -236.811
588.264;  783.481;  315.888;  387.202
588.541; 1339.131;  -61.104;   26.187
588.818; 2679.213;   72.892;  171.196
589.095; 2322.676; -163.104; -174.812
589.371;  373.158; -459.109; -414.804
589.648;   18.902; -581.107; -437.807
589.925;   27.841; -517.114; -621.795
590.202;   22.629; -741.112; -607.798
590.478;  106.248; -166.105;  -73.811
590.755;  241.019; -241.108; -132.806
591.032; 2450.899; -741.110; -699.802
591.308; 3450.649; -732.094; -790.831
591.585; 1749.299; -573.110; -560.802
591.862;  143.526;-1056.102; -950.817
592.138;   68.392; -475.108; -474.805
592.415;  143.929; -486.104; -495.813
592.691; 1472.852;  460.896;  518.188
592.968; 1907.259; -208.098; -123.824
593.244;  888.517; -695.116; -595.790
593.521;   78.076; -105.102;  -42.817
593.797;    0.138; -810.122; -720.780
594.074;  335.747; -611.096; -588.826
594.350;  661.459;  828.905;  729.172
594.626;  308.919; -303.111; -283.801
594.903;  106.777; -643.101; -645.817
595.179;  209.408;  243.896;  418.187
595.455;   12.553; -136.107; -150.807
595.731;    9.510;  -19.103;  -38.814
596.008;  -25.661; -464.111; -434.800
596.284;   40.468; -187.100; -242.820
596.560;   62.980; -501.093; -493.833
596.836;  215.693; -173.105;  -70.810
597.112;  340.367; -582.108; -437.805
597.388;  285.745;  -49.097;  -48.826
597.665;  116.775;  437.887;  530.203
597.941;  -59.739; -572.089; -658.839
598.217;    8.727; -323.110; -293.802
598.493;  256.862;   61.891; -204.804
598.769;  511.637; -175.100;  -50.819
599.045;  310.120; -490.108; -562.806
599.321;   68.742; -193.100; -261.820
599.597;  137.887; -355.109; -476.804
599.872;  475.206;  409.896;  429.187
600.148;  383.646;  -61.097; -172.826
600.424;  277.800;   91.893;  202.193
600.700;  238.328; -170.107; -280.807
600.976;  105.441; -442.097; -464.825
601.252;  261.358; -226.109; -272.803
601.527;  209.207; -833.104; -840.813
601.803;  158.474; -453.105; -404.812
602.079;  183.937; -124.100; -118.819
602.354;  574.940; -620.092; -531.835
602.630;  822.697; -140.113; -482.796
602.906; 2233.157; -910.101; -863.818
603.181; 6720.346; -627.119; -534.786
603.457; 5687.244;   98.903; -278.826
603.733;  839.504; -605.120; -626.783
604.008;  933.790; -245.106; -164.810
604.284; 3068.028; -636.101; -580.817
604.559; 2640.808;   -3.112;  -42.799
604.835;  481.968; -163.105; -225.810
605.110;  422.597; -732.099; -892.821
605.385;  691.958;  224.907;  267.167
605.661;  623.236; -625.095; -729.829
605.936; 1165.621; -664.108; -737.806
606.211;  970.367;  -17.103; -170.815
606.487;  194.011; -329.114; -376.794
606.762;   34.046; -791.119; -745.786
607.037;  -25.007; -501.105; -433.810
607.313;  -48.070; -589.096; -574.828
607.588;   -3.260; -375.106; -137.810
607.863;   47.507;  -28.101; -143.818
608.138;  173.601;  513.890;  516.198
608.413;   24.901; -576.099; -592.822
608.688;   33.717; -203.108; -267.805
608.964;  196.734; -509.106; -218.809
609.239;  250.090; -107.105; -212.810
609.514;  250.974;  281.895;  240.188
609.789;  654.178; -187.104; -716.812
610.064;  882.578; -435.096; -609.827
610.339;  846.383; -855.109; -799.804
610.614; 1178.292; -131.100; -315.820
610.889;  642.824;  215.895;  107.188
611.163;   32.975; -407.104; -591.812
611.438;   89.137;   81.886; -167.794
611.713;    6.428; -467.101; -499.817
611.988;   61.431; -144.101; -328.818
612.263;  -10.207; -771.102; -717.815
612.538;  219.971;  385.887;  251.204
612.812;  174.794; -832.100; -911.820
613.087;  116.607; -358.098; -338.823
613.362;  -37.797; -497.107; -557.807
613.637;   47.888;  261.897;  138.186
613.911;   -9.384; -256.092; -345.835
614.186;  109.926; -249.107; -292.807
614.460;  663.438; -842.081; -758.854
614.735;  782.635;  -55.087;  -17.843
615.010;  161.024;   43.912;  -82.841
615.284;  243.116;  360.892;  246.195
615.559;  372.865; -792.092; -955.835
615.833;  292.824;  -76.099;  -87.822
616.108;   13.102; -225.090; -390.837
616.382;  129.111;  274.913;  402.156
616.656;  157.878; -241.090; -232.837
616.931;  503.675; -785.099; -700.822
617.205; 1060.182; -973.104; -979.813
617.480;  951.988;  -91.125;    6.225
617.754;  162.111; -396.125; -128.774
618.028;    2.905; -369.129; -382.768
618.302;   78.240;   73.892;  -25.805
618.577;  -48.636; -371.103; -518.815
618.851;  -59.870; -399.109; -600.803
619.125;  -58.491; -335.134; -378.759
619.399;  -21.192; -244.104; -374.813
619.673;  -45.775; -330.115; -515.792
619.947;  -31.760; -333.114; -448.795
620.222;  -18.480; -198.110; -204.801
620.496;   -2.624;  -47.121;  -96.782
620.770;   22.468; -187.122;  -93.781
621.044;  215.991;  323.895;  346.190
621.318;  716.379; -653.120; -614.783
621.592;  649.452; -430.121; -409.783
621.866;  369.334; -476.112; -572.799
622.140;   18.293; -207.116; -356.791
622.413;   52.938;  138.889;  112.200
622.687;  -43.371; -746.101; -492.817
622.961;   13.715; -130.108; -143.805
623.235;  -36.861; -633.111; -661.800
623.509;  -95.127; -816.105; -848.811
623.783;   10.074;  -12.107;   48.193
624.056;   -9.044; -254.120; -280.783
624.330;   42.052;   63.888;   -3.797
624.604;   36.190; -271.116; -355.790
624.877;   81.275;  180.890;   26.198
625.151;   25.160; -249.114; -238.794
625.425;  -34.515; -150.103; -283.814
625.698;  -40.285; -367.119; -374.785
625.972;  -89.423; -799.110; -765.802
626.245;   78.167;  685.884;  484.210
626.519;  -29.215; -426.120; -340.784
626.792;  -37.672; -192.107; -380.807
627.066;  -93.714; -485.122; -662.779
627.339; -112.352; -736.110; -663.802
627.613;   37.858;  351.880;  148.216
627.886;   53.604;  187.891; -612.803
628.160;    4.104;  312.880; -161.783
628.433;  -92.884; -695.125; -703.775
628.706;  -74.765; -517.120; -615.784
628.979;   22.873;  296.876;  117.223
629.253;  -84.055; -785.119; -833.786
629.526;  356.575; -334.126; -253.772
629.799;  353.505; -641.123; -479.778
630.072;  155.432; -497.128; -516.769
630.346;  -59.533;-1115.116;-1080.790
630.619;  444.129; -467.107; -545.808
630.892;  623.090;  709.889;  593.200
631.165;  333.333;  790.896;  679.187
631.438;  -61.569;-1092.112;-1055.798
631.711;   37.858;  453.877;  257.221
631.984;  -57.913; -523.117; -624.789
632.257;  -57.467; -636.117; -681.789
632.530;  -41.835; -412.119; -433.785
632.803;   13.882; -109.115;    7.207
633.076;  -59.623; -360.123; -422.777
633.349;   14.211;  173.872;  121.231
633.622;  -30.411; -187.119; -240.785
633.895; -122.095; -903.120; -823.783
634.167;  -62.823; -496.126; -525.773
634.440;   -9.102;  -19.116; -137.792
634.713;  -10.381;  -22.119; -120.786
634.986;   80.875;  593.871;  453.233
635.258;  -69.694; -507.115; -597.793
635.531;  100.379;  742.882; -343.788
635.804;  -23.064; -303.117; -318.789
636.077;  -85.530; -830.116; -852.791
636.349;    2.079; -586.115; -474.793
636.622;  368.374; 1695.874; 1392.228
636.894;  261.585; -474.120; -909.784
637.167;  146.843; -836.127; -789.771
637.439;   35.564; -278.128; -213.770
637.712;  -46.674; -312.126; -293.772
637.984;  -82.355; -635.116; -707.791
638.257;  360.077;  515.877;  488.222
638.529;  581.617; -881.125; -924.776
638.802;  248.757; -508.128; -449.769
639.074; -100.533; -927.122; -952.781
639.346; -110.499; -942.135; -930.757
639.619;   10.983;  -79.142; -319.744
639.891;  -12.614;  -83.122; -168.779
640.163;  -67.088; -689.122; -756.780
640.435;   31.814;  273.878;  103.220
640.708;   13.966;  -72.122; -132.780
640.980;  -18.882; -366.122; -362.781
641.252;  180.720;  -25.121;  -71.781
641.524; 1801.297;  580.879;  573.219
641.796; 1850.774;-1094.121; -907.782
642.068;  318.576; -191.121; -300.782
642.340;  -54.597; -486.121; -566.783
642.613;   35.230;  294.880;  323.217
642.885;  -98.369; -787.120; -878.783
643.157;  -42.217; -810.120; -658.784
643.428;   61.235;  170.880;  218.216
643.700;  -63.838; -498.120; -425.784
643.972;  -40.211;  -16.119; -133.785
644.244;  -74.159; -474.119; -559.785
644.516;  -39.082; -250.119; -114.786
644.788;   46.845;  662.881;  548.214
645.060;  -17.778;  -12.119; -124.786
645.332; -102.702; -525.118; -535.787
645.603;   31.850;  479.882;  342.213
645.875;  -72.798; -334.118; -369.787
646.147;  170.104; 1487.882; 1242.212
646.418;  -64.369; -931.117; -918.788
646.690;  127.433; -714.117; -715.789
646.962;   29.735; -413.117; -451.789
647.233;  -11.038;   15.883;   11.211
647.505;  -98.986; -595.117; -475.790
647.776;   22.915;  328.884;  229.210
648.048;   -0.358; -248.116; -418.790
648.320;  -66.131; -752.116; -679.791
648.591; -138.054;-1055.116; -958.791
648.862;  -86.927; -505.116; -577.792
649.134;    8.875;  115.885;  198.208
649.405;  -45.223; -661.115; -618.792
649.677;  -59.421; -475.115; -598.793
649.948;   -0.319; -181.115; -296.793
650.219;  -14.193;  -37.115; -147.793
650.491;  -70.316; -431.114; -520.794
650.762; -107.039; -705.114; -731.794
651.033;  -74.637; -437.114; -424.795
651.304;  -85.110; -743.114; -728.795
651.576;  -53.158; -680.114; -645.795
651.847;  -38.156; -250.113; -140.796
652.118;  -32.054;  -32.113; -189.796
652.389; -103.652; -639.113; -722.796
652.660;  -24.225; -147.113;  -89.797
652.931; -132.199; -897.112; -871.797
653.202;  -82.672; -382.112; -541.798
653.473;  -73.245; -633.112; -533.798
653.744;  152.882; -595.112; -590.798
654.015;  152.209; -356.112; -303.799
654.286;  -54.539; -642.111; -663.799
654.557;  -57.387; -586.111; -521.799
654.828; -151.560;-1114.111;-1088.800
655.099;  -83.208; -404.111; -291.800
655.370;  -93.257; -427.111; -543.801
655.641; -122.805; -656.110; -714.801
655.911; -103.878; -618.110; -638.801
656.182;   29.774;  437.890;  387.198
656.453;   92.726;  830.890;  746.198
656.724;  -70.022; -466.110; -426.802
656.994;  -88.670; -553.109; -568.803
657.265; -106.293; -862.109; -873.803
657.536;  -82.841; -500.109; -377.804
657.806; -106.215; -561.109; -593.804
658.077; -119.563; -866.109; -950.804
658.347;  -88.186; -523.108; -598.805
658.618; -111.134; -646.108; -694.805
658.888;  -34.382;  -41.108;  112.195
659.159;  -67.780; -432.108; -548.806
659.429;  -21.053; -292.108; -349.806
659.700;   13.274; -435.107; -390.807
659.970;  -21.949; -370.107; -359.807
660.241;    1.552; -754.107; -921.807
660.511;  497.954; -147.107; -174.808
660.781;  107.181; -793.106; -748.808
661.052;  -52.892; -222.106; -381.808
661.322;  -28.865;   21.894;   -9.809
661.592;    8.437;  257.894;  148.191
661.862;  -75.211; -369.106; -382.810
662.133;  -91.784; -551.105; -502.810
662.403; -112.157; -770.105; -676.810
662.673;  -62.455; -256.105; -213.811
662.943;  -99.429; -612.105; -551.811
663.213;  -12.277;  -85.105;  -81.811
663.483;  -78.900; -593.104; -568.812
663.753;  -44.898; -194.104; -152.812
664.023;  -19.196;   68.896;  -32.813
664.293;  -57.294; -319.104; -126.813
664.563; -114.092; -694.104; -648.813
664.833; -112.015; -743.103; -608.814
665.103; -119.763; -730.103; -793.814
665.373; -125.412; -766.103; -806.814
665.643;  -91.810; -863.103; -918.815
665.913;   30.142; -534.103; -714.815
666.182;  132.394; -685.102; -719.816
666.452;  266.446;  -22.102;  -89.816
666.722;  -18.427; -724.102; -784.816
666.992; -127.925; -948.102; -921.817
667.261;  -89.673; -824.102; -808.817
667.531;  183.529;  134.899;   45.183
667.801;  571.930; -440.101; -412.818
668.070;  215.557;  714.899;  697.182
668.340;  -96.741; -883.101; -840.819
668.609;   93.686;  588.900;  301.181
668.879;  -80.087; -490.100; -558.819
669.149;  -75.685; -539.100; -516.820
669.418;  -95.033; -698.100; -726.820
669.688;  -37.931; -482.100; -666.820
669.957;   62.246; -423.099; -546.821
670.226;  -25.953; -268.099; -331.821
670.496;  -96.626; -431.099; -635.822
670.765;  -72.124; -418.099; -501.822
671.034; -125.347; -872.099; -828.822
671.304;   -9.970;   55.902; -111.823
671.573; -140.668;-1085.098; -957.823
671.842;   73.759; -380.098; -294.823
672.112;   22.136; -692.098; -586.824
672.381;   -9.037; -239.098; -214.824
672.650; -124.435;-1005.097;-1021.825
672.919;  -94.259; -631.097; -507.825
673.188;  -97.232; -681.097; -878.825
673.457; -152.330;-1101.097;-1143.826
673.726;  -64.753; -579.096; -646.826
673.995;  -53.551; -533.096; -479.826
674.265;  -19.574; -263.096; -333.827
674.534;   12.778; -183.096; -235.827
674.802;   15.305; -618.096; -703.828
675.071;  932.132; -886.095; -801.828
675.340; 3889.233; -464.095; -339.828
675.609; 1294.085;  103.905;   82.171
675.878;   67.287; -949.095; -893.829
676.147;   38.114;  -26.095;   -8.829
676.416;   81.816; -210.094; -294.830
676.685;  692.818; 1000.906; -622.830
676.953;  112.420; -603.094; -452.831
677.222;  -26.853; -193.094; -273.831
677.491;  -27.576;  -24.094; -127.831
677.759;  -14.600;   11.907;  172.168
678.028;  -12.273; -279.093; -222.832
678.297;   -0.521;   71.907;  197.168
678.565; -144.819; -898.093; -944.833
678.834;  -50.842; -311.093; -268.833
679.102;  -60.265; -411.092; -391.834
679.371; -146.788; -898.092; -727.834
679.639; -124.261; -797.092; -786.834
679.908; -130.059; -794.092; -724.835
680.176; -139.908; -895.091; -941.835
680.445;  -63.856; -346.091; -352.835
680.713;  -13.054;  -58.091;  -23.836
680.982;  -98.277; -523.091; -525.836
681.250; -102.250; -578.091; -507.837
681.518;  -87.498; -534.090; -751.837
681.787;   -3.246; -204.090; -167.837
682.055;  -55.344; -490.090; -422.838
682.323; -127.367; -993.090; -992.838
682.591;   29.160; -216.090; -538.838
682.859;   84.211;    9.911;  -35.839
683.128;   21.063;  232.911;  497.161
683.396; -151.585;-1102.089;-1122.840
683.664;  -44.233; -241.089;   21.160
683.932;   -9.456;  144.911;  -76.840
684.200;  -78.854; -576.088; -320.841
684.468;  -14.452;  -73.088; -124.841
684.736;  -33.925; -214.088; -175.841
685.004; -118.873;-1024.088; -982.842
685.272;  -49.022; -880.088; -774.842
685.540;  -62.545; -499.087; -557.843
685.808;  -97.993; -651.087; -682.843
686.076; -101.891; -894.087; -969.843
686.343;  -66.139; -601.087; -815.844
686.611;   48.338; -195.087; -224.844
686.879;  409.240; -530.086; -553.844
687.147; 3306.842; -483.086; -480.845
687.414;  941.719;  -12.086; -169.845
687.682;    7.420; -658.086; -757.846
687.950;  289.422;  259.915;  263.154
688.217;    3.874; -792.085; -760.846
688.485;  -15.424; -632.085; -636.847
688.753;  521.453;  -11.085; -102.847
689.020;  170.055; -820.085; -851.847
689.288;  -90.843; -853.084; -787.848
689.555;  -14.716; -195.084; -148.848
689.823;  -51.314; -241.084; -345.849
690.090;  -79.537; -546.084; -651.849
690.358; -133.711; -877.084; -897.849
690.625;   -2.684;  120.917;   45.150
690.892;  -73.457; -403.083; -369.850
691.160;  -25.030;   72.917;  -35.850
691.427;    9.847;  141.917;  130.149
691.694; -131.976; -855.083; -929.851
691.962; -131.849;-1177.082;-1060.852
692.229;   25.453;  127.918;   56.148
692.496;   73.505;  130.918;  -49.852
692.763;   12.481; -164.082; -201.853
693.031;  -58.342; -739.082; -716.853
693.298;  -37.365; -509.081; -368.853
693.565;  270.762; -155.081; -163.854
693.832; 1270.339;   -5.081;   -9.854
694.099;  153.641; -643.081; -642.855
694.366;  -56.332; -882.081; -896.855
694.633;  -35.780; -920.080; -633.855
694.900;  715.597; 4367.920; -114.856
695.167;  435.273; -214.080; -380.856
695.434;  116.750; -646.080; -623.856
695.701;  208.177;  121.921;  -61.857
695.968;  463.629; -365.079; -361.857
696.234;  959.906; -415.079; -646.858
696.501;10589.308; -776.079; -614.858
696.768; 5704.835; -554.079; -617.858
697.035;  326.012; -632.078; -667.859
697.302;   50.489; -448.078; -552.859
697.568;   14.415; -458.078; -497.859
697.835;  -24.958; -683.078; -624.860
698.102;  -20.106; -498.078; -407.860
698.368;   85.396;  384.923;  396.139
698.635;  -33.377;  -47.077; -424.861
698.901;   -8.725; -240.077; -348.861
699.168;   52.627; -534.077; -456.862
699.435;   81.954;  -72.077;  -13.862
699.701; -109.119; -868.076; -764.862
699.968;   10.283;  144.924; -441.863
700.234;  -93.941; -783.076; -822.863
700.500;  -46.589; -448.076; -539.864
700.767;    6.413;   -1.075;   26.136
701.033; -121.310;-1015.075; -963.864
701.299;  -55.508; -450.075; -483.865
701.566;  124.869;  950.925;  763.135
701.832;   18.921;  -31.075;  -76.865
702.098;  -90.552;-1054.074;-1034.866
702.365;  -83.650;-1098.074;-1030.866
702.631;  -12.149;-1038.074;-1063.867
702.897; 1304.478; -765.074; -676.867
703.163; 2328.380;  348.926;  254.133
703.429;  168.657; -256.073; -273.868
703.695;  -25.666; -796.073; -792.868
703.961;   21.536; -214.073; -210.868
704.227;  -31.212; -630.073; -725.869
704.493;  119.365;  613.927;  510.131
704.759;  -10.708; -565.072; -540.870
705.025;   27.218; -203.072; -194.870
705.291;    3.195; -666.072; -562.870
705.557;  187.047;  719.928;   34.129
705.823;   41.074; -742.072; -694.871
706.089;  165.201; -307.071; -326.871
706.355;  371.403; -315.071; -244.872
706.620; 5569.380; -776.071; -729.872
706.886; 8281.957; -309.071; -362.873
707.152;  795.034; -818.070; -973.873
707.418;    0.435;-1153.070;-1186.873
707.683;   10.537; -550.070; -530.874
707.949;  -27.161; -547.070; -578.874
708.215;    9.541; -129.070; -207.874
708.480;  -11.782; -520.069; -420.875
708.746;   87.245;   68.931;   28.125
709.011;  -65.728; -578.069; -612.876
709.277;  -67.726; -538.069; -543.876
709.542;  -40.799; -428.069; -387.876
709.808;   -8.572;  -59.068;   89.123
710.073;  -88.571; -577.068; -695.877
710.339;  -38.294; -242.068; -228.877
710.604;   61.558; -780.068; -845.878
710.869;  338.160; -277.068; -366.878
711.135;  -76.663; -715.067; -628.879
711.400;  -86.761; -507.067; -608.879
711.665;  -50.284; -404.067; -479.879
711.931;  -99.007; -661.067; -677.880
712.196; -115.980; -876.067; -954.880
712.461;   97.096; -402.066; -490.880
712.726;  152.273; -727.066; -771.881
712.991;  -85.475; -647.066; -664.881
713.256;  -46.823; -350.066; -332.882
713.521;  -55.271; -417.065; -381.882
713.787;  -64.269; -454.065; -472.882
714.052;  -26.992; -214.065; -400.883
714.317;  -84.840;-1045.065; -981.883
714.581; 1012.812; -374.065; -268.883
714.846; 1536.163; -822.064; -888.884
715.111;  131.915;  261.936;  257.116
715.376;   -9.008;  -86.064; -223.885
715.641;  -26.531; -365.064; -367.885
715.906;  305.746;   15.936; -551.885
716.171;  145.873;  221.937;  209.114
716.436;   34.325;  -78.063; -104.886
716.700; -104.148; -818.063; -692.886
716.965; -110.621; -794.063; -807.887
717.230;  -81.945; -339.063; -392.887
717.494;  -23.543;  -40.062; -134.888
717.759;  -97.966; -784.062; -640.888
718.024;    7.936;  269.938;  250.112
718.288;   74.763;  685.938;  395.111
718.553; -123.710; -803.062; -977.889
718.817; -138.508; -883.061; -899.889
719.082;  -18.606; -115.061; -125.890
719.346; -126.954;-1000.061; -947.890
719.611;  -38.427; -300.061; -255.891
719.875;  -96.226; -568.060; -537.891
720.140;  -63.049; -453.060; -603.891
720.404;   26.878; -136.060; -249.892
720.668;  848.330; -475.060; -411.892
720.933;  350.707;  146.940;  137.108
721.197;  -98.891; -667.059; -600.893
721.461; -137.789; -851.059; -826.893
721.725;  -13.987;  -21.059; -250.894
721.990;  -53.760; -284.059; -204.894
722.254;  -25.759;  -26.059; -108.894
722.518;  -81.032; -286.058; -442.895
722.782;  -92.255; -743.058; -594.895
723.046;  123.497;  614.942;  570.105
723.310;   14.999;  374.942;  210.104
723.574; -103.624; -654.058; -614.896
723.838;  -94.822; -576.057; -642.897
724.102;  -47.420; -226.057; -239.897
724.366; -126.443;-1032.057; -978.897
724.630;  -91.967; -749.057; -571.898
724.894;  -74.615; -722.057; -514.898
725.158;   -7.763;   38.944; -295.898
725.422;  -56.461; -394.056; -327.899
725.685;  -66.484; -441.056; -349.899
725.949;  -63.982; -566.056; -519.900
726.213;  -66.105; -732.056; -811.900
726.477;  171.472;-1020.055; -933.900
726.740;  148.799; -274.055; -104.901
727.004;  335.050; -384.055; -510.901
727.268; 3355.827; -442.055; -400.901
727.531; 1046.929; -961.055; -775.902
727.795;  -23.419; -713.054; -673.902
728.059;  -55.142; -552.054; -557.903
728.322;  -84.590; -841.054; -669.903
728.586;   10.437; -692.054; -701.903
728.849;  -75.586; -695.053; -756.904
729.112; -112.534; -812.053; -912.904
729.376; -121.807; -959.053; -905.904
729.639;  -67.431; -536.053; -536.905
729.903; -110.904; -733.053; -699.905
730.166;  -47.727; -437.052; -399.906
730.429;  -30.825; -317.052; -468.906
730.693;  -48.698; -355.052; -894.906
730.956;  161.554;  810.948;  651.093
731.219;  718.456; -310.052; -103.907
731.482;  125.808;-1003.051; -894.907
731.745;  124.285; -794.051; -935.908
732.009;   25.936;  -30.051;   50.092
732.272;  -89.687; -904.051; -771.909
732.535;  -42.085; -300.051; -310.909
732.798; -140.083;-1083.050;-1166.909
733.061;  -70.806; -430.050; -456.910
733.324;    5.596;   31.950; -180.910
733.587;   57.823;  290.950;  365.090
733.850;  -64.250; -973.049;-1050.911
734.113;   30.177;   33.951;   32.089
734.376;    1.528; -328.049; -447.912
734.639;  207.255; 1188.951; 1011.088
734.901;   72.282; -180.049; -402.912
735.164;  456.609; -883.048; -837.913
735.427; 1333.636; -166.048; -355.913
735.690;  126.138; -205.048; -234.913
735.952;   -9.535; -923.048; -925.914
736.215;   -2.883;-1113.048;-1009.914
736.478;   55.944; -771.047; -774.915
736.740;  211.296;   33.953;  129.085
737.003;  617.222; -658.047; -672.915
737.266; 4068.774;  -94.047;   46.084
737.528;  450.726; -682.047; -660.916
737.791;  328.903; -316.046; -327.916
738.053;  773.455;  465.954;  649.083
738.316;10616.607; -162.046; -136.917
738.578; 8410.934; -770.046; -736.918
738.841;  474.511; -382.046; -446.918
739.103;  186.088; -875.045; -777.918
739.365;  517.889;   79.955;  -69.919
739.628;   10.516; -884.045; -805.919
739.890;  -20.632; -758.045; -710.919
740.152;  -43.230; -692.044; -754.920
740.414;  -13.803; -408.044; -359.920
740.677;  -28.026; -785.044; -634.921
740.939;  -33.624; -587.044; -487.921
741.201;  255.803; -432.044; -572.921
741.463;   51.605; -689.043; -745.922
741.725;   20.981;  -21.043; -199.922
741.987;   41.733;  220.957;  116.078
742.249;   14.035; -751.043; -859.923
742.511;  214.737; -703.043; -794.923
742.773;   15.239; -546.042; -546.924
743.035;  118.491;  796.958;  533.076
743.297;  -48.332; -963.042;-1013.924
743.559;  719.095; -278.042; -262.925
743.821;   74.722; -735.042; -744.925
744.083;   10.448;  -44.041; -149.925
744.345;  -67.175; -869.041; -892.926
744.607;   32.777;   75.959;  122.074
744.868;  -36.121; -490.041; -554.927
745.130; -113.269; -994.041;-1008.927
745.392;   32.908;   -1.040;  -44.927
745.653;   -8.590; -411.040; -378.928
745.915;  156.587;  896.960;  631.072
746.177;   49.364;   35.960;  -43.928
746.438;    3.416; -428.040; -543.929
746.700;  -39.858; -947.039; -988.929
746.961;   15.269; -659.039; -740.930
747.223;  126.371; -190.039;  -74.930
747.484;   82.173; -391.039; -471.930
747.746;  143.275;  -23.038; -106.931
748.007;  111.202; -647.038; -689.931
748.269;  285.204; -468.038; -440.931
748.530;  511.231; -852.038; -638.932
748.791;  262.458; -354.038; -420.932
749.053;  445.209;  286.963;  163.067
749.314;  454.111; -236.037; -169.933
749.575;  514.013; -945.037; -905.933
749.836;  864.090; -217.037;   86.066
750.098; 2259.017;  -60.037;  -21.934
750.359;35939.719;  414.964;  555.066
750.620;10411.871; -121.036; -220.935
750.881; 1071.623; -585.036; -513.935
751.142; 1345.275; -950.036; -938.936
751.403;16205.301; -789.036; -705.936
751.664; 8205.553;-1034.035; -999.936
751.925;  512.330; -175.035; -262.937
752.186;  291.157; -298.035; -278.937
752.447;  136.934; -590.035; -445.937
752.708;   65.461; -532.035; -648.938
752.969;   13.538; -566.034; -576.938
753.230;   11.740; -777.034; -672.939
753.491;    8.692; -650.034; -631.939
753.751;   76.693;  109.966;   19.061
754.012;  103.870;  258.967;  181.060
754.273;   54.272; -174.033;  -71.940
754.534;   18.349; -487.033; -580.940
754.794;  -84.874; -926.033; -911.941
755.055;  138.278; 1051.967;  881.059
755.316;  -39.220; -700.032; -566.942
755.576;  -28.818; -606.032; -576.942
755.837;  -36.166; -527.032; -695.942
756.097;  -43.889; -530.032; -564.943
756.358;  -65.388; -725.032; -770.943
756.618;  -41.486; -705.031; -641.943
756.879;    2.091; -254.031; -349.944
757.139; -126.257;-1098.031;-1116.944
757.400;  -37.780; -538.031; -553.945
757.660;  -20.028; -365.031; -401.945
757.920;   17.349; -266.030; -228.945
758.181;  -12.549; -468.030; -351.946
758.441;  -81.072; -870.030; -809.946
758.701;  -34.046; -308.030; -215.946
758.961;  -16.694; -220.030; -278.947
759.222;  -53.192; -574.029; -502.947
759.482;  -63.340; -683.029; -723.948
759.742;  -62.288; -706.029; -547.948
760.002;    7.089;  -83.029; -143.948
760.262;   32.041;   50.972;  182.051
760.522;  -32.432; -498.028; -574.949
760.782;  -52.305; -738.028; -612.949
761.042;  -26.004; -618.028; -573.950
761.302;   65.448;   55.972;  -18.950
761.562;   46.525; -164.027; -154.951
761.822;   86.077; -710.027; -551.951
762.082;  -19.396;-1104.027;-1093.951
762.342;   65.931; -328.027; -403.952
762.601;   86.408; -567.027; -506.952
762.861;  358.685; -281.026; -207.952
763.121;  432.437; -406.026; -411.953
763.381; 7266.538; -499.026; -485.953
763.640; 9266.540; -139.026; -307.954
763.900;  407.742; -242.026; -203.954
764.160;  100.244; -458.025; -491.954
764.419;    4.571; -726.025; -782.955
764.679;  -71.902; -795.025; -726.955
764.939;   -3.000; -124.025; -210.955
765.198;  -67.148; -608.025; -563.956
765.458;  -88.821; -710.024; -612.956
765.717;  -86.219; -454.024; -590.957
765.976;  -65.793; -428.024; -411.957
766.236;  -50.341; -475.024; -610.957
766.495;   21.636;  260.977;   73.042
766.755;  -83.137;-1090.023; -987.958
767.014;    4.215; -594.023; -665.958
767.273;  -45.308; -373.023; -397.959
767.533;  -39.231; -228.023; -307.959
767.792;  -21.879; -151.022; -188.960
768.051;  -56.002; -228.022; -276.960
768.310;  -77.801; -546.022; -650.960
768.569;  -15.324; -161.022;    4.039
768.828;  -28.222; -285.022; -363.961
769.088; -111.220;-1050.021; -942.961
769.347;  -76.118; -755.021; -599.962
769.606;  -92.141; -876.021; -857.962
769.865; -103.564;-1016.021;-1033.963
770.124;   -2.662; -411.021; -336.963
770.383;  -34.510; -778.020; -910.963
770.641;   26.216; -398.020; -400.964
770.900;  -50.782; -953.020; -846.964
771.159;  -31.705; -851.020; -951.964
771.418;   -7.778; -917.020; -779.965
771.677;  134.224; -224.019; -293.965
771.936;  146.376; -794.019; -865.966
772.194; 1991.878; -465.019; -437.966
772.453;11897.405; -213.019; -391.966
772.712;  880.282;  416.982;  329.033
772.970;  126.858;   32.982;   63.033
773.229;   94.035;  -22.018;  102.033
773.488;  -75.588; -814.018; -770.968
773.746;   57.789;  296.982;  335.032
774.005;    2.791;  190.983;  -22.969
774.263;    2.543;  243.983;  177.031
774.522;  -49.055; -422.017; -548.969
774.780;  -77.728; -484.017; -417.970
775.039;  -87.026; -551.017; -531.970
775.297;  -21.424; -135.016; -351.970
775.555;  -99.673; -489.016; -612.971
775.814; -116.296; -618.016; -570.971
776.072; -113.594; -749.016; -740.971
776.330;  -97.717; -630.016; -520.972
776.589; -112.990; -703.015; -721.972
776.847; -122.088; -645.015; -624.973
777.105; -159.861;-1016.015;-1032.973
777.363;  -83.384; -459.015; -454.973
777.621; -130.932; -660.015; -717.974
777.879;  -30.081;  -42.014;   32.026
778.138; -100.479; -554.014; -717.974
778.396; -106.777; -585.014; -526.975
778.654; -163.525;-1015.014; -970.975
778.912;  -80.948; -269.014; -371.976
779.170; -114.921; -880.013; -803.976
779.427; -153.794; -922.013; -897.976
779.685; -120.992; -880.013; -832.977
779.943;  -86.640; -654.013; -593.977
780.201; -141.739; -964.012; -883.978
780.459; -106.337; -651.012; -610.978
780.717;  -72.410; -440.012; -390.978
780.974; -102.183; -449.012; -490.979
781.232;  -81.731; -358.012; -338.979
781.490;  -72.529; -551.011; -472.979
781.747;  -92.902; -555.011; -476.980
782.005;   14.100;  462.989;  254.020
782.263; -156.973; -542.011;-1004.981
782.520;  -84.046; -326.011; -501.981
782.778; -163.520;-1013.010;-1051.981
783.035; -154.343; -962.010; -938.982
783.293;  -51.566; -248.010; -206.982
783.550;  -60.664; -134.010; -198.982
783.808; -132.912; -764.010; -776.983
784.065; -161.585; -745.009; -874.983
784.322;  -61.008;   25.991;  -86.984
784.580; -147.306; -915.009; -771.984
784.837;  -89.404; -392.009; -466.984
785.094; -131.053; -783.009; -762.985
785.352;  -58.401; -304.008; -404.985
785.609; -113.499; -934.008; -839.985
785.866;  -79.797; -345.008; -401.986
786.123;  -62.520; -639.008; -583.986
786.380;  -85.768; -665.008; -604.987
786.637;  -49.966; -225.007; -380.987
786.895;  -11.139; -456.007; -543.987
787.152;  -53.237; -135.007; -267.988
787.409;  -33.511; -123.007; -225.988
787.666;  -83.784; -299.006; -378.988
787.923; -102.732; -616.006; -695.989
788.179; -108.705; -551.006; -584.989
788.436; -107.103; -585.006; -585.990
788.693;  -28.976;  -92.006;  -87.990
788.950;  109.801; -125.005; -112.990
789.207;  229.703; -381.005; -372.991
789.464;  -51.295; -161.005; -301.991
789.720;  -19.819;  150.995;  110.009
789.977; -163.517;-1003.005; -671.992
790.234;  -33.240;   44.996;  -66.992
790.490; -147.588; -884.004;-1031.993
790.747;  -29.736;  -85.004;   22.007
791.004;  -21.859; -426.004; -348.993
791.260;  -80.332; -430.004; -560.994
791.517; -100.505; -843.003; -788.994
791.773;  -47.053; -379.003; -342.994
792.030;  -96.526; -596.003; -660.995
792.286; -102.650; -686.003; -636.995
792.543;  -19.923;  -74.002; -159.995
792.799;  -48.746; -584.002; -382.996
793.055; -141.294;-1179.002;-1210.996
793.312;  -91.867; -827.002; -816.997
793.568;  -46.590; -746.002; -599.997
793.824;    9.787; -226.001; -284.997
794.081;   28.039; -447.001; -508.998
794.337;   78.091; -664.001; -561.998
794.593; 1162.267; -319.001; -271.999
794.849; 7082.094; -746.001; -772.999
795.105;  402.696; -270.000; -261.999
795.361;   21.273; -490.000; -457.000
795.617;  -49.200; -875.000; -945.000
795.873;  -37.350; -360.000; -407.000
796.129;  -37.850; -368.000; -306.000
796.385;  -28.475; -124.000; -156.000
796.641;   76.200;  412.000;  550.000
796.897;  -86.150; -666.000; -635.000
797.153;   66.450;  453.000;  357.000
797.409;  -88.650; -785.000; -868.000
797.665;  -61.125; -625.000; -732.000
797.921;  -76.600; -775.000; -762.000
798.176;  -48.350; -744.000; -747.000
798.432;  -40.775; -824.000; -596.000
798.688;  -62.825;-1174.000;-1078.000
798.943;  102.250; -165.000; -147.000
799.199;   16.225;-1005.000; -959.000
799.455;  234.475;  369.000;  316.000
799.710;  144.175; -813.000; -380.000
799.966;  328.675; -162.000; -160.000
800.221;  491.500; -638.000; -721.000
800.477; 9825.600; -743.000; -710.000
800.732;10501.275; -773.000; -800.000
800.988;  693.900;  205.000;  -19.000
801.243; 1636.675; -454.000; -344.000
801.498; 8561.700; -814.000; -739.000
801.754;  564.250; -289.000; -163.000
802.009;  103.225; -257.000; -335.000
802.264;  -37.825; -967.000;-1033.000
802.520;   30.700;  222.000;   -3.000
802.775;  -44.300; -524.000; -359.000
803.030;   54.000;  395.000;  356.000
803.285; -108.100; -840.000; -903.000
803.540;  -61.200; -686.000; -699.000
803.795;  -31.925; -648.000; -583.000
804.051;  -44.600; -279.000; -346.000
804.306;   28.050;  168.000;  128.000
804.561;  136.950;  451.000;  362.000
804.816;  131.425;  714.000;  861.000
805.071;    6.000; -185.000; -280.000
805.325;  219.000; -257.000; -427.000
805.580;  -95.650; -841.000; -877.000
805.835;  -15.000; -204.000; -297.000
806.090;  -81.175; -760.000; -676.000
806.345;  -24.725; -344.000; -264.000
806.600;  -19.100; -549.000; -632.000
806.854;  -27.100; -408.000; -538.000
807.109;  -15.425; -493.000; -577.000
807.364;   15.825; -407.000; -328.000
807.618;    1.000; -415.000; -381.000
807.873;   55.100; -470.000; -494.000
808.128;   98.350; -257.000; -518.000
808.382;  128.700; -224.000; -332.000
808.637;   77.275; -440.000; -511.000
808.891;  203.225; -257.000; -180.000
809.146;  128.800; -902.000; -794.000
809.400;  275.900; -848.000; -923.000
809.654;  358.600; -779.000; -551.000
809.909;  499.375; -841.000; -927.000
810.163; 5841.125; -813.000; -651.000
810.418;18407.000; -940.000; -861.000
810.672; 1182.950; -685.000; -690.000
810.926;  775.975; -993.000; -973.000
811.180; 1433.725; -439.000; -372.000
811.434;31909.925;  240.000;  135.000
811.689;15692.425; -231.000; -365.000
811.943;  765.850; -936.000; -953.000
812.197;  370.450; -893.000; -671.000
812.451;  165.050; -379.000; -514.000
812.705;   -0.950; -809.000; -619.000
812.959;   11.550; -263.000; -388.000
813.213;   16.650; -283.000; -209.000
813.467;   65.150;  470.000;  253.000
813.721; -108.775; -764.000; -792.000
813.975; -113.575; -826.000; -877.000
814.229;   43.975;  430.000;  353.000
814.482;  -59.400; -517.000; -566.000
814.736; -116.200; -766.000; -744.000
814.990; -112.900; -779.000; -872.000
815.244;  -42.925; -228.000; -285.000
815.497;  -79.250; -636.000; -601.000
815.751;  -15.175; -141.000;   82.000
816.005;  -69.125; -470.000; -586.000
816.258;  -69.075; -510.000; -363.000
816.512; -101.675; -693.000; -610.000
816.766;   -3.525;  121.000;  157.000
817.019;   15.050;  148.000;  149.000
817.273; -104.200;-1000.000; -802.000
817.526;  -20.200; -206.000; -173.000
817.779;  -47.975;-1049.000; -960.000
818.033;  -60.600; -693.000; -807.000
818.286; -117.050; -725.000; -792.000
818.540;  -85.825; -403.000; -403.000
818.793;  -77.050; -402.000; -489.000
819.046;  -85.925; -582.000; -520.000
819.299;  -43.075; -157.000; -166.000
819.553; -100.300; -552.000; -592.000
819.806; -146.175;-1016.000; -838.000
820.059;  -64.750; -334.000; -354.000
820.312;    9.175;  152.000;  185.000
820.565;  -11.150;  110.000;  -27.000
820.818;  -58.275;  -59.000; -173.000
821.071; -152.225;-1041.000; -957.000
821.324;  -99.175; -536.000; -540.000
821.577; -100.275; -457.000; -483.000
821.830;  -70.625; -270.000; -172.000
822.083; -110.975; -733.000; -288.000
822.336;  -49.000; -261.000; -167.000
822.589; -129.050; -805.000; -688.000
822.842; -144.025; -875.000; -770.000
823.094; -167.900;-1076.000;-1114.000
823.347; -139.175; -925.000; -729.000
823.600;   -3.625;  402.000;  187.000
823.853;  -63.450; -311.000; -267.000
824.105;  -69.775; -331.000; -575.000
824.358;  -98.750; -617.000; -716.000
824.611;   33.450;  234.000;   40.000
824.863;  -49.900; -612.000; -591.000
825.116;   49.375;  -33.000;   27.000
825.368;   81.250; -366.000; -372.000
825.621;  155.700; -186.000; -240.000
825.873;   71.375; -704.000; -737.000
826.126;  524.400; -669.000; -641.000
826.378;11312.075; -389.000; -505.000
826.630; 3507.525; -890.000; -898.000
826.883;   62.675; -754.000; -693.000
827.135;   41.675; -279.000; -270.000
827.387; -107.800; -893.000; -839.000
827.639;  -29.075;  -86.000;   32.000
827.892; -114.825; -742.000; -582.000
828.144; -141.300; -848.000; -804.000
828.396;  -33.300;  104.000;  -80.000
828.648;  -93.275; -440.000; -333.000
828.900; -143.225; -702.000; -795.000
829.152; -106.125; -684.000; -683.000
829.404;  -80.700; -215.000; -267.000
829.656;   -6.475;  321.000;  214.000
829.908;  -17.875;  393.000;  229.000
830.160; -161.775;-1064.000;-1047.000
830.412;  -97.775; -481.000; -430.000
830.664; -106.450; -557.000; -665.000
830.916;  -64.800; -268.000; -206.000
831.167; -163.525;-1073.000; -951.000
831.419; -107.150; -623.000; -566.000
831.671; -149.575; -764.000; -809.000
831.923;  -92.425; -311.000; -447.000
832.174;  -88.925; -273.000; -331.000
832.426; -114.675; -493.000; -582.000
832.678; -163.625;-1043.000;-1091.000
832.929; -158.075; -947.000; -935.000
833.181;  -57.025; -575.000; -677.000
833.432;  -43.000;  -59.000; -186.000
833.684;  -21.425;  112.000;  -27.000
833.935; -116.575; -610.000; -566.000
834.187; -118.375; -829.000; -823.000
834.438;  -44.275;  -58.000;  -25.000
834.689;  -48.050; -255.000; -123.000
834.941;  -51.225; -343.000; -244.000
835.192;  -95.475; -590.000; -533.000
835.443; -100.450; -419.000; -506.000
835.695;  -22.600;  138.000;  -16.000
835.946;  -90.150; -608.000; -378.000
836.197; -108.100; -599.000; -622.000
836.448;  -89.475; -528.000; -395.000
836.699;  -40.425; -253.000; -341.000
836.950;   -7.600;   72.000;    7.000
837.201; -140.450;-1003.000; -987.000
837.452;  -49.100; -356.000; -170.000
837.703; -118.650; -791.000; -737.000
837.954;  -41.800; -205.000; -365.000
838.205;  -75.925;-1029.000;-1008.000
838.456;  162.050; -196.000; -282.000
838.707;   23.625; -423.000; -519.000
838.958;   13.875; -634.000; -647.000
839.209;  280.075;   18.000;   40.000
839.460;  115.000; -439.000; -201.000
839.710;  163.150; -135.000; -297.000
839.961;  431.800;  730.000;  612.000
840.212;  355.100; -382.000; -497.000
840.462; 1038.250; -328.000; -277.000
840.713;17168.425; -571.000; -536.000
840.964; 8619.300;  -62.000; -143.000
841.214;  577.700; -384.000; -624.000
841.465;  592.975; -214.000; -141.000
841.715;  523.125; -417.000; -380.000
841.966;  668.475; -746.000; -685.000
842.216; 7827.700; -330.000; -431.000
842.466;36313.250; -169.000; -313.000
842.717; 2589.000; -964.000; -952.000
842.967;  312.325; -635.000; -641.000
843.217;  302.525;   20.000;   28.000
843.468;   70.350; -104.000; -132.000
843.718;  -16.600; -718.000; -726.000
843.968; -101.200; -837.000; -765.000
844.218;   26.000; -315.000; -262.000
844.469;  -42.200; -577.000; -561.000
844.719;  -99.100; -537.000; -682.000
844.969;  -84.175; -550.000; -580.000
845.219; -134.050; -814.000; -862.000
845.469;  -76.375; -392.000; -342.000
845.719; -125.975; -792.000; -884.000
845.969;  -28.850;  119.000;  174.000
846.219; -103.600; -738.000; -720.000
846.469;   -0.650;  464.000;  432.000
846.718;  -45.825; -115.000;   31.000
846.968; -143.350; -827.000; -827.000
847.218;  -58.950; -224.000; -371.000
847.468; -110.325; -586.000; -555.000
847.718; -136.450; -827.000; -798.000
847.967; -129.475; -826.000; -915.000
848.217;  -84.550; -449.000; -569.000
848.467;  -61.825; -405.000; -376.000
848.716; -111.150; -708.000; -725.000
848.966;    2.100; -372.000; -358.000
849.215;  -50.100; -428.000; -419.000
849.465;  -85.575; -785.000; -615.000
849.714; -134.775;-1132.000;-1150.000
849.964;  -71.700; -551.000; -613.000
850.213;  -16.375; -393.000; -355.000
850.463;   77.125;  137.000;  340.000
850.712;   27.625; -542.000; -567.000
850.961;   17.225; -739.000; -678.000
851.211;  109.125; -513.000; -504.000
851.460;  175.650; -635.000; -650.000
851.709;  544.850;  -25.000;   18.000
851.958; 9480.725; -912.000; -750.000
852.208;14381.550; -859.000; -879.000
852.457;  545.400; -181.000;  -13.000
852.706;   87.575; -791.000; -823.000
852.955;   20.250; -507.000; -528.000
853.204;  -53.925; -521.000; -461.000
853.453;  -76.025; -418.000; -458.000
853.702; -118.950; -660.000; -750.000
853.951; -101.075; -532.000; -520.000
854.200; -105.600; -613.000; -562.000
854.449; -129.050; -695.000; -661.000
854.698;  -88.450; -340.000; -279.000
854.946;  -83.225; -181.000; -284.000
855.195; -140.350; -843.000; -868.000
855.444;  -86.650; -395.000; -420.000
855.693; -109.875; -345.000; -432.000
855.941; -111.750; -387.000; -516.000
856.190;  -55.900; -256.000; -382.000
856.439; -128.200; -652.000; -703.000
856.687;  -54.525;  -99.000;  -72.000
856.936; -118.225; -621.000; -323.000
857.184; -172.250;-1067.000;-1020.000
857.433; -111.750; -423.000; -512.000
857.681; -161.375; -989.000; -953.000
857.930;  -74.750; -282.000; -433.000
858.178; -154.675; -856.000; -929.000
858.427; -155.250; -802.000; -781.000
858.675; -123.550; -377.000; -544.000
858.923; -111.450; -527.000; -819.000
859.172; -177.175;-1094.000;-1070.000
859.420; -100.800; -339.000; -239.000
859.668; -136.600; -624.000; -628.000
859.916;  -18.400;  109.000;  115.000
860.164; -114.450; -699.000; -603.000
860.413;  237.475; -878.000; -696.000
860.661;  271.875; -709.000; -577.000
860.909;  -93.400; -339.000; -325.000
861.157;  -85.225; -277.000; -444.000
861.405; -123.800; -534.000; -670.000
861.653;   13.575;  310.000;  310.000
861.901;  153.925; -543.000; -613.000
862.149;   38.200; -801.000; -824.000
862.396;  -88.025; -297.000; -187.000
862.644;  -82.325; -368.000; -347.000
862.892;  -39.275;   98.000;  138.000
863.140; -119.175; -549.000; -530.000
863.388; -158.600; -815.000; -759.000
863.635; -124.750; -642.000; -601.000
863.883;  -18.225;  231.000;  190.000
864.131;  -88.725; -288.000; -357.000
864.378; -154.025; -675.000; -540.000
864.626;  -98.600; -347.000; -415.000
864.873; -125.000; -556.000; -505.000
865.121; -133.275; -714.000; -799.000
865.368;  -43.375; -173.000;   75.000
865.616;  -42.925;  -33.000;  -40.000
865.863;  -80.575; -462.000; -506.000
866.111;  -95.000; -795.000; -824.000
866.358;   20.000; -426.000; -420.000
866.605; 2125.725;  -64.000; -804.000
866.853; 2677.025; -621.000; -537.000
867.100;  -17.000; -728.000; -775.000
867.347;  -92.450; -672.000; -611.000
867.594;  -94.475; -740.000; -714.000
867.841;   75.800;   97.000;   17.000
868.089; -151.175; -746.000; -698.000
868.336; -105.775; -477.000; -420.000
868.583; -151.225; -637.000; -741.000
868.830;  -59.725; -131.000; -170.000
869.077; -170.900; -859.000; -787.000
869.324; -131.550; -502.000; -458.000
869.571; -125.450; -398.000; -430.000
869.818; -125.325; -485.000; -439.000
870.065; -117.550; -439.000; -513.000
870.311; -108.475; -456.000; -542.000
870.558;  -89.025; -332.000; -311.000
870.805;  -90.625; -320.000; -384.000
871.052; -129.600; -494.000; -369.000
871.298;  -59.400; -204.000; -131.000
871.545;  -68.250; -151.000; -185.000
871.792;  -93.075; -173.000; -222.000
872.038;  -69.125;   43.000; -126.000
872.285; -124.575; -496.000; -387.000
872.532;  -97.875; -357.000; -387.000
872.778;    2.375;  556.000;  403.000
873.025;  -98.475; -384.000; -359.000
873.271;   16.850;  501.000;  578.000
873.517;  -37.900; -133.000; -209.000
873.764;  -37.550; -193.000;  -80.000
874.010;  -59.500; -143.000; -230.000
874.257;  -49.700;  123.000;   90.000
874.503; -127.750; -579.000; -479.000
874.749;  -78.025;   31.000;  275.000
874.995;  -48.900;  -80.000;  -20.000
875.242; -128.725; -540.000; -478.000
875.488; -105.675; -414.000; -439.000
875.734;  -50.025; -106.000; -234.000
875.980;  160.675; -872.000;-1032.000
876.226;  400.775; -157.000; -255.000
876.472;    7.200;  343.000;  237.000
876.718;  -40.425;  184.000;  158.000
876.964;  -47.300;   56.000;   55.000
877.210; -140.975; -547.000; -677.000
877.456; -135.850; -630.000; -557.000
877.702; -167.225; -821.000; -832.000
877.948; -109.675; -377.000; -497.000
878.193;    1.000;  361.000;  255.000
878.439;  -92.625; -487.000; -472.000
878.685;  -99.275; -272.000; -343.000
878.931; -122.950; -618.000; -676.000
879.176;  -89.125; -201.000; -201.000
879.422; -162.575; -933.000; -820.000
879.668;   44.150;   10.000;   79.000
879.913;  145.225;   53.000;  137.000
880.159;  -46.325; -112.000;  -17.000
880.404;  -63.775; -152.000; -162.000
880.650;  -47.225;   91.000;  141.000
880.895; -167.725; -670.000; -710.000
881.141; -135.175; -454.000; -428.000
881.386; -152.325; -503.000; -658.000
881.631;  -90.400; -311.000; -166.000
881.877;  -43.800;  112.000;  -13.000
882.122; -139.300; -684.000; -600.000
882.367;  -82.600; -136.000; -186.000
882.612;  -72.925;  -80.000; -176.000
882.858; -179.250; -877.000; -823.000
883.103;  -85.325; -297.000; -267.000
883.348; -137.825; -759.000; -852.000
883.593; -147.600; -677.000; -602.000
883.838;  -67.175; -311.000;  -24.000
884.083;   29.500;  353.000;  288.000
884.328;  -78.275; -564.000; -545.000
884.573;  -70.800; -196.000; -143.000
884.818;  152.425; -694.000; -531.000
885.063;  197.100; -348.000; -315.000
885.308;  -94.725; -475.000; -398.000
885.553;  -18.400;  245.000;  325.000
885.797; -121.150; -545.000; -615.000
886.042;  -62.300;    8.000;   58.000
886.287;  -84.675; -253.000; -211.000
886.532;  -59.300;   26.000;  204.000
886.776;  -90.325; -407.000; -525.000
887.021; -152.125; -621.000; -574.000
887.265; -146.950; -685.000; -689.000
887.510; -136.975; -557.000; -496.000
887.755;  -87.775; -194.000; -164.000
887.999; -125.525; -552.000; -575.000
888.244;  -61.525;  -58.000;  161.000
888.488;  -12.425;  371.000;  393.000
888.732; -131.275; -368.000; -520.000
888.977; -136.550; -622.000; -567.000
889.221; -152.525; -683.000; -659.000
889.465; -142.175; -422.000; -566.000
889.710;  -89.400;  -56.000; -299.000
889.954;    3.425;  579.000;  467.000
890.198; -152.300; -584.000; -707.000
890.442; -146.325; -716.000; -712.000
890.687; -177.450; -800.000; -753.000
890.931;  -92.475; -273.000; -210.000
891.175; -122.625; -502.000; -500.000
891.419;  -74.625; -105.000; -110.000
891.663;  -92.450; -239.000; -112.000
891.907; -167.200; -801.000; -545.000
892.151; -178.150; -920.000; -815.000
892.395; -110.200; -274.000; -387.000
892.638;  -20.625;  408.000;  291.000
892.882; -184.550; -780.000; -867.000
893.126;    7.925;  758.000;  558.000
893.370;  -97.275; -167.000; -168.000
893.614; -150.275; -714.000; -715.000
893.857; -114.200; -183.000; -197.000
894.101; -128.225; -527.000; -631.000
894.345;  -53.725;  300.000;  150.000
894.588;   19.375;  569.000;  380.000
894.832; -105.800; -178.000;  -84.000
895.075;  -77.875;   15.000;  -92.000
895.319; -133.450; -552.000; -420.000
895.563; -114.500; -413.000; -353.000
895.806; -151.425; -628.000; -741.000
896.049;  -69.000; -576.000; -368.000
896.293;   86.275;  527.000;  405.000
896.536;  -60.775; -465.000; -468.000
896.779;  -75.425; -149.000;   -1.000
897.023; -138.350; -751.000; -714.000
897.266;  -40.525;  325.000;  269.000
897.509; -176.150; -900.000; -901.000
897.752;  -55.800;  149.000;  171.000
897.996; -196.650; -972.000; -864.000
898.239;  -43.800;  168.000;  102.000
898.482; -129.300; -431.000; -453.000
898.725;  -37.350;  101.000;   53.000
898.968; -132.500; -609.000; -744.000
899.211; -106.575; -513.000; -361.000
899.454; -118.325; -633.000; -539.000
899.697;  -76.550;   90.000;  -43.000
899.940; -155.500; -761.000; -757.000
900.182; -109.675; -335.000; -405.000
900.425;  -96.875; -150.000; -298.000
900.668;  -39.575;  491.000;  350.000
900.911; -103.775; -292.000; -345.000
901.154;  -64.450;  141.000;   -3.000
901.396; -155.625; -407.000; -412.000
901.639; -142.075; -430.000; -496.000
901.882; -165.925; -790.000; -809.000
902.124;  -87.075;  -29.000; -143.000
902.367; -124.350; -315.000; -361.000
902.609; -132.350; -476.000; -453.000
902.852;  -96.850; -108.000; -260.000
903.094; -115.300; -458.000; -337.000
903.337;  -68.400;  -26.000;   53.000
903.579; -114.300; -228.000; -441.000
903.821; -146.725; -597.000; -744.000
904.064;  -66.950;   85.000;  127.000
904.306;  -75.075; -126.000; -166.000
904.548; -105.425; -152.000; -366.000
904.790;  -97.400; -195.000; -340.000
905.033; -138.350; -625.000; -577.000
905.275; -128.550; -513.000; -524.000
905.517;   31.900;  468.000;  256.000
905.759;  -60.800; -667.000; -761.000
906.001;  -89.225; -322.000; -369.000
906.243;  -58.375; -162.000; -224.000
906.485;  114.675; -265.000; -207.000
906.727;  132.425; -499.000; -542.000
906.969;  -44.200;  -30.000; -135.000
907.211;  111.100; -316.000; -382.000
907.453;  280.250; -188.000; -237.000
907.695;   15.350; -158.000; -385.000
907.936;   48.575;  818.000;  706.000
908.178;  -56.800;   92.000; -135.000
908.420;  -77.200; -111.000; -162.000
908.662; -131.175; -633.000; -682.000
908.903;  -86.850; -208.000; -123.000
909.145;  -69.300; -240.000; -305.000
909.386;   11.350;  315.000;  280.000
909.628;   48.400;  363.000;  397.000
909.870;   -9.100;   29.000;  264.000
910.111;  -80.125; -809.000; -949.000
910.353;   11.275; -123.000; -161.000
910.594;   14.650; -574.000; -606.000
910.835;   84.350; -265.000; -326.000
911.077;  167.575; -503.000; -604.000
911.318;  306.475; -505.000; -471.000
911.559;  495.150; -577.000; -880.000
911.801; 1328.825; -284.000; -280.000
912.042; 9816.725;  -50.000; -159.000
912.283;29219.575;  404.000;  371.000
912.524; 5462.750; -396.000; -457.000
912.765;  585.875; -193.000;   79.000
913.006;  295.475; -307.000; -338.000
913.247;   67.575; -270.000; -290.000
913.488;    7.975;  -43.000;   30.000
913.729;  -77.000; -373.000; -373.000
913.970;  -53.725;  -96.000; -292.000
914.211;  -84.400; -160.000; -198.000
914.452;  -51.075; -118.000;  -11.000
914.693;    3.775;  510.000;  592.000
914.934;   -1.975;  510.000;  440.000
915.175;  -71.450;   53.000;  -95.000
915.415;  -80.550; -137.000;   27.000
915.656;  -79.825;  -28.000;  192.000
915.897; -101.075; -252.000;  -82.000
916.137;  -65.975;   74.000;   -9.000
916.378; -128.025; -573.000; -517.000
916.619;  -76.425; -159.000;  -63.000
916.859;   -6.125;  303.000;  330.000
917.100;  117.000; 1655.000; 1070.000
917.340;   30.625;  930.000;  728.000
917.581;   37.325;  965.000;  789.000
917.821;  -26.900; -171.000;  143.000
918.061;   13.150; -199.000;  -72.000
918.302;  -47.375; -152.000; -211.000
918.542;  -35.875;  -22.000;    3.000
918.782;   27.825;  369.000;  377.000
919.023;  109.425;  360.000;  427.000
919.263; 1246.475; 8131.000;  202.000
919.503; 1176.025; -137.000;  -54.000
919.743;  633.350;  390.000;  266.000
919.983;  289.550; -134.000;  -26.000
920.223;   92.400;  135.000;   14.000
920.463;  131.975;  631.000;  554.000
920.703;  134.450;   84.000;   39.000
920.943;  172.100; -110.000;   90.000
921.183;  252.150; -414.000; -405.000
921.423;  519.425;  307.000;  546.000
921.663;  742.775; -174.000; -257.000
921.903; 1566.150;  237.000;  173.000
922.143; 8241.075;  372.000;  389.000
922.383;34052.725;  158.000;  115.000
922.622;13960.325; -120.000;  -15.000
922.862; 1431.400;  796.000;  785.000
923.102;  525.975;  -51.000;   33.000
923.341;  212.475;   59.000;   74.000
923.581;  100.625;  450.000;  360.000
923.821;   18.925;  301.000;  398.000
924.060;   17.400;  351.000;  193.000
924.300;  -58.700;  -16.000; -128.000
924.539;   -8.825;  584.000;  473.000
924.779;   15.250;  812.000;  597.000
925.018;  -57.550;  247.000;  353.000
925.257;   -3.425;  595.000;  666.000
925.497;  -41.150;  447.000;  412.000
925.736;  -69.975;  -35.000;  102.000
925.975;    0.875;  687.000;  669.000
926.214;   28.200;  907.000;  850.000
926.454;   16.300;  706.000;  757.000
926.693;  -45.825;  419.000;  543.000
926.932;   35.900; 1021.000;  825.000
927.171;   73.950; 1107.000; 1044.000
927.410;   48.675; 1144.000;  967.000
927.649;   26.600;  924.000;  742.000
927.888;   -5.850;  590.000;  564.000
928.127;  -10.175;  680.000;  678.000
928.366;   30.225;  842.000;  826.000
928.605;   38.600;  831.000;  737.000
928.844;  236.100; 1451.000; 1393.000
929.083;  598.750;  770.000;  613.000
929.321;  361.700; 1335.000; 1359.000
929.560;   91.475; 1158.000; 1122.000
929.799;  -38.975;  574.000;  475.000
930.038;   73.850; 1025.000; 1394.000
930.276;  -49.325;  334.000;  397.000
930.515;   -9.150;  827.000;  681.000
930.753;  -25.125;  614.000;  589.000
930.992;  -12.075;  664.000;  717.000
931.230;   14.075;  847.000;  847.000
931.469;  147.650; 2162.000;  892.000
931.707;   64.350;  840.000;  751.000
931.946;   49.350; 1278.000; 1344.000
932.184;   61.925; 1437.000; 1175.000
932.423;   33.550; 1265.000;  963.000
932.661;   88.325; 1296.000; 1428.000
932.899;   30.000;  987.000;  821.000
933.137;   11.225;  754.000;  564.000
933.376;  147.300; 1664.000; 1335.000
933.614;  160.050; 1759.000; 1196.000
933.852;   60.350; 1357.000; 1171.000
934.090;  135.950; 1722.000; 1747.000
934.328;  119.875; 1252.000; 1457.000
934.566;  107.275; 1431.000; 1110.000
934.804;  136.425; 1263.000; 1309.000
935.042;  453.200; 1861.000; 1850.000
935.280; 1752.350; 2088.000; 2063.000
935.518; 1904.125; 2113.000; 2007.000
935.756;  423.075; 2481.000; 2316.000
935.994;  172.650; 1808.000; 1751.000
936.231;  345.000; 2890.000; 2950.000
936.469;  179.500; 2367.000; 2378.000
936.707;  175.125; 2220.000; 2167.000
936.945;  238.800; 2825.000; 2882.000
937.182;  207.225; 2679.000; 2741.000
937.420;  301.400; 3602.000; 3031.000
937.657;  407.650; 3365.000; 3478.000
937.895;  358.900; 3331.000; 3488.000
938.133;  300.675; 3540.000; 3528.000
938.370;  342.200; 3896.000; 4191.000
938.607;  399.275; 4488.000; 4205.000
938.845;  532.625; 5587.000; 5549.000
939.082;  468.875; 5387.000; 5177.000
939.320;  541.225; 5799.000; 5728.000
939.557;  611.075; 6549.000; 6491.000
939.794;  728.100; 7285.000; 7097.000
940.031;  905.425; 8421.000; 8368.000
940.269; 1104.700; 9552.000; 9107.000
940.506; 1120.775;10901.000;10507.000

