
Integration time [ms]: 100.000
Averaging Nr. [scans]: 40
Smoothing Nr. [pixels]: 0
Data measured with spectrometer [name]: 2101013U2
Wave   ;Sample   ;Dark     ;Reference
[nm]   ;[counts] ;[counts] ;[counts] 

394.013;   51.543; -450.257; -315.536
394.305;  159.391; -461.258; -419.536
394.596; 1095.513; -676.269; -527.514
394.887; 2773.680; -796.268; -654.518
395.178; 1079.910;  145.736;   11.476
395.470;   57.797; -210.263; -356.526
395.761;  187.795;  305.734;  394.479
396.052;  217.388; -545.284; -306.489
396.343;  222.158; -557.276; -454.503
396.634;   77.277; -200.279; -290.497
396.926;   84.902; -618.268; -565.517
397.217;   80.937;   11.725;  -17.504
397.508;   46.528; -366.273; -154.507
397.799;   26.627; -555.279; -571.497
398.090;   -9.879; -973.280; -902.495
398.381;  100.713;   11.708;  -11.473
398.672;  -12.311; -585.292; -742.473
398.963;   40.108; -348.279; -373.498
399.254;  114.623;   54.709; -209.475
399.545;  -53.134;-1017.266; -883.520
399.836;   62.472; -407.277; -343.501
400.127;   39.414; -205.295; -209.468
400.418;   57.248; -423.274; -392.506
400.709;   34.958; -359.281; -333.493
401.000;   37.527; -268.291; -309.476
401.290;  100.651;  225.698;  115.545
401.581;   83.521; -166.286; -228.485
401.872;   16.636; -542.298; -486.462
402.163;   45.207; -313.296; -252.467
402.454;   71.574; -123.291; -163.475
402.744;   57.173; -844.297; -813.465
403.035;  352.404; -226.293;  -86.471
403.326;  498.767; -366.292; -384.474
403.617;  319.880;  204.701;  165.539
403.907;  249.319; -593.283; -679.490
404.198; 2461.655; -545.307; -599.446
404.489; 6354.699; -618.283; -588.491
404.779; 2090.779; -618.302; -660.456
405.070;  216.608;  -67.304; -174.451
405.360;  323.531; -259.293; -238.472
405.651;  372.215;  125.699;   98.542
405.942;  168.116;  209.714;  127.516
406.232;  202.705; -432.285; -413.487
406.523;  403.974;  641.706;  758.530
406.813;   55.593; -579.286; -644.484
407.104;  296.487;  261.708;  144.527
407.394;  134.257; -604.299; -591.462
407.685;  139.730;  336.715;  222.513
407.975;   63.522; -400.283; -382.490
408.265;   83.813; -134.289; -190.478
408.556;   58.396; -472.291; -459.475
408.846;  153.300;  474.706;  429.530
409.137;   88.197;   -1.288; -216.480
409.427;   34.905; -193.285; -271.487
409.717;   37.206; -776.273; -692.508
410.007;  124.999;    4.715; -170.486
410.298;   87.392; -360.295; -342.469
410.588;   55.903; -495.285; -510.486
410.878;   30.908; -792.287; -873.482
411.168;  105.289; -481.298; -478.463
411.459;  126.242; -295.283; -242.489
411.749;   47.294; -609.292; -507.474
412.039;   57.645; -755.289; -386.480
412.329;  186.790;   40.722;  132.501
412.619;  197.093;  -62.286; -148.485
412.909;  353.141;  639.711;  594.521
413.199;  298.971; -130.280; -251.495
413.490;  377.131;  521.710;  352.523
413.780;  143.325;-1013.279; -913.496
414.070;  311.534;  -46.276;  235.497
414.360;  338.061; -729.278; -666.498
414.650;  417.829; -726.288; -688.482
414.940;  540.274; -538.280; -441.496
415.230;  923.826;   50.712;   74.519
415.520; 6171.862;  155.730;   66.486
415.809;24288.358; -305.281; -125.493
416.099;19015.949; -388.277; -229.501
416.389; 5361.495;  435.726;  236.494
416.679; 3133.625;   91.738;   85.473
416.969;  536.262; -527.287; -503.483
417.259;  580.677;  341.721;  171.503
417.549;  670.931;  522.718;  318.508
417.838; 1683.729; -205.268; -147.518
418.128; 5639.612;  650.710;  492.522
418.418; 4775.188; -491.272; -579.509
418.708; 3173.671;    9.726;  -48.506
418.997;11969.341; -474.275; -480.505
419.287;12614.177; -733.273; -790.507
419.577;12021.816; -160.283; -123.489
419.866;39380.822; -588.277; -498.501
420.156;40231.483; -242.270;  -55.513
420.446; 7267.493; -112.263;  -26.526
420.735;  816.602; -376.271; -446.512
421.025;  821.610; 1830.722;  315.502
421.314;  609.500; -203.271; -226.512
421.604; 1153.222;   89.732;  233.484
421.893;  678.297; -705.271; -602.511
422.183;  215.918; -487.263; -461.526
422.472;  374.248;  -36.271; -107.511
422.762;  424.022; -416.266; -379.521
423.051;  253.884; -916.276; -916.503
423.341;  294.929; -491.273; -439.507
423.630;  386.253; -121.265;   15.477
423.919;  373.991;   58.725;   49.495
424.209;  371.898;  -31.263;   56.473
424.498;  473.052;   68.732;  161.483
424.787; 1106.633; -535.267; -601.518
425.077; 3332.602;   34.735;   29.478
425.366; 4535.404; -734.262; -744.528
425.655;10181.780;  639.727;  259.493
425.945;23037.358; -313.247; -268.554
426.234;12852.302;  117.741;  300.467
426.523; 5104.257;  -86.259; -350.534
426.812; 7112.893;  107.734;  159.480
427.101;10553.168; -127.269; -323.515
427.390;13202.162;  -55.270;  -86.514
427.680; 2802.777; -624.257; -411.538
427.969;  448.337; -330.255; -301.540
428.258;  318.968; -385.257; -477.536
428.547;  500.842;  449.728;  397.490
428.836; 1115.779; -421.253; -398.543
429.125; 1574.534; -199.259;  -72.534
429.414;  770.926; -330.251; -294.548
429.703; 3189.426; -231.251; -213.548
429.992; 9564.080; -938.250; -828.549
430.281; 6312.561; -397.264; -331.524
430.570;  557.717;  -21.252;   32.454
430.859;  483.031;  279.741;  352.466
431.148;  404.804;  636.752;  631.446
431.437;  269.491;  391.748;  367.454
431.725;  152.995; -544.257; -481.536
432.014;  108.361; -845.253; -756.545
432.303;  373.355; -149.239; -105.569
432.592;  546.342; -460.263; -178.525
432.881; 1062.780; -601.248; -437.554
433.169; 6373.288; -343.255;  -61.540
433.458;13007.288;  445.765;  540.424
433.747; 5444.585; -397.261; -289.529
434.036;  847.380; -275.242; -280.564
434.324; 2086.892; -395.249; -379.551
434.613; 3694.574;   40.757;  159.437
434.902; 1225.570;  333.760;  439.433
435.190;  454.828;   75.761;  295.431
435.479;  247.356;  -52.245;   83.441
435.767;   98.864; -411.244; -427.561
436.056;  173.276; -340.242; -294.563
436.345;  370.272; -372.240; -223.568
436.633;  361.088;   60.750;  383.450
436.922;  227.149;  208.760;  414.432
437.210;  453.128; -194.236;    1.426
437.499; 1453.936; -583.235; -432.576
437.787; 1600.578; -339.236;  -10.574
438.075;  438.459;   56.761;  162.430
438.364;  548.387;  -44.238;  250.429
438.652;  342.466; -286.226; -138.592
438.941;  102.455;    3.770;  269.415
439.229;   -0.886; -665.252; -466.545
439.517;   11.695; -160.234;  -85.577
439.806;  -13.218; -501.225; -290.595
440.094;  151.503;  377.766;  650.421
440.382;  147.581; -653.233; -302.580
440.670;  152.886; -361.235; -285.576
440.959;   19.324; -347.223; -170.599
441.247;   50.292; -151.229; -109.587
441.535;   81.843; -266.235;   31.423
441.823;   23.475; -497.234; -305.578
442.111;  173.121;  173.771;  327.412
442.400;  411.455; -628.245; -335.559
442.688; 1122.327; -111.234; -620.579
442.976;  785.737; -786.213; -450.617
443.264;   83.389; -324.224; -364.597
443.552;   65.767; -258.226;   51.408
443.840;  167.917;  602.765;  876.423
444.128;   91.180;  265.767;  269.420
444.416;  -10.001; -694.228; -312.588
444.704;   15.229; -465.219;  -92.605
444.992;   53.820;   -0.226;  240.407
445.280;   20.381; -517.230;  -94.585
445.568;   25.041; -694.212; -396.618
445.856;  267.438; -174.221;  357.398
446.143;  584.600;  -54.220;   -7.604
446.431;  502.002;  -25.228;  625.411
446.719;  232.573;  489.783;  675.391
447.007;  182.450;  481.769;  705.416
447.295;  169.871;  597.777;  871.402
447.583;   69.589; -464.229;  -34.587
447.870;  142.760; -434.221; -202.601
448.158;  347.105; -104.230;  129.415
448.446;  256.251; -800.219; -338.604
448.733;  141.615;   13.776;  269.403
449.021;  237.740;   60.788;  341.382
449.309;  161.905; -296.210;  208.379
449.596;  197.894;  128.783;   59.392
449.884;  136.253; -571.222; -325.600
450.172;  155.933; -756.227; -406.590
450.459;  431.770;  645.786;  780.387
450.747; 2521.043; -411.218; -147.608
451.034; 7998.803;  493.772;  889.411
451.322; 6692.098; -413.214; -170.614
451.609;  556.367;  292.777;  508.403
451.897;  611.668; -550.203; -183.634
452.184; 1821.797; -622.223; -400.598
452.472; 1746.952;   97.792;  269.375
452.759;  325.302;  512.781;  864.395
453.047;   89.738; -407.212; -125.617
453.334;   47.910; -732.219; -216.606
453.621;   48.151; -438.214; -161.615
453.909;  104.160;   13.796;  384.368
454.196;  100.230; -299.199; -123.641
454.483;  183.856;  317.798;  540.364
454.771;  124.755; -215.208;  196.374
455.058;   20.333; -316.207;  102.374
455.345;  112.436;   71.807;  344.347
455.632;   77.736; -128.207;  235.373
455.919;   55.803;  -82.196;  182.354
456.207;  -76.515; -774.198; -450.642
456.494;  -29.882; -475.200;  -66.639
456.781;   -1.848; -399.202; -198.635
457.068;   49.993; -253.206;  -29.628
457.355;  -18.956; -698.206; -401.629
457.642;   -9.326; -552.205; -290.630
457.929;   -3.048; -778.194; -417.651
458.216;   51.988; -575.212; -354.617
458.503;  235.056; -173.193;  -19.652
458.790;  255.277; -864.208; -630.625
459.077;  260.732;  -77.202;  110.364
459.364;  815.445; -350.195; -210.649
459.651; 1731.666;  -46.206;  220.372
459.938;  801.768; -864.209; -665.623
460.225;  122.510;  132.799;  276.363
460.512;  -68.825; -836.197; -688.645
460.799;  100.267;  -32.218;  320.392
461.086;   57.423; -370.200; -251.640
461.372;   19.210; -509.198; -279.642
461.659;   94.079; -165.196;  108.354
461.946;   45.955; -445.193;  -54.651
462.233;  224.420;  842.800;  888.361
462.519;  329.117; -814.201; -464.639
462.806; 1020.051; -768.197; -497.645
463.093;  903.601; -445.191;  -66.656
463.380;  -34.208; -920.186; -824.664
463.666;   24.727; -259.197;  -18.646
463.953;   87.840; -406.195; -243.648
464.239;  201.214; -173.195;  -77.648
464.526;  365.850;  413.806;  743.350
464.813;  305.787; -565.190; -304.658
465.099;  347.006;  606.807;  607.348
465.386;  300.735;  903.807;  921.348
465.672;    7.176; -694.197; -522.645
465.959;   -3.545; -598.188; -520.662
466.245;   -1.940; -468.193; -359.652
466.532;   84.387; -109.195;   63.352
466.818;   49.392; -357.186; -216.664
467.104;  -11.493; -488.182; -415.672
467.391;  -30.261; -628.189; -459.658
467.677;   29.845; -289.186;    9.335
467.964;   -2.829; -682.189; -471.660
468.250;   31.473; -331.186; -160.665
468.536;   65.815;   90.811;  180.341
468.822;  -60.215; -821.184; -574.668
469.109;  144.562;  351.827;  471.311
469.395;  186.545;  729.808;  787.346
469.681;  202.343;   46.811;  156.341
469.967; 1264.248; -699.188; -382.660
470.254; 2763.831; -494.188; -306.662
470.540; 1777.703; -601.196; -476.646
470.826;  249.418; -488.181; -397.675
471.112;  301.413;  288.816;  113.331
471.398;   93.718; -253.183;  -58.670
471.684;   20.946; -626.177; -447.680
471.970;    4.322; -918.180; -981.675
472.256;   15.394; -521.192; -441.654
472.542;   15.673; -499.171; -434.691
472.828;   -9.822; -743.182; -607.672
473.114;   27.567; -380.166; -283.700
473.400;    1.538; -504.175; -293.684
473.686;   28.448; -452.166; -400.701
473.972;   31.352; -230.174; -131.687
474.258;  -34.238; -925.173; -843.689
474.544;  190.113; -183.178;   -2.679
474.830;  342.564;  -65.175;   45.316
475.116;  516.139; -123.190; -196.658
475.401;  713.399; -558.180; -467.676
475.687;  204.798; -725.180; -718.676
475.973;  -10.889; -673.181; -770.673
476.259;  225.516;  736.825;  764.315
476.544;  386.054; -539.176; -437.682
476.830;  871.744; -398.172; -322.690
477.116;  779.603; -430.177; -336.682
477.401;  127.448;  346.820;  358.324
477.687;  -20.087; -289.175; -405.684
477.973;   35.739;   21.819;   28.326
478.258;   -3.857; -448.163; -348.706
478.544;   42.153;   21.815;   61.334
478.829;  -70.621; -818.171; -738.692
479.115;  -62.156; -749.172; -651.690
479.401;   -1.227; -444.174; -449.686
479.686;   24.297; -253.180;  -74.676
479.972;  -42.882; -886.178; -776.680
480.257;   30.818; -258.166;  -65.700
480.542;   -4.992; -614.170; -469.693
480.828;  232.011; 1288.824; 1392.317
481.113;  -37.866; -464.176; -426.683
481.399;  -16.508; -236.161; -202.711
481.684;  -42.557; -620.166; -462.700
481.969;    5.356; -158.159;  -73.713
482.255;    0.918; -439.169; -285.695
482.540;   -2.257; -569.178; -441.680
482.825;   -4.263; -395.187; -404.663
483.110;   93.847;  -85.169; -105.696
483.396;  215.727; -840.157; -652.718
483.681;  508.877;  543.826;  730.313
483.966;  162.750; -696.160; -700.712
484.251;  -17.574; -404.174; -310.687
484.536;   -2.447; -356.165; -378.703
484.822;    3.429; -205.173; -218.687
485.107;  -45.085; -599.152; -502.726
485.392;  124.509;  662.836;  541.296
485.677;   77.456;  354.832;  163.302
485.962;   94.350;  160.843;  270.283
486.247;   94.051;  -14.162;   -8.707
486.532;   20.394; -178.166; -325.701
486.817;  162.862;  381.839;  431.291
487.102;  111.648; -453.154; -514.722
487.387;  701.629; -637.156; -652.718
487.672; 1268.339; -154.164;  -38.705
487.957;  820.744; -394.160; -286.711
488.241;  201.982; -290.150; -314.729
488.526;  798.367; -280.152; -148.726
488.811; 1272.170; -881.177; -818.680
489.096;  962.926; -666.154; -702.723
489.381;  508.863;    3.847;  162.275
489.666;  415.442; -428.161; -510.710
489.950;  168.754;  558.846;  627.277
490.235;  -35.998; -480.151; -458.728
490.520;  -47.284; -756.161; -723.710
490.804;  -53.519; -827.156; -736.719
491.089;   -5.327; -469.149; -299.732
491.374;   36.563; -132.164;  -75.704
491.658;  -20.466; -817.147; -717.735
491.943;  145.446; -657.152; -609.727
492.227;  220.244; -178.155;  -38.721
492.512;   47.499; -294.157; -341.717
492.797;  -81.008; -713.149; -716.731
493.081;  -57.038; -588.147; -598.735
493.366;  -39.207; -751.161; -635.711
493.650;  211.215;  831.859;  917.254
493.935;   24.584; -648.147; -447.734
494.219;  -44.448; -778.142; -687.743
494.503;  -62.288; -585.150; -487.730
494.788;   41.091;   46.842;   74.285
495.072;  112.633;  184.850;  434.271
495.356;  181.476; -463.148; -343.733
495.641;  434.843; -812.146; -736.736
495.925;  426.811; -976.156; -903.719
496.209;   21.197; -599.149; -451.732
496.494;  -37.372; -763.142; -544.744
496.778;   -6.702; -364.154; -360.722
497.062;  -58.514; -819.156; -627.719
497.346;  -43.579; -869.160; -640.711
497.631;  135.379;  580.852;  560.266
497.915;   63.229;  -64.145;  175.261
498.199;   37.477; -341.157; -277.718
498.483;   14.990; -562.152; -508.725
498.767;  198.284;  301.850;  300.271
499.051;  171.745; -126.149; -100.732
499.335;   22.943; -693.149; -739.731
499.619;  -42.534; -381.129; -423.767
499.903;   19.093; -272.155;  -65.721
500.187;   18.006; -588.153; -316.724
500.471;   15.220; -796.152; -595.727
500.755;   90.591;   62.839;  -96.710
501.039;   18.043; -270.155; -357.721
501.323;   63.292;  -21.141;  264.254
501.607;    8.969; -447.163; -503.706
501.891;    2.304; -607.156; -512.718
502.174;  -44.885; -726.144; -585.741
502.458;   64.474;   89.849;  370.273
502.742;   54.691; -180.138; -191.751
503.026;  113.708; -412.147; -254.734
503.310;  180.355; -437.159; -375.713
503.593;  126.085; -464.147; -325.735
503.877;  114.256; -232.133; -156.760
504.161;  157.733;    2.847;  -50.724
504.444;  146.243; -841.158; -710.716
504.728;  476.137; -487.164; -522.704
505.012;  748.331; -257.150;  -76.729
505.295;  550.467; -417.161; -212.711
505.579;  554.210; -256.156; -496.719
505.862;  801.700; -555.145; -333.738
506.146;  793.707; -681.159; -758.714
506.429;  420.982;  568.841;  461.286
506.713;   71.178; -732.151; -667.728
506.996;  330.473;   90.846;  295.278
507.280;  343.957; -633.165; -474.703
507.563;  247.791; -469.155; -261.721
507.847;  104.356; -423.153; -112.724
508.130;   89.743; -665.161; -456.711
508.413;  131.489; -758.167; -577.700
508.697;  245.764; -151.167;   12.300
508.980;  172.333; -422.153; -312.724
509.263;  -13.762; -466.155; -450.720
509.547;   39.531; -124.150;   82.271
509.830;   42.395; -172.160;  140.289
510.113;   77.660;  128.844;  298.281
510.396;   14.013; -530.152; -300.725
510.680;   99.227; -818.145; -812.738
510.963;  465.277;  184.846;  180.277
511.246;  399.664; -493.150; -357.730
511.529;  234.657; -482.145;  -83.739
511.812;  395.827; -250.134;   10.241
512.095;  274.926; -740.151; -396.728
512.378;   81.439; -317.147; -245.736
512.661;   23.723; -703.137; -623.753
512.944;   37.779; -750.142; -637.744
513.227;   68.695; -170.137; -171.752
513.510;   26.015; -479.144; -671.741
513.793;   11.696; -485.140; -435.747
514.076;  123.762;  -43.127;  -39.771
514.359;   99.773; -294.149; -135.732
514.642;  101.607; -442.142; -567.744
514.925;  794.969;  581.860;  561.253
515.208; 1081.699; -498.134; -443.758
515.491;  700.263; -276.133; -182.761
515.773;  380.369; -410.143; -337.742
516.056; 2220.255;  249.864;  409.246
516.339; 2979.483; -754.136; -652.755
516.622; 1855.961; -518.150; -488.730
516.904; 1073.901;  882.857;  975.257
517.187;  472.619; -730.138; -523.752
517.470;  386.525; -568.143; -510.743
517.752;  441.161; -624.136; -470.756
518.035;  374.507; -708.139; -725.749
518.318;  387.959; -799.136; -744.755
518.600; 2638.541; -300.132; -325.762
518.883; 3559.457;  310.858;   88.256
519.165; 1780.862; -585.138; -426.751
519.448;  372.591;  -61.132;  -19.762
519.730;  182.494; -573.126; -415.773
520.013;  280.009;  588.867;  664.240
520.295;  685.454;  -94.134;  -15.759
520.578; 1511.479; -335.131; -305.764
520.860; 1744.966; -254.132;   56.238
521.143;  944.963; -763.135; -584.756
521.425;  469.857; -251.125; -279.775
521.707;  704.587; -622.127; -380.771
521.990; 1884.663; -199.127;  167.229
522.272; 2164.323; -116.140;   -4.748
522.554;  967.645; -237.143; -157.742
522.836;  326.702;  -24.134;   99.241
523.119;  214.007; -496.148; -189.734
523.401;  154.636; -448.130; -314.766
523.683;  109.649; -865.137; -693.753
523.965;  278.017;  408.862;  260.248
524.247;  293.328;   54.878;  170.220
524.529;  201.679; -451.134; -367.759
524.812;  357.062;   -3.130;  191.234
525.094;  908.091; -773.138; -631.751
525.376; 1459.891; -143.124;   78.223
525.658;  867.181; -441.136; -339.754
525.940;   45.200; -805.131; -671.764
526.222;   16.334; -188.136;  -88.755
526.504;   90.673; -190.131;   32.237
526.786;  141.781; -960.133; -647.760
527.068;  268.822; -124.123;  -67.778
527.349;   87.052; -865.137; -774.754
527.631;  121.016; -137.132;   22.238
527.913;  141.136; -664.127; -450.771
528.195;  172.925; -761.125; -639.774
528.477;  260.549;  -93.134;  -30.758
528.759;  158.262; -648.130; -522.766
529.040;   69.345; -569.123; -293.778
529.322;   62.053; -235.125;  -10.774
529.604;  111.315;  -47.130;   93.233
529.886;  113.769; -546.126; -302.773
530.167;  117.006;  232.870;  192.235
530.449;   60.738;    1.853;   63.265
530.731;   11.602; -572.122; -459.779
531.012;   79.323; -513.120; -216.784
531.294;   67.462; -118.116;  -43.792
531.575;  164.482;  290.875;  538.225
531.857;   52.819; -548.135; -266.757
532.138;  109.915; -113.141;   40.254
532.420;  151.690;  294.865;  403.244
532.701;  180.134; -722.133; -751.760
532.983;  312.412;  232.867;  182.239
533.264;  125.267; -243.126;  175.228
533.546;  -52.291; -491.136; -508.755
533.827;   25.155;  173.867;   -1.759
534.109;   33.044; -352.135;  -80.757
534.390;   82.770; -725.132; -582.762
534.671;  232.790; -270.135;  -82.756
534.953;  140.423; -751.123; -611.779
535.234;   21.447; -426.117; -255.789
535.515;  -72.019; -891.119; -735.785
535.796;  -19.243; -431.128; -193.770
536.078; -110.984;-1050.124; -904.777
536.359;    0.049;  -22.123;    3.221
536.640;  -19.773; -480.125; -197.774
536.921;  150.895;  225.871;  143.232
537.202;  373.963;  -87.138;  -16.751
537.483;  474.228;  251.869;  377.236
537.764;  200.406;   17.870;   98.235
538.045;  -41.527; -543.134; -371.758
538.326;  -42.753; -596.129; -447.768
538.607;    9.913; -686.127; -476.771
538.888;  172.889;   98.879;    5.218
539.169;  194.034; -704.122; -535.781
539.450;  342.069;  236.871;   16.233
539.731;  201.418; -361.121; -182.783
540.012;  132.948;  199.880;  412.216
540.293;   63.785;   82.876;  158.224
540.574;    0.433; -895.113; -717.796
540.855;  447.367;  435.879;  377.218
541.136;  530.956;   47.878;  139.220
541.416;  270.088; -161.130; -220.766
541.697;  209.599; -274.131; -170.763
541.978; 1106.967; -270.135; -315.757
542.259; 1391.013; -211.127; -236.771
542.539;  651.356; -191.116; -186.790
542.820;  199.557;  461.875;  480.225
543.101;  115.428;  -52.145;  -77.738
543.381;   17.287; -638.127; -591.771
543.662;  258.710;  159.873; -254.771
543.942;  618.958; -751.127; -830.770
544.223; 1086.333;  193.878;  161.219
544.504;  729.716; -275.124; -182.777
544.784;  610.644; -592.126; -408.773
545.065; 1726.685;  104.884; -254.791
545.345; 2052.257;  227.881;   14.215
545.626; 1355.182;  -14.113; -108.796
545.906;  931.706;   77.869;   98.235
546.186;  380.348;   92.874;  -95.773
546.467;  216.268;   99.877;  -95.778
546.747;  358.531;  264.884;  327.210
547.027;  386.564;   91.876;  111.223
547.308;  353.533; -376.127; -530.770
547.588;  426.097;  299.871;  371.232
547.868;  214.782;  458.870;  588.235
548.149;  204.342;  609.885;  593.207
548.429;  155.786; -347.127; -299.771
548.709;  198.498; -645.120; -461.784
548.989;  523.616;   84.882;   88.213
549.269; 2275.689;   10.868;  139.239
549.550; 5159.797;  215.877;  117.222
549.830; 4634.275; -758.111; -556.799
550.110;  952.057; -468.110; -320.801
550.390;  888.253; -128.122;  -56.779
550.670; 1215.128; -868.114; -783.795
550.950;  846.141; -509.121; -471.782
551.230;  212.137;  549.879;  460.218
551.510;   -9.685; -381.121; -326.782
551.790;   32.015; -173.109; -127.803
552.070;  260.693;  940.877; 1181.223
552.350;  428.711; -492.119; -377.786
552.630;  634.885;   -2.121;   77.219
552.909;  371.335;  181.884;   73.209
553.189;  226.921;  -49.132;   33.237
553.469;  201.560; -703.119; -514.786
553.749;  202.189; -469.127; -357.772
554.029;  189.301;   33.883;  -24.790
554.308;  157.121; -154.115;  -37.794
554.588;   70.256; -196.128; -204.770
554.868;   70.542; -366.121;  -47.782
555.147;  172.993; -114.115;  -46.793
555.427;  636.163; -260.116; -250.792
555.707; 4191.916; -284.115; -200.793
555.986; 5019.953; -719.111; -538.800
556.266; 2691.555;   23.884;   72.210
556.546;  139.515; -888.121; -675.782
556.825;  286.226; -657.114; -556.794
557.105; 1934.129; -125.128;   17.230
557.384; 2261.159;  122.884;  187.209
557.664;  888.262; -717.116; -508.792
557.943;  145.266; -557.121; -411.782
558.222;  183.769; -345.118; -344.788
558.502;  315.020; -116.115;  -76.793
558.781;  511.190;  194.885;  499.208
559.061;  451.894; -232.118; -227.788
559.340;  315.224;  302.883;  353.211
559.619;  779.329;   93.884;  148.210
559.899; 1101.001; -239.117; -266.789
560.178; 1040.394; -778.115; -593.793
560.457; 3373.277; -623.117; -562.790
560.736; 4714.654; -472.111; -482.800
561.015; 3131.727; -500.128; -502.769
561.295;  419.435;  180.893;  215.193
561.574;  346.967;  119.885;  116.207
561.853;  518.619;  274.891;  303.197
562.132;  525.547;  -45.114;  182.206
562.411;  484.136;  396.879;  553.219
562.690;  160.565; -592.115; -458.792
562.969;  153.064;  472.888;  630.203
563.248;  535.133; 2966.878; 2487.219
563.527;  305.229; -290.111; -408.800
563.806;  399.311; -650.127; -521.771
564.085;  431.950; -297.105; -206.810
564.364;  257.229; -594.117; -405.790
564.643;  572.136; -276.121; -223.781
564.922; 2044.888;  221.890;  397.198
565.201; 2068.817; -640.109; -700.803
565.479;  890.139; -297.115; -219.792
565.758;  363.429; -810.128; -712.770
566.037;  507.918; -155.109; -100.803
566.316;  244.584; -286.116;  -28.791
566.595;   56.317;  -17.115;  -12.793
566.873;  109.581; -166.111;  -79.801
567.152;  -41.711; -490.113; -590.797
567.431;   17.355; -113.116;    6.210
567.709;    7.585; -344.107; -212.807
567.988;  274.725; -810.114; -769.794
568.266;  552.991; -160.115;  -68.793
568.545;  414.197; -644.100; -514.819
568.824;  634.963;  160.885;  356.208
569.102;  577.900; -351.114; -235.794
569.381;  252.312; -492.116; -407.792
569.659;  -41.215; -553.113; -553.796
569.938;   27.882; -743.122; -465.780
570.216;  122.971; -225.109; -225.804
570.494;  -20.772; -632.114; -572.795
570.773;   44.815;  202.879;  114.218
571.051;    9.921; -373.123; -357.778
571.330;   78.133; -221.113; -174.796
571.608;   41.015; -181.098; -173.823
571.886;  -60.327; -671.111; -581.799
572.164;  -66.533; -739.121; -621.782
572.443;  -41.671; -562.105; -512.811
572.721;  -40.172; -399.117; -289.790
572.999;  -22.004; -280.117; -168.788
573.277;   88.522;  379.894;  620.191
573.555;  321.674;   94.894;   37.190
573.834; 1466.021;  -86.117; -114.788
574.112; 1698.363;  880.893;  811.193
574.390;  521.630; -143.111;  -96.801
574.668;    9.765;  -91.112;  -61.797
574.946;  -17.000; -165.106; -187.810
575.224;   20.992;   71.891;  -16.803
575.502;  -30.443; -200.116; -204.791
575.780;  -81.834; -767.112; -829.798
576.058;  211.154; 1589.889; 1004.200
576.336;  -18.465; -210.110; -129.801
576.614;  -65.909; -511.112; -340.798
576.891;   63.921; -711.115; -823.794
577.169;  519.154; -158.108; -285.805
577.447;  622.912;  169.893;  202.193
577.725;  289.345;  629.888;  854.201
578.003;   14.218;  -71.112; -371.798
578.280;   86.213; -208.104; -242.812
578.558;   70.470; -450.115; -422.793
578.836;  122.628; -210.114; -145.795
579.114;   61.564; -630.112; -670.797
579.391;   73.148;   -6.117;  -18.789
579.669;  -62.853; -595.114; -704.794
579.947;  173.859; -326.107; -127.806
580.224;  341.509; -692.107; -524.806
580.502;  351.488;  127.893;   76.193
580.779;   34.428;  -42.117;   75.210
581.057;  -71.904; -584.109; -470.804
581.334;  -94.797; -726.102; -695.815
581.612;   36.875;   54.895;  511.190
581.889;  -35.709;  -83.101; -129.818
582.167;  -49.970; -298.099; -190.821
582.444;  -95.415; -845.102; -814.817
582.721;   87.011;  657.899;  715.183
582.999;   46.627; -326.100; -167.821
583.276;  574.650; -812.123; -713.779
583.553;  764.081; -364.102; -294.816
583.831;  251.759; -607.104; -631.812
584.108;   66.952;  349.892;  174.195
584.385;    3.702; -122.102;  -98.815
584.662;  -67.219; -651.111; -828.801
584.940;   22.280;  204.889;  204.199
585.217;  -17.665;  -73.113; -303.796
585.494;   38.314;   71.890;  118.198
585.771;  230.022; -250.109; -354.804
586.048;  520.784; -196.113;  -76.796
586.325;  337.259; -721.110; -773.801
586.602;   95.838;  230.896;  213.188
586.879;   -4.726; -499.100; -580.820
587.156;   57.551; -156.105; -331.810
587.433;  -23.767; -701.102; -667.817
587.710;   62.892;  152.888;  234.202
587.987;  310.806; -264.105; -236.811
588.264;  816.193;  315.888;  387.202
588.541; 1443.516;  -61.104;   26.187
588.818; 2770.199;   72.892;  171.196
589.095; 2440.736; -163.104; -174.812
589.371;  411.070; -459.109; -414.804
589.648;   26.788; -581.107; -437.807
589.925;   23.704; -517.114; -621.795
590.202;   28.341; -741.112; -607.798
590.478;   89.983; -166.105;  -73.811
590.755;  290.880; -241.108; -132.806
591.032; 2622.711; -741.110; -699.802
591.308; 3656.655; -732.094; -790.831
591.585; 1902.785; -573.110; -560.802
591.862;  167.385;-1056.102; -950.817
592.138;   62.878; -475.108; -474.805
592.415;  189.989; -486.104; -495.813
592.691; 1538.337;  460.896;  518.188
592.968; 1975.067; -208.098; -123.824
593.244;  922.406; -695.116; -595.790
593.521;   61.735; -105.102;  -42.817
593.797;  -22.421; -810.122; -720.780
594.074;  351.354; -611.096; -588.826
594.350;  674.990;  828.905;  729.172
594.626;  320.031; -303.111; -283.801
594.903;  106.161; -643.101; -645.817
595.179;  209.018;  243.896;  418.187
595.455;    8.939; -136.107; -150.807
595.731;    7.319;  -19.103;  -38.814
596.008;  -63.149; -464.111; -434.800
596.284;   42.526; -187.100; -242.820
596.560;   55.586; -501.093; -493.833
596.836;  221.353; -173.105;  -70.810
597.112;  342.328; -582.108; -437.805
597.388;  312.427;  -49.097;  -48.826
597.665;  106.712;  437.887;  530.203
597.941;  -50.435; -572.089; -658.839
598.217;   26.414; -323.110; -293.802
598.493;  287.648;   61.891; -204.804
598.769;  517.871; -175.100;  -50.819
599.045;  355.306; -490.108; -562.806
599.321;   47.025; -193.100; -261.820
599.597;  157.823; -355.109; -476.804
599.872;  490.941;  409.896;  429.187
600.148;  395.779;  -61.097; -172.826
600.424;  309.836;   91.893;  202.193
600.700;  267.063; -170.107; -280.807
600.976;  121.623; -442.097; -464.825
601.252;  271.894; -226.109; -272.803
601.527;  223.691; -833.104; -840.813
601.803;  158.709; -453.105; -404.812
602.079;  177.746; -124.100; -118.819
602.354;  586.621; -620.092; -531.835
602.630;  859.160; -140.113; -482.796
602.906; 2520.716; -910.101; -863.818
603.181; 7130.060; -627.119; -534.786
603.457; 6089.226;   98.903; -278.826
603.733;  896.494; -605.120; -626.783
604.008; 1038.000; -245.106; -164.810
604.284; 3231.937; -636.101; -580.817
604.559; 2778.670;   -3.112;  -42.799
604.835;  505.803; -163.105; -225.810
605.110;  454.055; -732.099; -892.821
605.385;  711.514;  224.907;  267.167
605.661;  716.343; -625.095; -729.829
605.936; 1227.832; -664.108; -737.806
606.211; 1059.526;  -17.103; -170.815
606.487;  215.124; -329.114; -376.794
606.762;   23.011; -791.119; -745.786
607.037;  -25.297; -501.105; -433.810
607.313;  -52.764; -589.096; -574.828
607.588;   -0.900; -375.106; -137.810
607.863;   38.565;  -28.101; -143.818
608.138;  179.688;  513.890;  516.198
608.413;   39.909; -576.099; -592.822
608.688;   49.503; -203.108; -267.805
608.964;  212.194; -509.106; -218.809
609.239;  256.876; -107.105; -212.810
609.514;  287.258;  281.895;  240.188
609.789;  660.213; -187.104; -716.812
610.064;  903.335; -435.096; -609.827
610.339;  963.420; -855.109; -799.804
610.614; 1272.226; -131.100; -315.820
610.889;  727.509;  215.895;  107.188
611.163;   51.634; -407.104; -591.812
611.438;   79.850;   81.886; -167.794
611.713;   11.962; -467.101; -499.817
611.988;   54.039; -144.101; -328.818
612.263;  -19.247; -771.102; -717.815
612.538;  235.884;  385.887;  251.204
612.812;  190.602; -832.100; -911.820
613.087;  114.965; -358.098; -338.823
613.362;  -48.336; -497.107; -557.807
613.637;   27.447;  261.897;  138.186
613.911;   -4.328; -256.092; -345.835
614.186;  126.812; -249.107; -292.807
614.460;  728.190; -842.081; -758.854
614.735;  834.414;  -55.087;  -17.843
615.010;  176.654;   43.912;  -82.841
615.284;  256.602;  360.892;  246.195
615.559;  382.620; -792.092; -955.835
615.833;  295.207;  -76.099;  -87.822
616.108;    4.882; -225.090; -390.837
616.382;  154.865;  274.913;  402.156
616.656;  178.683; -241.090; -232.837
616.931;  537.958; -785.099; -700.822
617.205; 1144.817; -973.104; -979.813
617.480; 1017.230;  -91.125;    6.225
617.754;  186.027; -396.125; -128.774
618.028;   10.173; -369.129; -382.768
618.302;   70.001;   73.892;  -25.805
618.577;  -56.002; -371.103; -518.815
618.851;  -50.009; -399.109; -600.803
619.125;  -46.521; -335.134; -378.759
619.399;  -24.383; -244.104; -374.813
619.673;  -54.212; -330.115; -515.792
619.947;  -38.197; -333.114; -448.795
620.222;  -28.143; -198.110; -204.801
620.496;   14.742;  -47.121;  -96.782
620.770;   13.108; -187.122;  -93.781
621.044;  231.401;  323.895;  346.190
621.318;  779.720; -653.120; -614.783
621.592;  713.792; -430.121; -409.783
621.866;  367.446; -476.112; -572.799
622.140;   43.407; -207.116; -356.791
622.413;   49.700;  138.889;  112.200
622.687;  -33.938; -746.101; -492.817
622.961;   17.076; -130.108; -143.805
623.235;  -57.374; -633.111; -661.800
623.509; -102.742; -816.105; -848.811
623.783;   22.210;  -12.107;   48.193
624.056;  -36.354; -254.120; -280.783
624.330;   55.690;   63.888;   -3.797
624.604;   48.329; -271.116; -355.790
624.877;   76.987;  180.890;   26.198
625.151;   44.973; -249.114; -238.794
625.425;  -23.431; -150.103; -283.814
625.698;  -66.120; -367.119; -374.785
625.972;  -96.711; -799.110; -765.802
626.245;   65.956;  685.884;  484.210
626.519;  -56.250; -426.120; -340.784
626.792;  -34.087; -192.107; -380.807
627.066;  -87.524; -485.122; -662.779
627.339; -102.365; -736.110; -663.802
627.613;   53.773;  351.880;  148.216
627.886;  -62.984;  187.891; -612.803
628.160;  -14.156;  312.880; -161.783
628.433; -108.192; -695.125; -703.775
628.706;  -63.075; -517.120; -615.784
628.979;   13.939;  296.876;  117.223
629.253;  -69.615; -785.119; -833.786
629.526;  402.192; -334.126; -253.772
629.799;  363.546; -641.123; -479.778
630.072;  172.000; -497.128; -516.769
630.346;  -53.219;-1115.116;-1080.790
630.619;  484.139; -467.107; -545.808
630.892;  656.077;  709.889;  593.200
631.165;  354.017;  790.896;  679.187
631.438;  -72.207;-1092.112;-1055.798
631.711;   43.424;  453.877;  257.221
631.984;  -59.449; -523.117; -624.789
632.257;  -78.202; -636.117; -681.789
632.530;  -41.120; -412.119; -433.785
632.803;   26.921; -109.115;    7.207
633.076;  -72.957; -360.123; -422.777
633.349;   -0.996;  173.872;  121.231
633.622;  -39.821; -187.119; -240.785
633.895; -131.805; -903.120; -823.783
634.167;  -70.656; -496.126; -525.773
634.440;  -15.913;  -19.116; -137.792
634.713;   12.259;  -22.119; -120.786
634.986;   82.518;  593.871;  453.233
635.258;  -66.531; -507.115; -597.793
635.531;   82.719;  742.882; -343.788
635.804;  -30.975; -303.117; -318.789
636.077;  -97.642; -830.116; -852.791
636.349;   11.792; -586.115; -474.793
636.622;  411.817; 1695.874; 1392.228
636.894;  252.575; -474.120; -909.784
637.167;  162.386; -836.127; -789.771
637.439;   42.432; -278.128; -213.770
637.712;  -59.132; -312.126; -293.772
637.984;  -68.466; -635.116; -707.791
638.257;  390.493;  515.877;  488.222
638.529;  592.784; -881.125; -924.776
638.802;  241.349; -508.128; -449.769
639.074; -102.817; -927.122; -952.781
639.346; -134.655; -942.135; -930.757
639.619;    2.656;  -79.142; -319.744
639.891;  -11.024;  -83.122; -168.779
640.163;  -89.447; -689.122; -756.780
640.435;   35.130;  273.878;  103.220
640.708;   20.132;  -72.122; -132.780
640.980;  -38.441; -366.122; -362.781
641.252;  217.611;  -25.121;  -71.781
641.524; 1837.262;  580.879;  573.219
641.796; 1833.489;-1094.121; -907.782
642.068;  322.766; -191.121; -300.782
642.340;  -52.307; -486.121; -566.783
642.613;   36.445;  294.880;  323.217
642.885; -104.654; -787.120; -878.783
643.157;  -59.477; -810.120; -658.784
643.428;   70.275;  170.880;  218.216
643.700;  -77.373; -498.120; -425.784
643.972;  -17.596;  -16.119; -133.785
644.244; -102.944; -474.119; -559.785
644.516;  -48.593; -250.119; -114.786
644.788;   60.809;  662.881;  548.214
645.060;  -16.964;  -12.119; -124.786
645.332;  -99.862; -525.118; -535.787
645.603;   35.290;  479.882;  342.213
645.875;  -82.258; -334.118; -369.787
646.147;  170.518; 1487.882; 1242.212
646.418;  -68.355; -931.117; -918.788
646.690;  177.172; -714.117; -715.789
646.962;   31.599; -413.117; -451.789
647.233;    0.201;   15.883;   11.211
647.505; -111.073; -595.117; -475.790
647.776;   29.904;  328.884;  229.210
648.048;  -15.294; -248.116; -418.790
648.320;  -63.142; -752.116; -679.791
648.591; -170.240;-1055.116; -958.791
648.862;  -78.888; -505.116; -577.792
649.134;   10.088;  115.885;  198.208
649.405;  -59.885; -661.115; -618.792
649.677;  -58.708; -475.115; -598.793
649.948;    4.369; -181.115; -296.793
650.219;   -7.304;  -37.115; -147.793
650.491;  -85.528; -431.114; -520.794
650.762; -126.176; -705.114; -731.794
651.033;  -83.424; -437.114; -424.795
651.304;  -97.897; -743.114; -728.795
651.576;  -65.320; -680.114; -645.795
651.847;  -44.518; -250.113; -140.796
652.118;  -25.867;  -32.113; -189.796
652.389; -127.865; -639.113; -722.796
652.660;  -33.163; -147.113;  -89.797
652.931; -142.386; -897.112; -871.797
653.202;  -82.584; -382.112; -541.798
653.473;  -82.607; -633.112; -533.798
653.744;  162.069; -595.112; -590.798
654.015;  132.046; -356.112; -303.799
654.286;  -53.752; -642.111; -663.799
654.557;  -68.500; -586.111; -521.799
654.828; -156.923;-1114.111;-1088.800
655.099;  -89.822; -404.111; -291.800
655.370;  -90.570; -427.111; -543.801
655.641; -130.818; -656.110; -714.801
655.911; -105.191; -618.110; -638.801
656.182;   21.586;  437.890;  387.198
656.453;   96.413;  830.890;  746.198
656.724;  -74.186; -466.110; -426.802
656.994;  -69.884; -553.109; -568.803
657.265; -122.607; -862.109; -873.803
657.536;  -80.855; -500.109; -377.804
657.806; -115.928; -561.109; -593.804
658.077; -135.226; -866.109; -950.804
658.347;  -97.775; -523.108; -598.805
658.618; -117.198; -646.108; -694.805
658.888;  -27.896;  -41.108;  112.195
659.159;  -74.269; -432.108; -548.806
659.429;  -22.717; -292.108; -349.806
659.700;   22.509; -435.107; -390.807
659.970;  -18.189; -370.107; -359.807
660.241;   23.013; -754.107; -921.807
660.511;  506.015; -147.107; -174.808
660.781;   89.492; -793.106; -748.808
661.052;  -38.881; -222.106; -381.808
661.322;   -9.205;   21.894;   -9.809
661.592;    1.197;  257.894;  148.191
661.862;  -72.901; -369.106; -382.810
662.133; -111.849; -551.105; -502.810
662.403; -112.747; -770.105; -676.810
662.673;  -70.845; -256.105; -213.811
662.943; -100.394; -612.105; -551.811
663.213;  -14.517;  -85.105;  -81.811
663.483;  -78.040; -593.104; -568.812
663.753;  -39.138; -194.104; -152.812
664.023;  -19.736;   68.896;  -32.813
664.293;  -64.810; -319.104; -126.813
664.563; -109.283; -694.104; -648.813
664.833; -125.856; -743.103; -608.814
665.103; -124.204; -730.103; -793.814
665.373; -128.752; -766.103; -806.814
665.643;  -77.600; -863.103; -918.815
665.913;   36.051; -534.103; -714.815
666.182;  141.678; -685.102; -719.816
666.452;  290.430;  -22.102;  -89.816
666.722;  -13.718; -724.102; -784.816
666.992; -139.816; -948.102; -921.817
667.261;  -88.114; -824.102; -808.817
667.531;  192.387;  134.899;   45.183
667.801;  550.739; -440.101; -412.818
668.070;  223.391;  714.899;  697.182
668.340;  -88.332; -883.101; -840.819
668.609;   89.845;  588.900;  301.181
668.879;  -79.729; -490.100; -558.819
669.149;  -81.227; -539.100; -516.820
669.418; -106.475; -698.100; -726.820
669.688;  -24.998; -482.100; -666.820
669.957;   77.654; -423.099; -546.821
670.226;  -31.169; -268.099; -331.821
670.496;  -95.818; -431.099; -635.822
670.765;  -85.516; -418.099; -501.822
671.034; -136.864; -872.099; -828.822
671.304;  -28.162;   55.902; -111.823
671.573; -142.510;-1085.098; -957.823
671.842;   88.066; -380.098; -294.823
672.112;   49.068; -692.098; -586.824
672.381;    1.545; -239.098; -214.824
672.650; -126.528;-1005.097;-1021.825
672.919;  -95.676; -631.097; -507.825
673.188;  -98.149; -681.097; -878.825
673.457; -150.223;-1101.097;-1143.826
673.726;  -74.146; -579.096; -646.826
673.995;  -52.119; -533.096; -479.826
674.265;   -8.717; -263.096; -333.827
674.534;   -9.365; -183.096; -235.827
674.802;   16.037; -618.096; -703.828
675.071; 1102.988; -886.095; -801.828
675.340; 4182.340; -464.095; -339.828
675.609; 1396.167;  103.905;   82.171
675.878;   84.194; -949.095; -893.829
676.147;   28.496;  -26.095;   -8.829
676.416;  107.697; -210.094; -294.830
676.685;  760.374; 1000.906; -622.830
676.953;  130.476; -603.094; -452.831
677.222;  -29.597; -193.094; -273.831
677.491;  -18.770;  -24.094; -127.831
677.759;  -19.918;   11.907;  172.168
678.028;  -21.892; -279.093; -222.832
678.297;  -16.190;   71.907;  197.168
678.565; -146.313; -898.093; -944.833
678.834;  -68.036; -311.093; -268.833
679.102;  -65.509; -411.092; -391.834
679.371; -149.282; -898.092; -727.834
679.639; -129.031; -797.092; -786.834
679.908; -131.704; -794.092; -724.835
680.176; -159.452; -895.091; -941.835
680.445;  -88.950; -346.091; -352.835
680.713;  -24.648;  -58.091;  -23.836
680.982; -103.772; -523.091; -525.836
681.250;  -98.445; -578.091; -507.837
681.518;  -98.893; -534.090; -751.837
681.787;  -17.441; -204.090; -167.837
682.055;  -75.214; -490.090; -422.838
682.323; -152.612; -993.090; -992.838
682.591;   30.064; -216.090; -538.838
682.859;  113.691;    9.911;  -35.839
683.128;   14.243;  232.911;  497.161
683.396; -159.680;-1102.089;-1122.840
683.664;  -44.853; -241.089;   21.160
683.932;   -0.726;  144.911;  -76.840
684.200;  -93.075; -576.088; -320.841
684.468;   -6.923;  -73.088; -124.841
684.736;  -39.146; -214.088; -175.841
685.004; -126.944;-1024.088; -982.842
685.272;  -63.217; -880.088; -774.842
685.540;  -57.116; -499.087; -557.843
685.808; -103.639; -651.087; -682.843
686.076; -100.287; -894.087; -969.843
686.343;  -64.010; -601.087; -815.844
686.611;   37.242; -195.087; -224.844
686.879;  499.944; -530.086; -553.844
687.147; 3525.245; -483.086; -480.845
687.414;  986.572;  -12.086; -169.845
687.682;    5.224; -658.086; -757.846
687.950;  324.251;  259.915;  263.154
688.217;   37.828; -792.085; -760.846
688.485;    0.080; -632.085; -636.847
688.753;  571.656;  -11.085; -102.847
689.020;  174.133; -820.085; -851.847
689.288;  -88.690; -853.084; -787.848
689.555;  -41.313; -195.084; -148.848
689.823;  -29.261; -241.084; -345.849
690.090;  -86.060; -546.084; -651.849
690.358; -141.058; -877.084; -897.849
690.625;    2.319;  120.917;   45.150
690.892;  -65.304; -403.083; -369.850
691.160;  -30.652;   72.917;  -35.850
691.427;    7.750;  141.917;  130.149
691.694; -144.249; -855.083; -929.851
691.962; -139.597;-1177.082;-1060.852
692.229;    8.555;  127.918;   56.148
692.496;   93.957;  130.918;  -49.852
692.763;   -0.966; -164.082; -201.853
693.031;  -60.715; -739.082; -716.853
693.298;  -51.313; -509.081; -368.853
693.565;  351.264; -155.081; -163.854
693.832; 1322.966;   -5.081;   -9.854
694.099;  159.443; -643.081; -642.855
694.366;  -56.630; -882.081; -896.855
694.633;  -50.154; -920.080; -633.855
694.900;  764.423; 4367.920; -114.856
695.167;  440.675; -214.080; -380.856
695.434;   96.452; -646.080; -623.856
695.701;  198.454;  121.921;  -61.857
695.968;  468.056; -365.079; -361.857
696.234; 1024.757; -415.079; -646.858
696.501;10224.209; -776.079; -614.858
696.768; 5105.461; -554.079; -617.858
697.035;  306.788; -632.078; -667.859
697.302;   35.490; -448.078; -552.859
697.568;    5.941; -458.078; -497.859
697.835;  -42.182; -683.078; -624.860
698.102;  -42.905; -498.078; -407.860
698.368;   79.122;  384.923;  396.139
698.635;  -50.326;  -47.077; -424.861
698.901;  -15.299; -240.077; -348.861
699.168;   62.127; -534.077; -456.862
699.435;   80.004;  -72.077;  -13.862
699.701; -116.969; -868.076; -764.862
699.968;  -43.917;  144.924; -441.863
700.234; -110.540; -783.076; -822.863
700.500;  -57.288; -448.076; -539.864
700.767;   -4.762;   -1.075;   26.136
701.033; -124.510;-1015.075; -963.864
701.299;  -55.883; -450.075; -483.865
701.566;  124.669;  950.925;  763.135
701.832;   16.896;  -31.075;  -76.865
702.098;  -98.403;-1054.074;-1034.866
702.365;  -89.176;-1098.074;-1030.866
702.631;  -20.199;-1038.074;-1063.867
702.897; 1426.253; -765.074; -676.867
703.163; 2281.530;  348.926;  254.133
703.429;  142.857; -256.073; -273.868
703.695;  -34.417; -796.073; -792.868
703.961;    6.535; -214.073; -210.868
704.227;  -69.363; -630.073; -725.869
704.493;  114.589;  613.927;  510.131
704.759;  -20.284; -565.072; -540.870
705.025;   17.043; -203.072; -194.870
705.291;  -10.606; -666.072; -562.870
705.557;  199.221;  719.928;   34.129
705.823;   32.873; -742.072; -694.871
706.089;  123.100; -307.071; -326.871
706.355;  370.252; -315.071; -244.872
706.620; 5316.103; -776.071; -729.872
706.886; 7524.205; -309.071; -362.873
707.152;  699.107; -818.070; -973.873
707.418;  -24.241;-1153.070;-1186.873
707.683;   -9.739; -550.070; -530.874
707.949;  -31.787; -547.070; -578.874
708.215;   -3.036; -129.070; -207.874
708.480;  -24.559; -520.069; -420.875
708.746;   91.468;   68.931;   28.125
709.011;  -53.105; -578.069; -612.876
709.277;  -89.978; -538.069; -543.876
709.542;  -45.377; -428.069; -387.876
709.808;  -20.875;  -59.068;   89.123
710.073;  -77.623; -577.068; -695.877
710.339;  -40.271; -242.068; -228.877
710.604;   86.881; -780.068; -845.878
710.869;  308.383; -277.068; -366.878
711.135;  -62.791; -715.067; -628.879
711.400;  -81.914; -507.067; -608.879
711.665;  -74.062; -404.067; -479.879
711.931; -100.960; -661.067; -677.880
712.196; -132.558; -876.067; -954.880
712.461;  121.319; -402.066; -490.880
712.726;  159.220; -727.066; -771.881
712.991; -107.453; -647.066; -664.881
713.256;  -48.076; -350.066; -332.882
713.521;  -61.849; -417.065; -381.882
713.787;  -60.622; -454.065; -472.882
714.052;  -40.346; -214.065; -400.883
714.317;  -82.144;-1045.065; -981.883
714.581; 1009.808; -374.065; -268.883
714.846; 1307.760; -822.064; -888.884
715.111;  127.487;  261.936;  257.116
715.376;  -19.511;  -86.064; -223.885
715.641;  -22.560; -365.064; -367.885
715.906;  314.542;   15.936; -551.885
716.171;  134.319;  221.937;  209.114
716.436;   31.246;  -78.063; -104.886
716.700; -116.727; -818.063; -692.886
716.965; -124.825; -794.063; -807.887
717.230;  -65.874; -339.063; -392.887
717.494;  -27.797;  -40.062; -134.888
717.759; -100.695; -784.062; -640.888
718.024;    4.357;  269.938;  250.112
718.288;   50.559;  685.938;  395.111
718.553; -136.115; -803.062; -977.889
718.817; -146.913; -883.061; -899.889
719.082;  -20.886; -115.061; -125.890
719.346; -159.234;-1000.061; -947.890
719.611;  -49.607; -300.061; -255.891
719.875; -118.880; -568.060; -537.891
720.140;  -44.379; -453.060; -603.891
720.404;   63.873; -136.060; -249.892
720.668;  907.675; -475.060; -411.892
720.933;  319.477;  146.940;  137.108
721.197;  -87.496; -667.059; -600.893
721.461; -143.519; -851.059; -826.893
721.725;  -23.868;  -21.059; -250.894
721.990;  -63.766; -284.059; -204.894
722.254;  -26.614;  -26.059; -108.894
722.518;  -81.862; -286.058; -442.895
722.782;  -93.210; -743.058; -594.895
723.046;  117.091;  614.942;  570.105
723.310;   16.518;  374.942;  210.104
723.574; -111.105; -654.058; -614.896
723.838;  -95.428; -576.057; -642.897
724.102;  -56.526; -226.057; -239.897
724.366; -133.624;-1032.057; -978.897
724.630; -125.148; -749.057; -571.898
724.894;  -70.696; -722.057; -514.898
725.158;  -17.894;   38.944; -295.898
725.422;  -43.442; -394.056; -327.899
725.685;  -80.715; -441.056; -349.899
725.949;  -81.138; -566.056; -519.900
726.213;  -82.787; -732.056; -811.900
726.477;  188.665;-1020.055; -933.900
726.740;  139.992; -274.055; -104.901
727.004;  348.194; -384.055; -510.901
727.268; 3238.846; -442.055; -400.901
727.531;  842.772; -961.055; -775.902
727.795;  -51.826; -713.054; -673.902
728.059;  -45.074; -552.054; -557.903
728.322;  -77.697; -841.054; -669.903
728.586;   36.980; -692.054; -701.903
728.849;  -93.343; -695.053; -756.904
729.112; -116.992; -812.053; -912.904
729.376; -133.290; -959.053; -905.904
729.639;  -68.988; -536.053; -536.905
729.903; -121.786; -733.053; -699.905
730.166;  -53.734; -437.052; -399.906
730.429;  -25.208; -317.052; -468.906
730.693;  -70.131; -355.052; -894.906
730.956;  228.546;  810.948;  651.093
731.219;  731.498; -310.052; -103.907
731.482;  130.250;-1003.051; -894.907
731.745;  107.902; -794.051; -935.908
732.009;    3.578;  -30.051;   50.092
732.272;  -92.720; -904.051; -771.909
732.535;  -45.393; -300.051; -310.909
732.798; -157.516;-1083.050;-1166.909
733.061;  -67.089; -430.050; -456.910
733.324;   18.288;   31.950; -180.910
733.587;   67.514;  290.950;  365.090
733.850;  -62.259; -973.049;-1050.911
734.113;   24.468;   33.951;   32.089
734.376;   11.170; -328.049; -447.912
734.639;  224.372; 1188.951; 1011.088
734.901;   85.873; -180.049; -402.912
735.164;  554.175; -883.048; -837.913
735.427; 1321.777; -166.048; -355.913
735.690;  117.854; -205.048; -234.913
735.952;  -33.119; -923.048; -925.914
736.215;  -39.767;-1113.048;-1009.914
736.478;   48.234; -771.047; -774.915
736.740;  198.886;   33.953;  129.085
737.003;  777.438; -658.047; -672.915
737.266; 4244.240;  -94.047;   46.084
737.528;  446.792; -682.047; -660.916
737.791;  291.044; -316.046; -327.916
738.053;  812.120;  465.954;  649.083
738.316;10958.572; -162.046; -136.917
738.578; 7263.449; -770.046; -736.918
738.841;  411.151; -382.046; -446.918
739.103;  179.928; -875.045; -777.918
739.365;  510.404;   79.955;  -69.919
739.628;    6.081; -884.045; -805.919
739.890;  -36.592; -758.045; -710.919
740.152;  -36.190; -692.044; -754.920
740.414;   -9.438; -408.044; -359.920
740.677;  -37.686; -785.044; -634.921
740.939;  -48.160; -587.044; -487.921
741.201;  310.667; -432.044; -572.921
741.463;   24.169; -689.043; -745.922
741.725;    9.121;  -21.043; -199.922
741.987;   59.898;  220.957;  116.078
742.249;    7.550; -751.043; -859.923
742.511;  221.401; -703.043; -794.923
742.773;   29.478; -546.042; -546.924
743.035;  121.405;  796.958;  533.076
743.297;  -28.618; -963.042;-1013.924
743.559;  771.409; -278.042; -262.925
743.821;   62.560; -735.042; -744.925
744.083;   -3.413;  -44.041; -149.925
744.345;  -89.111; -869.041; -892.926
744.607;   26.041;   75.959;  122.074
744.868;  -61.907; -490.041; -554.927
745.130; -124.780; -994.041;-1008.927
745.392;   46.971;   -1.040;  -44.927
745.653;  -17.752; -411.040; -378.928
745.915;  177.700;  896.960;  631.072
746.177;   46.052;   35.960;  -43.928
746.438;   -3.246; -428.040; -543.929
746.700;  -61.644; -947.039; -988.929
746.961;    6.107; -659.039; -740.930
747.223;  135.584; -190.039;  -74.930
747.484;   92.586; -391.039; -471.930
747.746;  139.663;  -23.038; -106.931
748.007;  122.090; -647.038; -689.931
748.269;  312.766; -468.038; -440.931
748.530;  495.993; -852.038; -638.932
748.791;  254.795; -354.038; -420.932
749.053;  486.847;  286.963;  163.067
749.314;  471.674; -236.037; -169.933
749.575;  515.226; -945.037; -905.933
749.836;  864.052; -217.037;   86.066
750.098; 2703.704;  -60.037;  -21.934
750.359;37952.431;  414.964;  555.066
750.620; 9104.083; -121.036; -220.935
750.881; 1060.285; -585.036; -513.935
751.142; 1410.911; -950.036; -938.936
751.403;17215.963; -789.036; -705.936
751.664; 7176.265;-1034.035; -999.936
751.925;  469.892; -175.035; -262.937
752.186;  273.894; -298.035; -278.937
752.447;  121.521; -590.035; -445.937
752.708;   63.397; -532.035; -648.938
752.969;   -0.951; -566.034; -576.938
753.230;  -17.474; -777.034; -672.939
753.491;   -6.422; -650.034; -631.939
753.751;   84.605;  109.966;   19.061
754.012;  101.557;  258.967;  181.060
754.273;   50.983; -174.033;  -71.940
754.534;   -6.365; -487.033; -580.940
754.794;  -84.913; -926.033; -911.941
755.055;  140.814; 1051.967;  881.059
755.316;  -39.859; -700.032; -566.942
755.576;  -44.558; -606.032; -576.942
755.837;  -36.856; -527.032; -695.942
756.097;  -41.204; -530.032; -564.943
756.358;  -83.202; -725.032; -770.943
756.618;  -62.525; -705.031; -641.943
756.879;    0.852; -254.031; -349.944
757.139; -138.922;-1098.031;-1116.944
757.400;  -58.995; -538.031; -553.945
757.660;  -15.568; -365.031; -401.945
757.920;   19.909; -266.030; -228.945
758.181;  -10.489; -468.030; -351.946
758.441;  -92.162; -870.030; -809.946
758.701;  -36.186; -308.030; -215.946
758.961;   -3.209; -220.030; -278.947
759.222;  -60.957; -574.029; -502.947
759.482;  -76.105; -683.029; -723.948
759.742;  -89.203; -706.029; -547.948
760.002;   15.298;  -83.029; -143.948
760.262;   19.400;   50.972;  182.051
760.522;  -43.623; -498.028; -574.949
760.782;  -65.396; -738.028; -612.949
761.042;  -25.194; -618.028; -573.950
761.302;   54.883;   55.972;  -18.950
761.562;   64.684; -164.027; -154.951
761.822;   89.386; -710.027; -551.951
762.082;  -37.287;-1104.027;-1093.951
762.342;   70.315; -328.027; -403.952
762.601;   81.767; -567.027; -506.952
762.861;  387.619; -281.026; -207.952
763.121;  433.495; -406.026; -411.953
763.381; 7686.222; -499.026; -485.953
763.640; 7834.799; -139.026; -307.954
763.900;  345.651; -242.026; -203.954
764.160;   99.478; -458.025; -491.954
764.419;  -24.596; -726.025; -782.955
764.679;  -71.094; -795.025; -726.955
764.939;  -24.392; -124.025; -210.955
765.198;  -65.190; -608.025; -563.956
765.458;  -90.788; -710.024; -612.956
765.717;  -81.061; -454.024; -590.957
765.976;  -79.335; -428.024; -411.957
766.236;  -71.283; -475.024; -610.957
766.495;   13.419;  260.977;   73.042
766.755;  -87.904;-1090.023; -987.958
767.014;    1.823; -594.023; -665.958
767.273;  -51.326; -373.023; -397.959
767.533;  -62.399; -228.023; -307.959
767.792;  -35.022; -151.022; -188.960
768.051;  -66.145; -228.022; -276.960
768.310;  -91.418; -546.022; -650.960
768.569;  -12.266; -161.022;    4.039
768.828;  -31.865; -285.022; -363.961
769.088; -141.363;-1050.021; -942.961
769.347;  -82.461; -755.021; -599.962
769.606; -117.809; -876.021; -857.962
769.865; -121.882;-1016.021;-1033.963
770.124;    7.195; -411.021; -336.963
770.383;  -58.479; -778.020; -910.963
770.641;  -15.977; -398.020; -400.964
770.900;  -54.475; -953.020; -846.964
771.159;  -65.648; -851.020; -951.964
771.418;  -12.796; -917.020; -779.965
771.677;  103.855; -224.019; -293.965
771.936;  132.032; -794.019; -865.966
772.194; 2256.684; -465.019; -437.966
772.453;10572.861; -213.019; -391.966
772.712;  717.763;  416.982;  329.033
772.970;  105.590;   32.982;   63.033
773.229;   74.766;  -22.018;  102.033
773.488;  -81.257; -814.018; -770.968
773.746;   56.845;  296.982;  335.032
774.005;    2.672;  190.983;  -22.969
774.263;    8.824;  243.983;  177.031
774.522;  -95.774; -422.017; -548.969
774.780;  -87.823; -484.017; -417.970
775.039;  -80.896; -551.017; -531.970
775.297;  -48.119; -135.016; -351.970
775.555; -105.517; -489.016; -612.971
775.814; -132.015; -618.016; -570.971
776.072; -120.864; -749.016; -740.971
776.330; -111.862; -630.016; -520.972
776.589; -116.160; -703.015; -721.972
776.847; -135.233; -645.015; -624.973
777.105; -157.056;-1016.015;-1032.973
777.363;  -93.979; -459.015; -454.973
777.621; -139.103; -660.015; -717.974
777.879;  -40.876;  -42.014;   32.026
778.138;  -99.524; -554.014; -717.974
778.396; -106.822; -585.014; -526.975
778.654; -159.270;-1015.014; -970.975
778.912;  -83.093; -269.014; -371.976
779.170; -126.492; -880.013; -803.976
779.427; -153.890; -922.013; -897.976
779.685; -137.213; -880.013; -832.977
779.943;  -86.111; -654.013; -593.977
780.201; -157.934; -964.012; -883.978
780.459; -129.733; -651.012; -610.978
780.717;  -79.831; -440.012; -390.978
780.974; -115.829; -449.012; -490.979
781.232;  -72.252; -358.012; -338.979
781.490;  -87.950; -551.011; -472.979
781.747; -101.848; -555.011; -476.980
782.005;    2.278;  462.989;  254.020
782.263; -168.745; -542.011;-1004.981
782.520;  -85.193; -326.011; -501.981
782.778; -161.041;-1013.010;-1051.981
783.035; -188.139; -962.010; -938.982
783.293;  -59.412; -248.010; -206.982
783.550;  -74.086; -134.010; -198.982
783.808; -126.034; -764.010; -776.983
784.065; -180.182; -745.009; -874.983
784.322;  -52.630;   25.991;  -86.984
784.580; -152.228; -915.009; -771.984
784.837;  -88.952; -392.009; -466.984
785.094; -147.775; -783.009; -762.985
785.352;  -53.948; -304.008; -404.985
785.609; -116.821; -934.008; -839.985
785.866;  -72.519; -345.008; -401.986
786.123;  -72.267; -639.008; -583.986
786.380;  -99.541; -665.008; -604.987
786.637;  -56.739; -225.007; -380.987
786.895;  -25.587; -456.007; -543.987
787.152;  -47.510; -135.007; -267.988
787.409;  -48.483; -123.007; -225.988
787.666;  -97.607; -299.006; -378.988
787.923; -101.705; -616.006; -695.989
788.179; -118.528; -551.006; -584.989
788.436; -114.626; -585.006; -585.990
788.693;  -55.724;  -92.006;  -87.990
788.950;  169.778; -125.005; -112.990
789.207;  226.429; -381.005; -372.991
789.464;  -52.794; -161.005; -301.991
789.720;  -25.492;  150.995;  110.009
789.977; -180.140;-1003.005; -671.992
790.234;  -28.813;   44.996;  -66.992
790.490; -149.611; -884.004;-1031.993
790.747;  -40.710;  -85.004;   22.007
791.004;  -15.508; -426.004; -348.993
791.260;  -84.131; -430.004; -560.994
791.517; -102.479; -843.003; -788.994
791.773;  -64.577; -379.003; -342.994
792.030; -102.651; -596.003; -660.995
792.286; -122.524; -686.003; -636.995
792.543;  -22.047;  -74.002; -159.995
792.799;  -81.020; -584.002; -382.996
793.055; -152.618;-1179.002;-1210.996
793.312;  -94.216; -827.002; -816.997
793.568;  -63.415; -746.002; -599.997
793.824;   12.762; -226.001; -284.997
794.081;    8.364; -447.001; -508.998
794.337;   42.341; -664.001; -561.998
794.593; 1421.093; -319.001; -271.999
794.849; 6477.670; -746.001; -772.999
795.105;  314.371; -270.000; -261.999
795.361;    6.948; -490.000; -457.000
795.617;  -63.425; -875.000; -945.000
795.873;  -52.850; -360.000; -407.000
796.129;  -40.175; -368.000; -306.000
796.385;  -26.500; -124.000; -156.000
796.641;   66.500;  412.000;  550.000
796.897;  -92.150; -666.000; -635.000
797.153;   86.025;  453.000;  357.000
797.409; -113.800; -785.000; -868.000
797.665;  -63.175; -625.000; -732.000
797.921;  -84.575; -775.000; -762.000
798.176;  -39.375; -744.000; -747.000
798.432;  -70.050; -824.000; -596.000
798.688;  -76.150;-1174.000;-1078.000
798.943;   62.250; -165.000; -147.000
799.199;   -5.150;-1005.000; -959.000
799.455;  222.200;  369.000;  316.000
799.710;  116.825; -813.000; -380.000
799.966;  279.225; -162.000; -160.000
800.221;  467.325; -638.000; -721.000
800.477;10733.825; -743.000; -710.000
800.732; 8704.825; -773.000; -800.000
800.988;  601.225;  205.000;  -19.000
801.243; 1792.600; -454.000; -344.000
801.498; 6992.900; -814.000; -739.000
801.754;  384.925; -289.000; -163.000
802.009;   63.800; -257.000; -335.000
802.264;  -60.750; -967.000;-1033.000
802.520;   26.200;  222.000;   -3.000
802.775;  -51.875; -524.000; -359.000
803.030;   45.825;  395.000;  356.000
803.285; -110.675; -840.000; -903.000
803.540;  -67.725; -686.000; -699.000
803.795;  -32.075; -648.000; -583.000
804.051;  -63.950; -279.000; -346.000
804.306;   17.325;  168.000;  128.000
804.561;  140.450;  451.000;  362.000
804.816;  136.550;  714.000;  861.000
805.071;    4.775; -185.000; -280.000
805.325;  232.725; -257.000; -427.000
805.580; -117.000; -841.000; -877.000
805.835;  -19.025; -204.000; -297.000
806.090;  -88.675; -760.000; -676.000
806.345;  -18.000; -344.000; -264.000
806.600;  -25.575; -549.000; -632.000
806.854;  -33.925; -408.000; -538.000
807.109;  -17.900; -493.000; -577.000
807.364;   18.100; -407.000; -328.000
807.618;  -13.875; -415.000; -381.000
807.873;   62.350; -470.000; -494.000
808.128;   91.400; -257.000; -518.000
808.382;  110.125; -224.000; -332.000
808.637;   62.750; -440.000; -511.000
808.891;  190.175; -257.000; -180.000
809.146;   76.875; -902.000; -794.000
809.400;  286.100; -848.000; -923.000
809.654;  330.700; -779.000; -551.000
809.909;  498.500; -841.000; -927.000
810.163; 7311.350; -813.000; -651.000
810.418;17456.150; -940.000; -861.000
810.672; 1011.775; -685.000; -690.000
810.926;  715.175; -993.000; -973.000
811.180; 1418.175; -439.000; -372.000
811.434;31583.600;  240.000;  135.000
811.689;11645.175; -231.000; -365.000
811.943;  608.050; -936.000; -953.000
812.197;  284.125; -893.000; -671.000
812.451;  114.650; -379.000; -514.000
812.705;  -10.825; -809.000; -619.000
812.959;    0.325; -263.000; -388.000
813.213;   -2.225; -283.000; -209.000
813.467;   70.650;  470.000;  253.000
813.721;  -98.575; -764.000; -792.000
813.975; -114.050; -826.000; -877.000
814.229;   31.575;  430.000;  353.000
814.482;  -78.175; -517.000; -566.000
814.736; -128.725; -766.000; -744.000
814.990; -120.350; -779.000; -872.000
815.244;  -37.300; -228.000; -285.000
815.497;  -96.925; -636.000; -601.000
815.751;  -28.375; -141.000;   82.000
816.005;  -85.450; -470.000; -586.000
816.258;  -70.900; -510.000; -363.000
816.512; -101.675; -693.000; -610.000
816.766;   -6.750;  121.000;  157.000
817.019;   23.425;  148.000;  149.000
817.273; -114.225;-1000.000; -802.000
817.526;  -29.175; -206.000; -173.000
817.779;  -45.500;-1049.000; -960.000
818.033;  -66.875; -693.000; -807.000
818.286; -142.900; -725.000; -792.000
818.540;  -92.250; -403.000; -403.000
818.793;  -83.750; -402.000; -489.000
819.046; -101.525; -582.000; -520.000
819.299;  -52.625; -157.000; -166.000
819.553; -119.125; -552.000; -592.000
819.806; -180.400;-1016.000; -838.000
820.059;  -61.550; -334.000; -354.000
820.312;   -6.750;  152.000;  185.000
820.565;  -13.225;  110.000;  -27.000
820.818;  -48.900;  -59.000; -173.000
821.071; -160.650;-1041.000; -957.000
821.324; -107.000; -536.000; -540.000
821.577; -104.350; -457.000; -483.000
821.830;  -66.050; -270.000; -172.000
822.083; -133.450; -733.000; -288.000
822.336;  -56.225; -261.000; -167.000
822.589; -126.825; -805.000; -688.000
822.842; -156.125; -875.000; -770.000
823.094; -176.425;-1076.000;-1114.000
823.347; -126.700; -925.000; -729.000
823.600;   27.150;  402.000;  187.000
823.853;  -73.000; -311.000; -267.000
824.105;  -74.250; -331.000; -575.000
824.358; -119.900; -617.000; -716.000
824.611;   43.975;  234.000;   40.000
824.863;  -57.350; -612.000; -591.000
825.116;   48.275;  -33.000;   27.000
825.368;   84.150; -366.000; -372.000
825.621;  160.125; -186.000; -240.000
825.873;   69.750; -704.000; -737.000
826.126;  630.925; -669.000; -641.000
826.378;11830.675; -389.000; -505.000
826.630; 2624.250; -890.000; -898.000
826.883;   28.750; -754.000; -693.000
827.135;   29.400; -279.000; -270.000
827.387; -128.125; -893.000; -839.000
827.639;  -26.800;  -86.000;   32.000
827.892; -141.600; -742.000; -582.000
828.144; -147.025; -848.000; -804.000
828.396;  -44.250;  104.000;  -80.000
828.648;  -93.000; -440.000; -333.000
828.900; -152.550; -702.000; -795.000
829.152; -116.875; -684.000; -683.000
829.404;  -75.700; -215.000; -267.000
829.656;  -52.100;  321.000;  214.000
829.908;  -18.475;  393.000;  229.000
830.160; -170.975;-1064.000;-1047.000
830.412; -102.625; -481.000; -430.000
830.664; -115.475; -557.000; -665.000
830.916;  -91.650; -268.000; -206.000
831.167; -186.175;-1073.000; -951.000
831.419; -119.500; -623.000; -566.000
831.671; -151.575; -764.000; -809.000
831.923; -104.825; -311.000; -447.000
832.174;  -65.700; -273.000; -331.000
832.426; -132.950; -493.000; -582.000
832.678; -192.625;-1043.000;-1091.000
832.929; -164.450; -947.000; -935.000
833.181;  -66.250; -575.000; -677.000
833.432;  -74.525;  -59.000; -186.000
833.684;  -20.300;  112.000;  -27.000
833.935; -120.225; -610.000; -566.000
834.187; -131.100; -829.000; -823.000
834.438;  -62.800;  -58.000;  -25.000
834.689;  -55.275; -255.000; -123.000
834.941;  -68.175; -343.000; -244.000
835.192;  -89.200; -590.000; -533.000
835.443; -116.075; -419.000; -506.000
835.695;    4.825;  138.000;  -16.000
835.946; -101.700; -608.000; -378.000
836.197; -102.700; -599.000; -622.000
836.448;  -94.350; -528.000; -395.000
836.699;  -54.800; -253.000; -341.000
836.950;  -10.450;   72.000;    7.000
837.201; -163.225;-1003.000; -987.000
837.452;  -59.725; -356.000; -170.000
837.703; -108.950; -791.000; -737.000
837.954;  -51.850; -205.000; -365.000
838.205;  -83.400;-1029.000;-1008.000
838.456;  172.325; -196.000; -282.000
838.707;   15.400; -423.000; -519.000
838.958;   -4.475; -634.000; -647.000
839.209;  312.800;   18.000;   40.000
839.460;  114.550; -439.000; -201.000
839.710;  178.525; -135.000; -297.000
839.961;  426.125;  730.000;  612.000
840.212;  363.050; -382.000; -497.000
840.462; 1167.550; -328.000; -277.000
840.713;18536.900; -571.000; -536.000
840.964; 6803.475;  -62.000; -143.000
841.214;  512.300; -384.000; -624.000
841.465;  582.575; -214.000; -141.000
841.715;  537.525; -417.000; -380.000
841.966;  699.750; -746.000; -685.000
842.216;10282.250; -330.000; -431.000
842.466;35997.225; -169.000; -313.000
842.717; 1787.175; -964.000; -952.000
842.967;  333.850; -635.000; -641.000
843.217;  274.400;   20.000;   28.000
843.468;   59.150; -104.000; -132.000
843.718;  -34.075; -718.000; -726.000
843.968; -107.350; -837.000; -765.000
844.218;   28.350; -315.000; -262.000
844.469;  -62.400; -577.000; -561.000
844.719; -109.475; -537.000; -682.000
844.969;  -99.975; -550.000; -580.000
845.219; -149.050; -814.000; -862.000
845.469;  -86.750; -392.000; -342.000
845.719; -146.800; -792.000; -884.000
845.969;  -30.500;  119.000;  174.000
846.219; -115.275; -738.000; -720.000
846.469;   18.550;  464.000;  432.000
846.718;  -41.950; -115.000;   31.000
846.968; -151.300; -827.000; -827.000
847.218;  -52.000; -224.000; -371.000
847.468;   -5.425; -586.000; -555.000
847.718; -143.475; -827.000; -798.000
847.967; -151.725; -826.000; -915.000
848.217;  -77.925; -449.000; -569.000
848.467;  -84.775; -405.000; -376.000
848.716; -111.175; -708.000; -725.000
848.966;  -11.950; -372.000; -358.000
849.215;  -59.925; -428.000; -419.000
849.465; -112.625; -785.000; -615.000
849.714; -150.750;-1132.000;-1150.000
849.964;  -65.300; -551.000; -613.000
850.213;   -0.975; -393.000; -355.000
850.463;   74.600;  137.000;  340.000
850.712;   -3.750; -542.000; -567.000
850.961;    8.300; -739.000; -678.000
851.211;  108.825; -513.000; -504.000
851.460;  150.375; -635.000; -650.000
851.709;  588.275;  -25.000;   18.000
851.958;10808.075; -912.000; -750.000
852.208;12141.900; -859.000; -879.000
852.457;  437.750; -181.000;  -13.000
852.706;   66.850; -791.000; -823.000
852.955;   -1.750; -507.000; -528.000
853.204;  -59.925; -521.000; -461.000
853.453;  -89.050; -418.000; -458.000
853.702; -139.200; -660.000; -750.000
853.951; -124.875; -532.000; -520.000
854.200; -122.050; -613.000; -562.000
854.449; -149.850; -695.000; -661.000
854.698; -100.850; -340.000; -279.000
854.946;  -79.375; -181.000; -284.000
855.195; -154.250; -843.000; -868.000
855.444;  -85.850; -395.000; -420.000
855.693; -113.800; -345.000; -432.000
855.941; -117.775; -387.000; -516.000
856.190;  -54.900; -256.000; -382.000
856.439; -145.900; -652.000; -703.000
856.687;  -52.775;  -99.000;  -72.000
856.936; -126.600; -621.000; -323.000
857.184; -181.475;-1067.000;-1020.000
857.433; -108.475; -423.000; -512.000
857.681; -149.275; -989.000; -953.000
857.930;  -77.950; -282.000; -433.000
858.178; -175.275; -856.000; -929.000
858.427; -166.275; -802.000; -781.000
858.675; -115.425; -377.000; -544.000
858.923; -106.275; -527.000; -819.000
859.172; -177.200;-1094.000;-1070.000
859.420;  -92.175; -339.000; -239.000
859.668; -131.250; -624.000; -628.000
859.916;  -32.425;  109.000;  115.000
860.164; -113.025; -699.000; -603.000
860.413;  318.650; -878.000; -696.000
860.661;  213.300; -709.000; -577.000
860.909;  -87.125; -339.000; -325.000
861.157;  -78.125; -277.000; -444.000
861.405; -141.100; -534.000; -670.000
861.653;    9.750;  310.000;  310.000
861.901;  183.625; -543.000; -613.000
862.149;   12.200; -801.000; -824.000
862.396;  -73.975; -297.000; -187.000
862.644;  -97.975; -368.000; -347.000
862.892;  -52.175;   98.000;  138.000
863.140; -110.325; -549.000; -530.000
863.388; -170.650; -815.000; -759.000
863.635; -132.550; -642.000; -601.000
863.883;  -10.375;  231.000;  190.000
864.131; -103.125; -288.000; -357.000
864.378; -141.525; -675.000; -540.000
864.626; -107.325; -347.000; -415.000
864.873; -140.425; -556.000; -505.000
865.121; -137.975; -714.000; -799.000
865.368;  -58.550; -173.000;   75.000
865.616;  -41.550;  -33.000;  -40.000
865.863;  -83.425; -462.000; -506.000
866.111; -119.925; -795.000; -824.000
866.358;   16.575; -426.000; -420.000
866.605; 2175.575;  -64.000; -804.000
866.853; 2028.075; -621.000; -537.000
867.100;  -60.625; -728.000; -775.000
867.347; -117.775; -672.000; -611.000
867.594;  -77.800; -740.000; -714.000
867.841;   82.550;   97.000;   17.000
868.089; -150.350; -746.000; -698.000
868.336; -129.600; -477.000; -420.000
868.583; -126.900; -637.000; -741.000
868.830;  -65.750; -131.000; -170.000
869.077; -173.525; -859.000; -787.000
869.324; -133.525; -502.000; -458.000
869.571; -132.025; -398.000; -430.000
869.818; -134.850; -485.000; -439.000
870.065; -105.350; -439.000; -513.000
870.311; -109.975; -456.000; -542.000
870.558; -103.450; -332.000; -311.000
870.805;  -94.050; -320.000; -384.000
871.052; -112.925; -494.000; -369.000
871.298;  -55.325; -204.000; -131.000
871.545;  -65.725; -151.000; -185.000
871.792;  -96.450; -173.000; -222.000
872.038;  -71.450;   43.000; -126.000
872.285; -129.925; -496.000; -387.000
872.532; -100.750; -357.000; -387.000
872.778;   -0.575;  556.000;  403.000
873.025;  -88.575; -384.000; -359.000
873.271;   16.650;  501.000;  578.000
873.517;  -33.525; -133.000; -209.000
873.764;  -38.175; -193.000;  -80.000
874.010;  -74.900; -143.000; -230.000
874.257;  -52.325;  123.000;   90.000
874.503; -133.775; -579.000; -479.000
874.749;  -65.750;   31.000;  275.000
874.995;  -73.625;  -80.000;  -20.000
875.242; -133.500; -540.000; -478.000
875.488; -107.925; -414.000; -439.000
875.734;  -57.775; -106.000; -234.000
875.980;  229.750; -872.000;-1032.000
876.226;  355.175; -157.000; -255.000
876.472;   -3.500;  343.000;  237.000
876.718;  -50.900;  184.000;  158.000
876.964;  -40.575;   56.000;   55.000
877.210; -174.050; -547.000; -677.000
877.456; -136.925; -630.000; -557.000
877.702; -181.575; -821.000; -832.000
877.948; -108.800; -377.000; -497.000
878.193;   -2.100;  361.000;  255.000
878.439;  -94.900; -487.000; -472.000
878.685; -103.525; -272.000; -343.000
878.931; -124.900; -618.000; -676.000
879.176;  -96.025; -201.000; -201.000
879.422; -176.550; -933.000; -820.000
879.668;   47.975;   10.000;   79.000
879.913;  149.100;   53.000;  137.000
880.159;  -61.125; -112.000;  -17.000
880.404;  -50.700; -152.000; -162.000
880.650;  -49.550;   91.000;  141.000
880.895; -163.675; -670.000; -710.000
881.141; -139.025; -454.000; -428.000
881.386; -153.850; -503.000; -658.000
881.631; -113.975; -311.000; -166.000
881.877;  -20.625;  112.000;  -13.000
882.122; -143.325; -684.000; -600.000
882.367;  -90.900; -136.000; -186.000
882.612;  -79.625;  -80.000; -176.000
882.858; -174.775; -877.000; -823.000
883.103; -100.025; -297.000; -267.000
883.348; -154.200; -759.000; -852.000
883.593; -158.150; -677.000; -602.000
883.838;  -61.775; -311.000;  -24.000
884.083;   14.650;  353.000;  288.000
884.328;  -85.000; -564.000; -545.000
884.573;  -56.150; -196.000; -143.000
884.818;  212.575; -694.000; -531.000
885.063;  165.600; -348.000; -315.000
885.308;  -94.775; -475.000; -398.000
885.553;  -42.850;  245.000;  325.000
885.797; -134.575; -545.000; -615.000
886.042;  -56.675;    8.000;   58.000
886.287;  -89.800; -253.000; -211.000
886.532;  -55.200;   26.000;  204.000
886.776; -105.800; -407.000; -525.000
887.021; -169.725; -621.000; -574.000
887.265; -157.600; -685.000; -689.000
887.510; -146.600; -557.000; -496.000
887.755;  -99.025; -194.000; -164.000
887.999; -148.575; -552.000; -575.000
888.244;  -64.150;  -58.000;  161.000
888.488;  -19.250;  371.000;  393.000
888.732; -120.275; -368.000; -520.000
888.977; -135.650; -622.000; -567.000
889.221; -165.200; -683.000; -659.000
889.465; -146.025; -422.000; -566.000
889.710;  -84.350;  -56.000; -299.000
889.954;   -7.650;  579.000;  467.000
890.198; -144.175; -584.000; -707.000
890.442; -172.475; -716.000; -712.000
890.687; -164.725; -800.000; -753.000
890.931; -105.800; -273.000; -210.000
891.175; -139.325; -502.000; -500.000
891.419;  -85.025; -105.000; -110.000
891.663;  -88.350; -239.000; -112.000
891.907; -170.500; -801.000; -545.000
892.151; -173.275; -920.000; -815.000
892.395; -126.900; -274.000; -387.000
892.638;  -15.900;  408.000;  291.000
892.882; -196.675; -780.000; -867.000
893.126;   13.600;  758.000;  558.000
893.370;  -96.250; -167.000; -168.000
893.614; -154.100; -714.000; -715.000
893.857; -111.900; -183.000; -197.000
894.101; -136.700; -527.000; -631.000
894.345;  -56.325;  300.000;  150.000
894.588;   19.000;  569.000;  380.000
894.832;  -86.125; -178.000;  -84.000
895.075;  -82.500;   15.000;  -92.000
895.319; -146.575; -552.000; -420.000
895.563; -120.550; -413.000; -353.000
895.806; -164.300; -628.000; -741.000
896.049;  -65.575; -576.000; -368.000
896.293;  100.250;  527.000;  405.000
896.536;  -84.950; -465.000; -468.000
896.779;  -72.075; -149.000;   -1.000
897.023; -144.600; -751.000; -714.000
897.266;  -34.950;  325.000;  269.000
897.509; -188.900; -900.000; -901.000
897.752;  -43.725;  149.000;  171.000
897.996; -185.200; -972.000; -864.000
898.239;  -55.675;  168.000;  102.000
898.482; -127.500; -431.000; -453.000
898.725;  -29.125;  101.000;   53.000
898.968; -155.125; -609.000; -744.000
899.211; -113.125; -513.000; -361.000
899.454; -132.800; -633.000; -539.000
899.697;  -79.250;   90.000;  -43.000
899.940; -175.150; -761.000; -757.000
900.182; -106.950; -335.000; -405.000
900.425;  -97.475; -150.000; -298.000
900.668;  -31.150;  491.000;  350.000
900.911; -100.275; -292.000; -345.000
901.154;  -49.975;  141.000;   -3.000
901.396; -138.250; -407.000; -412.000
901.639; -156.125; -430.000; -496.000
901.882; -181.200; -790.000; -809.000
902.124;  -97.625;  -29.000; -143.000
902.367; -112.950; -315.000; -361.000
902.609; -148.525; -476.000; -453.000
902.852;  -87.825; -108.000; -260.000
903.094; -141.400; -458.000; -337.000
903.337;  -49.700;  -26.000;   53.000
903.579; -118.800; -228.000; -441.000
903.821; -170.775; -597.000; -744.000
904.064;  -71.050;   85.000;  127.000
904.306;  -95.100; -126.000; -166.000
904.548; -110.200; -152.000; -366.000
904.790;  -98.275; -195.000; -340.000
905.033; -143.500; -625.000; -577.000
905.275; -125.025; -513.000; -524.000
905.517;   37.225;  468.000;  256.000
905.759;  -71.175; -667.000; -761.000
906.001; -115.525; -322.000; -369.000
906.243;  -69.075; -162.000; -224.000
906.485;  126.725; -265.000; -207.000
906.727;   99.800; -499.000; -542.000
906.969;  -41.525;  -30.000; -135.000
907.211;  135.175; -316.000; -382.000
907.453;  272.200; -188.000; -237.000
907.695;   10.075; -158.000; -385.000
907.936;   29.550;  818.000;  706.000
908.178;  -61.750;   92.000; -135.000
908.420;  -94.925; -111.000; -162.000
908.662; -131.325; -633.000; -682.000
908.903; -105.750; -208.000; -123.000
909.145;  -63.525; -240.000; -305.000
909.386;   -2.375;  315.000;  280.000
909.628;   26.700;  363.000;  397.000
909.870;   -6.500;   29.000;  264.000
910.111; -103.625; -809.000; -949.000
910.353;    9.875; -123.000; -161.000
910.594;   -6.875; -574.000; -606.000
910.835;   79.175; -265.000; -326.000
911.077;  142.825; -503.000; -604.000
911.318;  282.975; -505.000; -471.000
911.559;  448.000; -577.000; -880.000
911.801; 1337.425; -284.000; -280.000
912.042;10902.975;  -50.000; -159.000
912.283;26257.025;  404.000;  371.000
912.524; 3697.850; -396.000; -457.000
912.765;  443.725; -193.000;   79.000
913.006;  236.400; -307.000; -338.000
913.247;   31.600; -270.000; -290.000
913.488;  -14.200;  -43.000;   30.000
913.729; -102.775; -373.000; -373.000
913.970;  -57.675;  -96.000; -292.000
914.211;  -86.675; -160.000; -198.000
914.452;  -74.600; -118.000;  -11.000
914.693;   21.675;  510.000;  592.000
914.934;    3.750;  510.000;  440.000
915.175;  -69.500;   53.000;  -95.000
915.415;  -82.450; -137.000;   27.000
915.656;  -66.800;  -28.000;  192.000
915.897;  -87.475; -252.000;  -82.000
916.137;  -87.725;   74.000;   -9.000
916.378; -124.150; -573.000; -517.000
916.619;  -87.925; -159.000;  -63.000
916.859;  -32.125;  303.000;  330.000
917.100;  119.025; 1655.000; 1070.000
917.340;   63.700;  930.000;  728.000
917.581;   34.250;  965.000;  789.000
917.821;  -29.675; -171.000;  143.000
918.061;    7.025; -199.000;  -72.000
918.302;  -66.075; -152.000; -211.000
918.542;  -44.225;  -22.000;    3.000
918.782;   41.875;  369.000;  377.000
919.023;  122.050;  360.000;  427.000
919.263; 1844.725; 8131.000;  202.000
919.503; 1094.400; -137.000;  -54.000
919.743;  660.475;  390.000;  266.000
919.983;  254.425; -134.000;  -26.000
920.223;   71.975;  135.000;   14.000
920.463;  133.325;  631.000;  554.000
920.703;  119.075;   84.000;   39.000
920.943;  143.575; -110.000;   90.000
921.183;  210.325; -414.000; -405.000
921.423;  475.300;  307.000;  546.000
921.663;  697.900; -174.000; -257.000
921.903; 1548.875;  237.000;  173.000
922.143; 8846.650;  372.000;  389.000
922.383;32973.500;  158.000;  115.000
922.622;10155.125; -120.000;  -15.000
922.862; 1106.350;  796.000;  785.000
923.102;  416.150;  -51.000;   33.000
923.341;  156.000;   59.000;   74.000
923.581;   86.025;  450.000;  360.000
923.821;    7.675;  301.000;  398.000
924.060;   13.700;  351.000;  193.000
924.300;  -69.650;  -16.000; -128.000
924.539;  -14.900;  584.000;  473.000
924.779;   -4.250;  812.000;  597.000
925.018;  -42.325;  247.000;  353.000
925.257;  -17.175;  595.000;  666.000
925.497;  -32.275;  447.000;  412.000
925.736;  -96.225;  -35.000;  102.000
925.975;   10.400;  687.000;  669.000
926.214;   31.075;  907.000;  850.000
926.454;   21.450;  706.000;  757.000
926.693;  -42.700;  419.000;  543.000
926.932;   37.525; 1021.000;  825.000
927.171;   60.325; 1107.000; 1044.000
927.410;   71.100; 1144.000;  967.000
927.649;   -3.675;  924.000;  742.000
927.888;    1.750;  590.000;  564.000
928.127;  -24.425;  680.000;  678.000
928.366;   35.250;  842.000;  826.000
928.605;   19.900;  831.000;  737.000
928.844;  250.975; 1451.000; 1393.000
929.083;  595.850;  770.000;  613.000
929.321;  307.650; 1335.000; 1359.000
929.560;   76.850; 1158.000; 1122.000
929.799;  -23.125;  574.000;  475.000
930.038;   69.675; 1025.000; 1394.000
930.276;  -48.375;  334.000;  397.000
930.515;  -21.850;  827.000;  681.000
930.753;  -32.175;  614.000;  589.000
930.992;  -24.775;  664.000;  717.000
931.230;   -2.925;  847.000;  847.000
931.469;  179.225; 2162.000;  892.000
931.707;   70.475;  840.000;  751.000
931.946;   59.225; 1278.000; 1344.000
932.184;   71.200; 1437.000; 1175.000
932.423;   50.350; 1265.000;  963.000
932.661;   90.350; 1296.000; 1428.000
932.899;   21.275;  987.000;  821.000
933.137;    7.575;  754.000;  564.000
933.376;  143.650; 1664.000; 1335.000
933.614;  169.075; 1759.000; 1196.000
933.852;   41.825; 1357.000; 1171.000
934.090;  140.450; 1722.000; 1747.000
934.328;   87.225; 1252.000; 1457.000
934.566;   93.800; 1431.000; 1110.000
934.804;  109.800; 1263.000; 1309.000
935.042;  443.975; 1861.000; 1850.000
935.280; 1697.700; 2088.000; 2063.000
935.518; 1522.975; 2113.000; 2007.000
935.756;  325.550; 2481.000; 2316.000
935.994;  168.700; 1808.000; 1751.000
936.231;  358.425; 2890.000; 2950.000
936.469;  208.875; 2367.000; 2378.000
936.707;  147.775; 2220.000; 2167.000
936.945;  239.050; 2825.000; 2882.000
937.182;  211.025; 2679.000; 2741.000
937.420;  304.875; 3602.000; 3031.000
937.657;  420.400; 3365.000; 3478.000
937.895;  345.325; 3331.000; 3488.000
938.133;  312.600; 3540.000; 3528.000
938.370;  345.325; 3896.000; 4191.000
938.607;  405.025; 4488.000; 4205.000
938.845;  545.900; 5587.000; 5549.000
939.082;  485.475; 5387.000; 5177.000
939.320;  558.250; 5799.000; 5728.000
939.557;  649.025; 6549.000; 6491.000
939.794;  719.675; 7285.000; 7097.000
940.031;  914.825; 8421.000; 8368.000
940.269; 1130.100; 9552.000; 9107.000
940.506; 1132.675;10901.000;10507.000

