
Integration time [ms]: 200.000
Averaging Nr. [scans]: 10
Smoothing Nr. [pixels]: 0
Data measured with spectrometer [name]: 2101013U2
Wave   ;Sample   ;Dark     ;Reference
[nm]   ;[counts] ;[counts] ;[counts] 

394.013;  101.779; -450.257; -315.536
394.305;  470.676; -461.258; -419.536
394.596; 1621.824; -676.269; -527.514
394.887; 3577.148; -796.268; -654.518
395.178; 1473.093;  145.736;   11.476
395.470;  197.110; -210.263; -356.526
395.761;  454.070;  305.734;  394.479
396.052;  800.239; -545.284; -306.489
396.343;  756.542; -557.276; -454.503
396.634;  253.096; -200.279; -290.497
396.926;  248.444; -618.268; -565.517
397.217;  258.749;   11.725;  -17.504
397.508;  122.572; -366.273; -154.507
397.799;  109.496; -555.279; -571.497
398.090;   -5.212; -973.280; -902.495
398.381;  266.729;   11.708;  -11.473
398.672;    2.531; -585.292; -742.473
398.963;  136.105; -348.279; -373.498
399.254;  253.244;   54.709; -209.475
399.545;  -37.435;-1017.266; -883.520
399.836;  123.226; -407.277; -343.501
400.127;  115.594; -205.295; -209.468
400.418;  124.564; -423.274; -392.506
400.709;  205.269; -359.281; -333.493
401.000;  149.650; -268.291; -309.476
401.290;  237.700;  225.698;  115.545
401.581;  137.614; -166.286; -228.485
401.872;   68.853; -542.298; -486.462
402.163;  107.083; -313.296; -252.467
402.454;  171.745; -123.291; -163.475
402.744;  137.370; -844.297; -813.465
403.035;  891.316; -226.293;  -86.471
403.326; 1067.835; -366.292; -384.474
403.617;  717.844;  204.701;  165.539
403.907;  388.548; -593.283; -679.490
404.198; 3390.333; -545.307; -599.446
404.489; 8530.455; -618.283; -588.491
404.779; 3314.806; -618.302; -660.456
405.070;  425.874;  -67.304; -174.451
405.360;  560.219; -259.293; -238.472
405.651;  588.422;  125.699;   98.542
405.942;  391.307;  209.714;  127.516
406.232;  601.028; -432.285; -413.487
406.523;  992.708;  641.706;  758.530
406.813;  200.210; -579.286; -644.484
407.104;  781.827;  261.708;  144.527
407.394;  467.746; -604.299; -591.462
407.685;  353.127;  336.715;  222.513
407.975;  102.953; -400.283; -382.490
408.265;  272.866; -134.289; -190.478
408.556;  126.940; -472.291; -459.475
408.846;  345.910;  474.706;  429.530
409.137;  184.979;   -1.288; -216.480
409.427;   87.828; -193.285; -271.487
409.717;   60.377; -776.273; -692.508
410.007;  314.119;    4.715; -170.486
410.298;  202.698; -360.295; -342.469
410.588;  161.924; -495.285; -510.486
410.878;   13.095; -792.287; -873.482
411.168;  190.356; -481.298; -478.463
411.459;  221.845; -295.283; -242.489
411.749;   98.638; -609.292; -507.474
412.039;  101.076; -755.289; -386.480
412.329;  409.316;   40.722;  132.501
412.619;  334.211;  -62.286; -148.485
412.909;  739.970;  639.711;  594.521
413.199;  662.488; -130.280; -251.495
413.490;  805.856;  521.710;  352.523
413.780;  188.094;-1013.279; -913.496
414.070;  572.444;  -46.276;  235.497
414.360;  639.610; -729.278; -666.498
414.650;  653.389; -726.288; -688.482
414.940;  782.893; -538.280; -441.496
415.230; 1446.085;   50.712;   74.519
415.520; 9248.223;  155.730;   66.486
415.809;34204.668; -305.281; -125.493
416.099;27131.029; -388.277; -229.501
416.389; 7014.061;  435.726;  236.494
416.679; 4156.215;   91.738;   85.473
416.969;  784.902; -527.287; -503.483
417.259;  984.997;  341.721;  171.503
417.549; 1099.967;  522.718;  318.508
417.838; 2326.848; -205.268; -147.518
418.128; 7356.764;  650.710;  492.522
418.418; 6180.086; -491.272; -579.509
418.708; 4310.561;    9.726;  -48.506
418.997;15375.355; -474.275; -480.505
419.287;15912.471; -733.273; -790.507
419.577;14799.344; -160.283; -123.489
419.866;47929.226; -588.277; -498.501
420.156;51138.717; -242.270;  -55.513
420.446;10295.004; -112.263;  -26.526
420.735; 1567.908; -376.271; -446.512
421.025; 1566.109; 1830.722;  315.502
421.314; 1421.205; -203.271; -226.512
421.604; 3285.637;   89.732;  233.484
421.893; 1942.300; -705.271; -602.511
422.183;  382.304; -487.263; -461.526
422.472;  683.702;  -36.271; -107.511
422.762;  782.574; -416.266; -379.521
423.051;  381.945; -916.276; -916.503
423.341;  563.174; -491.273; -439.507
423.630;  716.183; -121.265;   15.477
423.919;  683.754;   58.725;   49.495
424.209;  615.312;  -31.263;   56.473
424.498;  810.744;   68.732;  161.483
424.787; 1531.953; -535.267; -601.518
425.077; 4878.681;   34.735;   29.478
425.366; 7423.621; -734.262; -744.528
425.655;13300.575;  639.727;  259.493
425.945;24365.511; -313.247; -268.554
426.234;14514.254;  117.741;  300.467
426.523; 7266.862;  -86.259; -350.534
426.812;10097.868;  107.734;  159.480
427.101;14109.932; -127.269; -323.515
427.390;18103.122;  -55.270;  -86.514
427.680; 5056.391; -624.257; -411.538
427.969;  939.907; -330.255; -301.540
428.258;  595.578; -385.257; -477.536
428.547; 1025.792;  449.728;  397.490
428.836; 2464.630; -421.253; -398.543
429.125; 3543.164; -199.259;  -72.534
429.414; 1592.964; -330.251; -294.548
429.703; 4666.764; -231.251; -213.548
429.992;12602.169; -938.250; -828.549
430.281; 8567.494; -397.264; -331.524
430.570; 1162.950;  -21.252;   32.454
430.859; 1292.361;  279.741;  352.466
431.148; 1050.905;  636.752;  631.446
431.437;  708.449;  391.748;  367.454
431.725;  288.081; -544.257; -481.536
432.014;  201.741; -845.253; -756.545
432.303;  675.716; -149.239; -105.569
432.592; 1085.104; -460.263; -178.525
432.881; 1502.106; -601.248; -437.554
433.169; 8176.408; -343.255;  -61.540
433.458;16186.766;  445.765;  540.424
433.747; 7336.529; -397.261; -289.529
434.036; 1715.280; -275.242; -280.564
434.324; 3088.287; -395.249; -379.551
434.613; 5072.371;   40.757;  159.437
434.902; 2117.201;  333.760;  439.433
435.190; 1473.014;   75.761;  295.431
435.479;  813.144;  -52.245;   83.441
435.767;  256.756; -411.244; -427.561
436.056;  475.874; -340.242; -294.563
436.345;  605.405; -372.240; -223.568
436.633;  663.780;   60.750;  383.450
436.922;  640.708;  208.760;  414.432
437.210; 1667.151; -194.236;    1.426
437.499; 4875.163; -583.235; -432.576
437.787; 5436.350; -339.236;  -10.574
438.075; 1362.422;   56.761;  162.430
438.364; 1672.526;  -44.238;  250.429
438.652; 1093.580; -286.226; -138.592
438.941;  350.227;    3.770;  269.415
439.229;   36.046; -665.252; -466.545
439.517;  126.175; -160.234;  -85.577
439.806;   34.203; -501.225; -290.595
440.094;  424.686;  377.766;  650.421
440.382;  446.692; -653.233; -302.580
440.670;  544.362; -361.235; -285.576
440.959;   85.529; -347.223; -170.599
441.247;  196.044; -151.229; -109.587
441.535;  226.173; -266.235;   31.423
441.823;  109.282; -497.234; -305.578
442.111;  388.250;  173.771;  327.412
442.400; 1222.843; -628.245; -335.559
442.688; 3328.786; -111.234; -620.579
442.976; 2545.258; -786.213; -450.617
443.264;  248.513; -324.224; -364.597
443.552;  216.682; -258.226;   51.408
443.840;  361.371;  602.765;  876.423
444.128;  258.091;  265.767;  269.420
444.416;    3.354; -694.228; -312.588
444.704;   89.473; -465.219;  -92.605
444.992;  177.386;   -0.226;  240.407
445.280;  148.628; -517.230;  -94.585
445.568;  109.763; -694.212; -396.618
445.856;  761.549; -174.221;  357.398
446.143; 1631.267;  -54.220;   -7.604
446.431; 1410.360;  -25.228;  625.411
446.719;  538.901;  489.783;  675.391
447.007;  381.220;  481.769;  705.416
447.295;  348.625;  597.777;  871.402
447.583;  144.241; -464.229;  -34.587
447.870;  290.545; -434.221; -202.601
448.158;  832.426; -104.230;  129.415
448.446;  597.569; -800.219; -338.604
448.733;  326.015;   13.776;  269.403
449.021;  500.363;   60.788;  341.382
449.309;  379.985; -296.210;  208.379
449.596;  375.195;  128.783;   59.392
449.884;  222.635; -571.222; -325.600
450.172;  161.667; -756.227; -406.590
450.459;  670.833;  645.786;  780.387
450.747; 2989.293; -411.218; -147.608
451.034; 9240.061;  493.772;  889.411
451.322; 7632.638; -413.214; -170.614
451.609;  748.917;  292.777;  508.403
451.897;  812.978; -550.203; -183.634
452.184; 2345.125; -622.223; -400.598
452.472; 2297.816;   97.792;  269.375
452.759;  698.070;  512.781;  864.395
453.047;  258.359; -407.212; -125.617
453.334;  210.381; -732.219; -216.606
453.621;  222.641; -438.214; -161.615
453.909;  290.566;   13.796;  384.368
454.196;  261.032; -299.199; -123.641
454.483;  501.597;  317.798;  540.364
454.771;  312.321; -215.208;  196.374
455.058;  153.726; -316.207;  102.374
455.345;  225.014;   71.807;  344.347
455.632;  146.530; -128.207;  235.373
455.919;  101.365;  -82.196;  182.354
456.207; -111.461; -774.198; -450.642
456.494;  -35.686; -475.200;  -66.639
456.781;   18.890; -399.202; -198.635
457.068;  126.540; -253.206;  -29.628
457.355;   36.642; -698.206; -401.629
457.642;   27.750; -552.205; -290.630
457.929;   38.500; -778.194; -417.651
458.216;  103.860; -575.212; -354.617
458.503;  378.807; -173.193;  -19.652
458.790;  223.617; -864.208; -630.625
459.077;  466.597;  -77.202;  110.364
459.364; 1072.990; -350.195; -210.649
459.651; 2273.137;  -46.206;  220.372
459.938; 1070.803; -864.209; -665.623
460.225;  346.602;  132.799;  276.363
460.512;  -67.939; -836.197; -688.645
460.799;  311.891;  -32.218;  320.392
461.086;  190.621; -370.200; -251.640
461.372;  147.340; -509.198; -279.642
461.659;  286.167; -165.196;  108.354
461.946;  175.805; -445.193;  -54.651
462.233;  486.518;  842.800;  888.361
462.519;  538.313; -814.201; -464.639
462.806; 1341.762; -768.197; -497.645
463.093; 1224.836; -445.191;  -66.656
463.380;  -69.104; -920.186; -824.664
463.666;  155.565; -259.197;  -18.646
463.953;  165.582; -406.195; -243.648
464.239;  283.982; -173.195;  -77.648
464.526;  716.198;  413.806;  743.350
464.813;  635.553; -565.190; -304.658
465.099;  733.007;  606.807;  607.348
465.386;  749.812;  903.807;  921.348
465.672;  124.662; -694.197; -522.645
465.959;  177.379; -598.188; -520.662
466.245;   98.813; -468.193; -359.652
466.532;  276.479; -109.195;   63.352
466.818;  165.796; -357.186; -216.664
467.104;   71.155; -488.182; -415.672
467.391;    5.955; -628.189; -459.658
467.677;  107.801; -289.186;    9.335
467.964;   60.765; -682.189; -471.660
468.250;  228.205; -331.186; -160.665
468.536;  232.957;   90.811;  180.341
468.822;   -3.077; -821.184; -574.668
469.109;  309.574;  351.827;  471.311
469.395;  460.227;  729.808;  787.346
469.681;  359.362;   46.811;  156.341
469.967; 1768.468; -699.188; -382.660
470.254; 3435.780; -494.188; -306.662
470.540; 2342.365; -601.196; -476.646
470.826;  327.071; -488.181; -397.675
471.112;  474.828;  288.816;  113.331
471.398;  222.435; -253.183;  -58.670
471.684;  113.213; -626.177; -447.680
471.970;  -21.923; -918.180; -981.675
472.256;   78.725; -521.192; -441.654
472.542;   76.590; -499.171; -434.691
472.828;   99.149; -743.182; -607.672
473.114;   78.254; -380.166; -283.700
473.400;  104.037; -504.175; -293.684
473.686;  108.263; -452.166; -400.701
473.972;  149.059; -230.174; -131.687
474.258;  -97.526; -925.173; -843.689
474.544;  285.601; -183.178;   -2.679
474.830;  366.740;  -65.175;   45.316
475.116;  521.755; -123.190; -196.658
475.401;  726.480; -558.180; -467.676
475.687;  252.679; -725.180; -718.676
475.973;   49.561; -673.181; -770.673
476.259;  548.543;  736.825;  764.315
476.544;  590.225; -539.176; -437.682
476.830;  981.384; -398.172; -322.690
477.116;  833.623; -430.177; -336.682
477.401;  299.379;  346.820;  358.324
477.687;    4.837; -289.175; -405.684
477.973;  105.066;   21.819;   28.326
478.258;   -1.307; -448.163; -348.706
478.544;  122.713;   21.815;   61.334
478.829;  -93.902; -818.171; -738.692
479.115;  -65.417; -749.172; -651.690
479.401;   -0.448; -444.174; -449.686
479.686;   99.278; -253.180;  -74.676
479.972;  -80.792; -886.178; -776.680
480.257;   75.456; -258.166;  -65.700
480.542;   30.004; -614.170; -469.693
480.828;  533.735; 1288.824; 1392.317
481.113;  -14.168; -464.176; -426.683
481.399;   27.928; -236.161; -202.711
481.684;  -78.045; -620.166; -462.700
481.969;   65.848; -158.159;  -73.713
482.255;   -7.081; -439.169; -285.695
482.540;    2.609; -569.178; -441.680
482.825;  -19.311; -395.187; -404.663
483.110;  166.824;  -85.169; -105.696
483.396;  166.080; -840.157; -652.718
483.681;  703.859;  543.826;  730.313
483.966;  118.639; -696.160; -700.712
484.251;   85.957; -404.174; -310.687
484.536;   69.771; -356.165; -378.703
484.822;   64.262; -205.173; -218.687
485.107;  -20.264; -599.152; -502.726
485.392;  312.579;  662.836;  541.296
485.677;  126.739;  354.832;  163.302
485.962;  259.376;  160.843;  270.283
486.247;  218.605;  -14.162;   -8.707
486.532;   92.758; -178.166; -325.701
486.817;  342.720;  381.839;  431.291
487.102;  215.411; -453.154; -514.722
487.387;  800.082; -637.156; -652.718
487.672; 1307.987; -154.164;  -38.705
487.957;  870.430; -394.160; -286.711
488.241;  297.160; -290.150; -314.729
488.526;  921.538; -280.152; -148.726
488.811; 1329.611; -881.177; -818.680
489.096; 1020.615; -666.154; -702.723
489.381;  664.232;    3.847;  162.275
489.666;  386.728; -428.161; -510.710
489.950;  326.119;  558.846;  627.277
490.235;  -32.847; -480.151; -458.728
490.520;  -63.474; -756.161; -723.710
490.804; -105.815; -827.156; -736.719
491.089;   28.783; -469.149; -299.732
491.374;   68.785; -132.164;  -75.704
491.658;  -10.600; -817.147; -717.735
491.943;  302.444; -657.152; -609.727
492.227;  474.404; -178.155;  -38.721
492.512;  114.575; -294.157; -341.717
492.797;  -78.026; -713.149; -716.731
493.081; -105.096; -588.147; -598.735
493.366;  -39.672; -751.161; -635.711
493.650;  414.382;  831.859;  917.254
493.935;   12.499; -648.147; -447.734
494.219; -126.537; -778.142; -687.743
494.503;  -86.233; -585.150; -487.730
494.788;   89.963;   46.842;   74.285
495.072;  169.762;  184.850;  434.271
495.356;  226.788; -463.148; -343.733
495.641;  655.914; -812.146; -736.736
495.925;  640.492; -976.156; -903.719
496.209;  119.282; -599.149; -451.732
496.494;  -52.136; -763.142; -544.744
496.778;   50.711; -364.154; -360.722
497.062; -108.908; -819.156; -627.719
497.346; -106.367; -869.160; -640.711
497.631;  280.793;  580.852;  560.266
497.915;  182.529;  -64.145;  175.261
498.199;  137.680; -341.157; -277.718
498.483;  131.635; -562.152; -508.725
498.767;  306.164;  301.850;  300.271
499.051;  216.879; -126.149; -100.732
499.335;    9.876; -693.149; -739.731
499.619;   -7.369; -381.129; -423.767
499.903;  112.302; -272.155;  -65.721
500.187;   60.521; -588.153; -316.724
500.471;    9.343; -796.152; -595.727
500.755;  241.127;   62.839;  -96.710
501.039;   68.403; -270.155; -357.721
501.323;  211.685;  -21.141;  264.254
501.607;  116.694; -447.163; -503.706
501.891;   17.282; -607.156; -512.718
502.174;  -46.654; -726.144; -585.741
502.458;  183.649;   89.849;  370.273
502.742;   89.720; -180.138; -191.751
503.026;  159.998; -412.147; -254.734
503.310;  151.246; -437.159; -375.713
503.593;  130.801; -464.147; -325.735
503.877;  180.879; -232.133; -156.760
504.161;  328.825;    2.847;  -50.724
504.444;  141.966; -841.158; -710.716
504.728;  496.683; -487.164; -522.704
505.012;  906.159; -257.150;  -76.729
505.295;  732.128; -417.161; -212.711
505.579;  687.191; -256.156; -496.719
505.862;  868.624; -555.145; -333.738
506.146;  800.650; -681.159; -758.714
506.429;  640.150;  568.841;  461.286
506.713;   60.655; -732.151; -667.728
506.996;  488.810;   90.846;  295.278
507.280;  426.376; -633.165; -474.703
507.563;  278.500; -469.155; -261.721
507.847;   82.422; -423.153; -112.724
508.130;  100.729; -665.161; -456.711
508.413;   92.949; -758.167; -577.700
508.697;  303.550; -151.167;   12.300
508.980;  184.424; -422.153; -312.724
509.263;   11.395; -466.155; -450.720
509.547;   45.359; -124.150;   82.271
509.830;  124.632; -172.160;  140.289
510.113;  168.691;  128.844;  298.281
510.396;   67.633; -530.152; -300.725
510.680;  447.426; -818.145; -812.738
510.963; 1627.317;  184.846;  180.277
511.246; 1379.770; -493.150; -357.730
511.529;  499.633; -482.145;  -83.739
511.812;  418.074; -250.134;   10.241
512.095;  273.151; -740.151; -396.728
512.378;  114.807; -317.147; -245.736
512.661;   38.531; -703.137; -623.753
512.944;   20.866; -750.142; -637.744
513.227;  153.627; -170.137; -171.752
513.510;   27.046; -479.144; -671.741
513.793;   61.791; -485.140; -435.747
514.076;  251.761;  -43.127;  -39.771
514.359;  164.684; -294.149; -135.732
514.642;  133.571; -442.142; -567.744
514.925;  993.789;  581.860;  561.253
515.208; 1098.469; -498.134; -443.758
515.491;  804.689; -276.133; -182.761
515.773;  474.751; -410.143; -337.742
516.056; 2510.440;  249.864;  409.246
516.339; 3360.146; -754.136; -652.755
516.622; 3301.667; -518.150; -488.730
516.904; 2808.161;  882.857;  975.257
517.187; 1249.525; -730.138; -523.752
517.470;  653.860; -568.143; -510.743
517.752;  531.350; -624.136; -470.756
518.035;  350.507; -708.139; -725.749
518.318;  419.146; -799.136; -744.755
518.600; 2623.494; -300.132; -325.762
518.883; 3594.170;  310.858;   88.256
519.165; 1880.814; -585.138; -426.751
519.448;  603.094;  -61.132;  -19.762
519.730;  332.372; -573.126; -415.773
520.013;  640.683;  588.867;  664.240
520.295; 1843.877;  -94.134;  -15.759
520.578; 4131.913; -335.131; -305.764
520.860; 4462.094; -254.132;   56.238
521.143; 2263.554; -763.135; -584.756
521.425;  698.191; -251.125; -279.775
521.707;  888.462; -622.127; -380.771
521.990; 2185.763; -199.127;  167.229
522.272; 2357.894; -116.140;   -4.748
522.554; 1301.052; -237.143; -157.742
522.836;  707.573;  -24.134;   99.241
523.119;  418.097; -496.148; -189.734
523.401;  239.623; -448.130; -314.766
523.683;   56.732; -865.137; -693.753
523.965;  406.622;  408.862;  260.248
524.247;  343.423;   54.878;  170.220
524.529;  233.376; -451.134; -367.759
524.812;  475.226;   -3.130;  191.234
525.094; 1012.221; -773.138; -631.751
525.376; 1483.705; -143.124;   78.223
525.658;  919.342; -441.136; -339.754
525.940;  -42.292; -805.131; -671.764
526.222;  108.147; -188.136;  -88.755
526.504;  270.105; -190.131;   32.237
526.786;  443.580; -960.133; -647.760
527.068;  663.013; -124.123;  -67.778
527.349;  304.637; -865.137; -774.754
527.631;  261.293; -137.132;   22.238
527.913;  121.161; -664.127; -450.771
528.195;  118.281; -761.125; -639.774
528.477;  313.069;  -93.134;  -30.758
528.759;  102.526; -648.130; -522.766
529.040;   12.411; -569.123; -293.778
529.322;   99.285; -235.125;  -10.774
529.604;  260.829;  -47.130;   93.233
529.886;  251.772; -546.126; -302.773
530.167;  292.617;  232.870;  192.235
530.449;  113.006;    1.853;   63.265
530.731;   14.321; -572.122; -459.779
531.012;   31.752; -513.120; -216.784
531.294;   98.209; -118.116;  -43.792
531.575;  237.591;  290.875;  538.225
531.857;   41.961; -548.135; -266.757
532.138;  209.983; -113.141;   40.254
532.420;  349.156;  294.865;  403.244
532.701;  396.984; -722.133; -751.760
532.983;  678.688;  232.867;  182.239
533.264;  322.869; -243.126;  175.228
533.546;  -35.853; -491.136; -508.755
533.827;  133.978;  173.867;   -1.759
534.109;   96.761; -352.135;  -80.757
534.390;  140.399; -725.132; -582.762
534.671;  423.356; -270.135;  -82.756
534.953;  158.415; -751.123; -611.779
535.234;   30.487; -426.117; -255.789
535.515; -149.036; -891.119; -735.785
535.796;    2.755; -431.128; -193.770
536.078; -242.596;-1050.124; -904.777
536.359;   45.116;  -22.123;    3.221
536.640;  -29.417; -480.125; -197.774
536.921;  315.537;  225.871;  143.232
537.202;  471.816;  -87.138;  -16.751
537.483;  612.612;  251.869;  377.236
537.764;  222.217;   17.870;   98.235
538.045;  -49.832; -543.134; -371.758
538.326;  -77.961; -596.129; -447.768
538.607;   16.163; -686.127; -476.771
538.888;  221.039;   98.879;    5.218
539.169;  185.931; -704.122; -535.781
539.450;  476.535;  236.871;   16.233
539.731;  311.144; -361.121; -182.783
540.012;  217.752;  199.880;  412.216
540.293;  165.296;   82.876;  158.224
540.574;    5.140; -895.113; -717.796
540.855;  779.542;  435.879;  377.218
541.136;  795.127;   47.878;  139.220
541.416;  385.727; -161.130; -220.766
541.697;  252.506; -274.131; -170.763
541.978; 1217.559; -270.135; -315.757
542.259; 1468.763; -211.127; -236.771
542.539;  790.600; -191.116; -186.790
542.820;  321.991;  461.875;  480.225
543.101;  214.428;  -52.145;  -77.738
543.381;    8.863; -638.127; -591.771
543.662;  394.359;  159.873; -254.771
543.942;  594.256; -751.127; -830.770
544.223; 1246.429;  193.878;  161.219
544.504;  810.204; -275.124; -182.777
544.784;  739.172; -592.126; -408.773
545.065; 2026.606;  104.884; -254.791
545.345; 2501.564;  227.881;   14.215
545.626; 1485.739;  -14.113; -108.796
545.906; 1020.916;   77.869;   98.235
546.186;  452.979;   92.874;  -95.773
546.467;  256.608;   99.877;  -95.778
546.747;  442.800;  264.884;  327.210
547.027;  487.302;   91.876;  111.223
547.308;  349.955; -376.127; -530.770
547.588;  524.040;  299.871;  371.232
547.868;  363.818;  458.870;  588.235
548.149;  337.617;  609.885;  593.207
548.429;  119.160; -347.127; -299.771
548.709;  165.851; -645.120; -461.784
548.989;  543.178;   84.882;   88.213
549.269; 2431.292;   10.868;  139.239
549.550; 5422.614;  215.877;  117.222
549.830; 4778.465; -758.111; -556.799
550.110; 1019.176; -468.110; -320.801
550.390; 1038.622; -128.122;  -56.779
550.670; 1206.532; -868.114; -783.795
550.950;  924.242; -509.121; -471.782
551.230;  344.936;  549.879;  460.218
551.510;  -16.560; -381.121; -326.782
551.790;   49.187; -173.109; -127.803
552.070;  461.208;  940.877; 1181.223
552.350;  383.970; -492.119; -377.786
552.630;  670.733;   -2.121;   77.219
552.909;  480.806;  181.884;   73.209
553.189;  265.701;  -49.132;   33.237
553.469;  132.870; -703.119; -514.786
553.749;  147.265; -469.127; -357.772
554.029;  204.493;   33.883;  -24.790
554.308;  198.923; -154.115;  -37.794
554.588;   74.253; -196.128; -204.770
554.868;   68.443; -366.121;  -47.782
555.147;  179.519; -114.115;  -46.793
555.427;  719.610; -260.116; -250.792
555.707; 4436.116; -284.115; -200.793
555.986; 4976.670; -719.111; -538.800
556.266; 2855.498;   23.884;   72.210
556.546;   45.740; -888.121; -675.782
556.825;  256.829; -657.114; -556.794
557.105; 2081.250; -125.128;   17.230
557.384; 2258.205;  122.884;  187.209
557.664;  868.209; -717.116; -508.792
557.943;   88.642; -557.121; -411.782
558.222;  162.083; -345.118; -344.788
558.502;  319.621; -116.115;  -76.793
558.781;  641.514;  194.885;  499.208
559.061;  423.182; -232.118; -227.788
559.340;  386.290;  302.883;  353.211
559.619;  758.798;   93.884;  148.210
559.899; 1063.593; -239.117; -266.789
560.178;  924.720; -778.115; -593.793
560.457; 3504.195; -623.117; -562.790
560.736; 4629.772; -472.111; -482.800
561.015; 3209.847; -500.128; -502.769
561.295;  477.616;  180.893;  215.193
561.574;  490.616;  119.885;  116.207
561.853;  647.394;  274.891;  303.197
562.132;  582.524;  -45.114;  182.206
562.411;  529.733;  396.879;  553.219
562.690;   95.314; -592.115; -458.792
562.969;  280.549;  472.888;  630.203
563.248;  944.030; 2966.878; 2487.219
563.527;  295.170; -290.111; -408.800
563.806;  383.860; -650.127; -521.771
564.085;  437.539; -297.105; -206.810
564.364;  212.697; -594.117; -405.790
564.643;  540.034; -276.121; -223.781
564.922; 2072.085;  221.890;  397.198
565.201; 1908.290; -640.109; -700.803
565.479;  888.912; -297.115; -219.792
565.758;  312.851; -810.128; -712.770
566.037;  526.292; -155.109; -100.803
566.316;  273.105; -286.116;  -28.791
566.595;   86.816;  -17.115;  -12.793
566.873;  210.073; -166.111;  -79.801
567.152; -100.252; -490.113; -590.797
567.431;   27.399; -113.116;    6.210
567.709;   29.217; -344.107; -212.807
567.988;  214.429; -810.114; -769.794
568.266;  600.016; -160.115;  -68.793
568.545;  405.108; -644.100; -514.819
568.824;  665.611;  160.885;  356.208
569.102;  511.328; -351.114; -235.794
569.381;  217.910; -492.116; -407.792
569.659;  -68.657; -553.113; -553.796
569.938;    3.227; -743.122; -465.780
570.216;  132.096; -225.109; -225.804
570.494;  -75.767; -632.114; -572.795
570.773;   60.740;  202.879;  114.218
571.051;   -4.488; -373.123; -357.778
571.330;   33.039; -221.113; -174.796
571.608;   67.034; -181.098; -173.823
571.886; -139.238; -671.111; -581.799
572.164; -169.057; -739.121; -621.782
572.443;  -84.556; -562.105; -512.811
572.721;  -59.405; -399.117; -289.790
572.999;  -66.114; -280.117; -168.788
573.277;  215.935;  379.894;  620.191
573.555;  352.038;   94.894;   37.190
573.834; 1444.285;  -86.117; -114.788
574.112; 1697.520;  880.893;  811.193
574.390;  574.072; -143.111;  -96.801
574.668;   13.550;  -91.112;  -61.797
574.946;  -16.862; -165.106; -187.810
575.224;   23.090;   71.891;  -16.803
575.502;   15.602; -200.116; -204.791
575.780; -176.749; -767.112; -829.798
576.058;  530.271; 1589.889; 1004.200
576.336;  -10.721; -210.110; -129.801
576.614; -119.648; -511.112; -340.798
576.891;  -14.578; -711.115; -823.794
577.169;  500.907; -158.108; -285.805
577.447;  644.219;  169.893;  202.193
577.725;  351.658;  629.888;  854.201
578.003;   22.655;  -71.112; -371.798
578.280;  114.757; -208.104; -242.812
578.558;   63.221; -450.115; -422.793
578.836;  216.533; -210.114; -145.795
579.114;   24.249; -630.112; -670.797
579.391;  125.688;   -6.117;  -18.789
579.669; -111.577; -595.114; -704.794
579.947;  188.315; -326.107; -127.806
580.224;  265.414; -692.107; -524.806
580.502;  373.021;  127.893;   76.193
580.779;   27.896;  -42.117;   75.210
581.057; -133.104; -584.109; -470.804
581.334; -206.321; -726.102; -695.815
581.612;  122.839;   54.895;  511.190
581.889;  -57.501;  -83.101; -129.818
582.167;  -44.581; -298.099; -190.821
582.444; -200.709; -845.102; -814.817
582.721;  220.692;  657.899;  715.183
582.999;   58.316; -326.100; -167.821
583.276;  492.718; -812.123; -713.779
583.553;  652.684; -364.102; -294.816
583.831;  209.553; -607.104; -631.812
584.108;  110.804;  349.892;  174.195
584.385;   11.878; -122.102;  -98.815
584.662; -121.026; -651.111; -828.801
584.940;  113.373;  204.889;  204.199
585.217;  -23.258;  -73.113; -303.796
585.494;   93.186;   71.890;  118.198
585.771;  238.297; -250.109; -354.804
586.048;  557.042; -196.113;  -76.796
586.325;  249.378; -721.110; -773.801
586.602;  151.058;  230.896;  213.188
586.879;  -92.589; -499.100; -580.820
587.156;   86.840; -156.105; -331.810
587.433; -111.312; -701.102; -667.817
587.710;  106.053;  152.888;  234.202
587.987;  338.548; -264.105; -236.811
588.264; 1080.955;  315.888;  387.202
588.541; 1706.061;  -61.104;   26.187
588.818; 3224.700;   72.892;  171.196
589.095; 2809.955; -163.104; -174.812
589.371;  484.994; -459.109; -414.804
589.648;    7.820; -581.107; -437.807
589.925;   10.534; -517.114; -621.795
590.202;  -53.348; -741.112; -607.798
590.478;  133.151; -166.105;  -73.811
590.755;  296.709; -241.108; -132.806
591.032; 2671.681; -741.110; -699.802
591.308; 3475.193; -732.094; -790.831
591.585; 1862.280; -573.110; -560.802
591.862;   20.790;-1056.102; -950.817
592.138;   53.606; -475.108; -474.805
592.415;  148.859; -486.104; -495.813
592.691; 1815.056;  460.896;  518.188
592.968; 2065.937; -208.098; -123.824
593.244; 1023.200; -695.116; -595.790
593.521;  115.090; -105.102;  -42.817
593.797; -105.476; -810.122; -720.780
594.074;  341.455; -611.096; -588.826
594.350;  886.072;  828.905;  729.172
594.626;  370.074; -303.111; -283.801
594.903;   47.991; -643.101; -645.817
595.179;  282.765;  243.896;  418.187
595.455;   10.722; -136.107; -150.807
595.731;   45.167;  -19.103;  -38.814
596.008;  -70.834; -464.111; -434.800
596.284;   26.614; -187.100; -242.820
596.560;   25.202; -501.093; -493.833
596.836;  218.743; -173.105;  -70.810
597.112;  324.307; -582.108; -437.805
597.388;  329.252;  -49.097;  -48.826
597.665;  197.846;  437.887;  530.203
597.941; -130.555; -572.089; -658.839
598.217;   34.085; -323.110; -293.802
598.493;  316.299;   61.891; -204.804
598.769;  595.106; -175.100;  -50.819
599.045;  269.211; -490.108; -562.806
599.321;   46.912; -193.100; -261.820
599.597;  116.198; -355.109; -476.804
599.872;  616.661;  409.896;  429.187
600.148;  385.154;  -61.097; -172.826
600.424;  396.018;   91.893;  202.193
600.700;  250.621; -170.107; -280.807
600.976;   90.246; -442.097; -464.825
601.252;  249.593; -226.109; -272.803
601.527;  114.163; -833.104; -840.813
601.803;  111.251; -453.105; -404.812
602.079;  190.906; -124.100; -118.819
602.354;  641.017; -620.092; -531.835
602.630;  907.342; -140.113; -482.796
602.906; 2747.599; -910.101; -863.818
603.181; 7332.170; -627.119; -534.786
603.457; 6265.251;   98.903; -278.826
603.733;  952.346; -605.120; -626.783
604.008; 1206.539; -245.106; -164.810
604.284; 3350.393; -636.101; -580.817
604.559; 3068.758;   -3.112;  -42.799
604.835;  584.143; -163.105; -225.810
605.110;  402.620; -732.099; -892.821
605.385;  834.206;  224.907;  267.167
605.661;  652.776; -625.095; -729.829
605.936; 1123.912; -664.108; -737.806
606.211; 1045.077;  -17.103; -170.815
606.487;  197.427; -329.114; -376.794
606.762;  -63.130; -791.119; -745.786
607.037;  -43.157; -501.105; -433.810
607.313; -122.634; -589.096; -574.828
607.588;  -26.162; -375.106; -137.810
607.863;   50.998;  -28.101; -143.818
608.138;  291.884;  513.890;  516.198
608.413;  -15.374; -576.099; -592.822
608.688;   36.906; -203.108; -267.805
608.964;  198.330; -509.106; -218.809
609.239;  265.239; -107.105; -212.810
609.514;  283.351;  281.895;  240.188
609.789;  677.557; -187.104; -716.812
610.064;  934.164; -435.096; -609.827
610.339;  923.294; -855.109; -799.804
610.614; 1216.813; -131.100; -315.820
610.889;  737.551;  215.895;  107.188
611.163;  -16.748; -407.104; -591.812
611.438;  127.228;   81.886; -167.794
611.713;  -27.007; -467.101; -499.817
611.988;   59.596; -144.101; -328.818
612.263; -110.921; -771.102; -717.815
612.538;  344.741;  385.887;  251.204
612.812;   71.815; -832.100; -911.820
613.087;   91.834; -358.098; -338.823
613.362; -126.478; -497.107; -557.807
613.637;  130.571;  261.897;  138.186
613.911;  -24.682; -256.092; -345.835
614.186;  123.819; -249.107; -292.807
614.460;  608.055; -842.081; -758.854
614.735;  849.379;  -55.087;  -17.843
615.010;  193.865;   43.912;  -82.841
615.284;  375.205;  360.892;  246.195
615.559;  291.216; -792.092; -955.835
615.833;  369.223;  -76.099;  -87.822
616.108;  -34.167; -225.090; -390.837
616.382;  209.182;  274.913;  402.156
616.656;  155.434; -241.090; -232.837
616.931;  538.724; -785.099; -700.822
617.205; 1084.363; -973.104; -979.813
617.480; 1051.888;  -91.125;    6.225
617.754;  189.385; -396.125; -128.774
618.028;    4.141; -369.129; -382.768
618.302;   96.503;   73.892;  -25.805
618.577;  -91.727; -371.103; -518.815
618.851;  -93.811; -399.109; -600.803
619.125;  -95.124; -335.134; -378.759
619.399;  -21.236; -244.104; -374.813
619.673;  -55.989; -330.115; -515.792
619.947;  -92.868; -333.114; -448.795
620.222;  -39.624; -198.110; -204.801
620.496;  -14.358;  -47.121;  -96.782
620.770;   24.130; -187.122;  -93.781
621.044;  286.440;  323.895;  346.190
621.318;  790.047; -653.120; -614.783
621.592;  723.543; -430.121; -409.783
621.866;  302.960; -476.112; -572.799
622.140;   23.702; -207.116; -356.791
622.413;   93.566;  138.889;  112.200
622.687; -114.606; -746.101; -492.817
622.961;   41.103; -130.108; -143.805
623.235; -133.833; -633.111; -661.800
623.509; -232.550; -816.105; -848.811
623.783;   31.816;  -12.107;   48.193
624.056;  -32.352; -254.120; -280.783
624.330;   77.350;   63.888;   -3.797
624.604;   63.597; -271.116; -355.790
624.877;  112.582;  180.890;   26.198
625.151;   67.925; -249.114; -238.794
625.425;  -58.433; -150.103; -283.814
625.698;  -64.938; -367.119; -374.785
625.972; -192.214; -799.110; -765.802
626.245;  193.100;  685.884;  484.210
626.519;  -99.246; -426.120; -340.784
626.792;  -52.379; -192.107; -380.807
627.066; -163.780; -485.122; -662.779
627.339; -193.920; -736.110; -663.802
627.613;  100.652;  351.880;  148.216
627.886;  153.088;  187.891; -612.803
628.160;  -25.354;  312.880; -161.783
628.433; -206.208; -695.125; -703.775
628.706; -127.646; -517.120; -615.784
628.979;   60.402;  296.876;  117.223
629.253; -209.531; -785.119; -833.786
629.526;  371.570; -334.126; -253.772
629.799;  266.312; -641.123; -479.778
630.072;  149.844; -497.128; -516.769
630.346; -195.700;-1115.116;-1080.790
630.619;  457.223; -467.107; -545.808
630.892;  698.968;  709.889;  593.200
631.165;  466.964;  790.896;  679.187
631.438; -224.445;-1092.112;-1055.798
631.711;  112.317;  453.877;  257.221
631.984; -118.907; -523.117; -624.789
632.257; -136.312; -636.117; -681.789
632.530; -115.038; -412.119; -433.785
632.803;   40.822; -109.115;    7.207
633.076; -134.793; -360.123; -422.777
633.349;   47.049;  173.872;  121.231
633.622;  -78.740; -187.119; -240.785
633.895; -246.552; -903.120; -823.783
634.167; -136.127; -496.126; -525.773
634.440;   -5.591;  -19.116; -137.792
634.713;   -9.333;  -22.119; -120.786
634.986;  213.835;  593.871;  453.233
635.258; -144.681; -507.115; -597.793
635.531;  218.882;  742.882; -343.788
635.804;  -45.609; -303.117; -318.789
636.077; -164.097; -830.116; -852.791
636.349;  -74.283; -586.115; -474.793
636.622;  693.968; 1695.874; 1392.228
636.894;  188.955; -474.120; -909.784
637.167;   47.960; -836.127; -789.771
637.439;   27.354; -278.128; -213.770
637.712;  -36.629; -312.126; -293.772
637.984; -160.796; -635.116; -707.791
638.257;  577.908;  515.877;  488.222
638.529;  568.194; -881.125; -924.776
638.802;  271.943; -508.128; -449.769
639.074; -256.971; -927.122; -952.781
639.346; -222.036; -942.135; -930.757
639.619;   55.268;  -79.142; -319.744
639.891;   10.520;  -83.122; -168.779
640.163; -169.177; -689.122; -756.780
640.435;   97.825;  273.878;  103.220
640.708;   28.628;  -72.122; -132.780
640.980;  -41.469; -366.122; -362.781
641.252;  288.133;  -25.121;  -71.781
641.524; 2482.536;  580.879;  573.219
641.796; 2243.839;-1094.121; -907.782
642.068;  414.341; -191.121; -300.782
642.340; -113.756; -486.121; -566.783
642.613;  124.847;  294.880;  323.217
642.885; -191.851; -787.120; -878.783
643.157; -112.648; -810.120; -658.784
643.428;  133.855;  170.880;  218.216
643.700; -102.543; -498.120; -425.784
643.972;  -21.640;  -16.119; -133.785
644.244; -141.137; -474.119; -559.785
644.516;  -56.335; -250.119; -114.786
644.788;  185.868;  662.881;  548.214
645.060;   11.971;  -12.119; -124.786
645.332; -141.526; -525.118; -535.787
645.603;  121.976;  479.882;  342.213
645.875; -100.721; -334.118; -369.787
646.147;  382.182; 1487.882; 1242.212
646.418; -180.516; -931.117; -918.788
646.690;   43.587; -714.117; -715.789
646.962;  -18.910; -413.117; -451.789
647.233;   26.192;   15.883;   11.211
647.505; -163.705; -595.117; -475.790
647.776;  105.198;  328.884;  229.210
648.048;  -33.000; -248.116; -418.790
648.320; -164.597; -752.116; -679.791
648.591; -254.794;-1055.116; -958.791
648.862; -174.492; -505.116; -577.792
649.134;   69.111;  115.885;  198.208
649.405; -133.686; -661.115; -618.792
649.677;  -97.284; -475.115; -598.793
649.948;  -20.481; -181.115; -296.793
650.219;   30.022;  -37.115; -147.793
650.491; -123.676; -431.114; -520.794
650.762; -194.673; -705.114; -731.794
651.033; -130.370; -437.114; -424.795
651.304; -191.567; -743.114; -728.795
651.576; -152.365; -680.114; -645.795
651.847;  -30.462; -250.113; -140.796
652.118;   -5.759;  -32.113; -189.796
652.389; -178.657; -639.113; -722.796
652.660;  -36.754; -147.113;  -89.797
652.931; -236.651; -897.112; -871.797
653.202; -126.549; -382.112; -541.798
653.473; -104.846; -633.112; -533.798
653.744;  124.657; -595.112; -590.798
654.015;  157.659; -356.112; -303.799
654.286; -136.738; -642.111; -663.799
654.557; -119.135; -586.111; -521.799
654.828; -304.333;-1114.111;-1088.800
655.099; -114.630; -404.111; -291.800
655.370; -130.927; -427.111; -543.801
655.641; -185.925; -656.110; -714.801
655.911; -170.822; -618.110; -638.801
656.182;  220.181;  437.890;  387.198
656.453;  290.584;  830.890;  746.198
656.724; -113.314; -466.110; -426.802
656.994; -138.411; -553.109; -568.803
657.265; -222.608; -862.109; -873.803
657.536; -148.706; -500.109; -377.804
657.806; -134.603; -561.109; -593.804
658.077; -238.400; -866.109; -950.804
658.347; -138.598; -523.108; -598.805
658.618; -183.495; -646.108; -694.805
658.888;    8.408;  -41.108;  112.195
659.159; -138.490; -432.108; -548.806
659.429;  -20.987; -292.108; -349.806
659.700;   -6.884; -435.107; -390.807
659.970;  -57.882; -370.107; -359.807
660.241;  -59.879; -754.107; -921.807
660.511;  599.124; -147.107; -174.808
660.781;   38.226; -793.106; -748.808
661.052;  -68.771; -222.106; -381.808
661.322;   -2.168;   21.894;   -9.809
661.592;   85.534;  257.894;  148.191
661.862;  -85.763; -369.106; -382.810
662.133; -142.360; -551.105; -502.810
662.403; -219.657; -770.105; -676.810
662.673;  -75.355; -256.105; -213.811
662.943; -171.752; -612.105; -551.811
663.213;   14.951;  -85.105;  -81.811
663.483; -153.747; -593.104; -568.812
663.753;  -15.844; -194.104; -152.812
664.023;    6.259;   68.896;  -32.813
664.293;  -61.339; -319.104; -126.813
664.563; -189.836; -694.104; -648.813
664.833; -207.833; -743.103; -608.814
665.103; -231.631; -730.103; -793.814
665.373; -203.928; -766.103; -806.814
665.643; -227.625; -863.103; -918.815
665.913;   19.177; -534.103; -714.815
666.182;  112.980; -685.102; -719.816
666.452;  280.583;  -22.102;  -89.816
666.722;  -97.015; -724.102; -784.816
666.992; -245.312; -948.102; -921.817
667.261; -175.409; -824.102; -808.817
667.531;  330.493;  134.899;   45.183
667.801;  704.096; -440.101; -412.818
668.070;  434.599;  714.899;  697.182
668.340; -194.098; -883.101; -840.819
668.609;  197.204;  588.900;  301.181
668.879; -149.293; -490.100; -558.819
669.149;  -97.190; -539.100; -516.820
669.418; -195.888; -698.100; -726.820
669.688;  -75.285; -482.100; -666.820
669.957;    5.818; -423.099; -546.821
670.226;  -12.980; -268.099; -331.821
670.496; -168.877; -431.099; -635.822
670.765; -106.474; -418.099; -501.822
671.034; -240.972; -872.099; -828.822
671.304;   22.331;   55.902; -111.823
671.573; -301.866;-1085.098; -957.823
671.842;   59.236; -380.098; -294.823
672.112;  -72.761; -692.098; -586.824
672.381;  -16.158; -239.098; -214.824
672.650; -250.456;-1005.097;-1021.825
672.919; -163.053; -631.097; -507.825
673.188; -163.250; -681.097; -878.825
673.457; -304.047;-1101.097;-1143.826
673.726; -142.245; -579.096; -646.826
673.995;  -83.542; -533.096; -479.826
674.265;  -43.839; -263.096; -333.827
674.534;   30.563; -183.096; -235.827
674.802;  -20.134; -618.096; -703.828
675.071; 1198.769; -886.095; -801.828
675.340; 4207.071; -464.095; -339.828
675.609; 1449.874;  103.905;   82.171
675.878;  -34.223; -949.095; -893.829
676.147;   82.579;  -26.095;   -8.829
676.416;   83.182; -210.094; -294.830
676.685;  946.185; 1000.906; -622.830
676.953;   35.987; -603.094; -452.831
677.222;  -49.910; -193.094; -273.831
677.491;  -23.207;  -24.094; -127.831
677.759;   31.495;   11.907;  172.168
678.028;  -33.102; -279.093; -222.832
678.297;   27.201;   71.907;  197.168
678.565; -257.297; -898.093; -944.833
678.834;  -37.594; -311.093; -268.833
679.102; -110.491; -411.092; -391.834
679.371; -242.888; -898.092; -727.834
679.639; -250.386; -797.092; -786.834
679.908; -212.783; -794.092; -724.835
680.176; -285.580; -895.091; -941.835
680.445; -121.478; -346.091; -352.835
680.713;   16.625;  -58.091;  -23.836
680.982; -161.072; -523.091; -525.836
681.250; -196.270; -578.091; -507.837
681.518; -159.467; -534.090; -751.837
681.787;  -22.764; -204.090; -167.837
682.055;  -97.962; -490.090; -422.838
682.323; -286.459; -993.090; -992.838
682.591;   23.944; -216.090; -538.838
682.859;   68.046;    9.911;  -35.839
683.128;   75.849;  232.911;  497.161
683.396; -317.748;-1102.089;-1122.840
683.664;  -10.346; -241.089;   21.160
683.932;   35.657;  144.911;  -76.840
684.200; -117.240; -576.088; -320.841
684.468;  -19.937;  -73.088; -124.841
684.736;  -23.135; -214.088; -175.841
685.004; -259.032;-1024.088; -982.842
685.272; -127.229; -880.088; -774.842
685.540; -128.127; -499.087; -557.843
685.808; -154.524; -651.087; -682.843
686.076; -191.221; -894.087; -969.843
686.343;  -94.719; -601.087; -815.844
686.611;   50.284; -195.087; -224.844
686.879;  564.687; -530.086; -553.844
687.147; 3505.889; -483.086; -480.845
687.414; 1015.092;  -12.086; -169.845
687.682;  -91.005; -658.086; -757.846
687.950;  442.097;  259.915;  263.154
688.217;  -69.500; -792.085; -760.846
688.485;  -52.297; -632.085; -636.847
688.753;  622.905;  -11.085; -102.847
689.020;   53.308; -820.085; -851.847
689.288; -207.789; -853.084; -787.848
689.555;  -10.587; -195.084; -148.848
689.823;  -49.684; -241.084; -345.849
690.090; -141.281; -546.084; -651.849
690.358; -289.478; -877.084; -897.849
690.625;   53.824;  120.917;   45.150
690.892; -140.473; -403.083; -369.850
691.160;   21.930;   72.917;  -35.850
691.427;   35.132;  141.917;  130.149
691.694; -258.865; -855.083; -929.851
691.962; -258.062;-1177.082;-1060.852
692.229;   24.240;  127.918;   56.148
692.496;  111.543;  130.918;  -49.852
692.763;   42.146; -164.082; -201.853
693.031; -148.252; -739.082; -716.853
693.298;  -57.349; -509.081; -368.853
693.565;  411.854; -155.081; -163.854
693.832; 1357.456;   -5.081;   -9.854
694.099;  117.959; -643.081; -642.855
694.366;  -93.638; -882.081; -896.855
694.633; -129.836; -920.080; -633.855
694.900; 1521.667; 4367.920; -114.856
695.167;  531.870; -214.080; -380.856
695.434;  109.373; -646.080; -623.856
695.701;  304.575;  121.921;  -61.857
695.968;  587.178; -365.079; -361.857
696.234; 1651.281; -415.079; -646.858
696.501;16639.183; -776.079; -614.858
696.768; 7960.386; -554.079; -617.858
697.035;  499.889; -632.078; -667.859
697.302;   63.491; -448.078; -552.859
697.568;   40.694; -458.078; -497.859
697.835;  -35.603; -683.078; -624.860
698.102;    5.999; -498.078; -407.860
698.368;  172.402;  384.923;  396.139
698.635;   -7.495;  -47.077; -424.861
698.901;   17.107; -240.077; -348.861
699.168;   62.010; -534.077; -456.862
699.435;   95.113;  -72.077;  -13.862
699.701; -232.785; -868.076; -764.862
699.968;  -98.882;  144.924; -441.863
700.234; -162.379; -783.076; -822.863
700.500;  -73.077; -448.076; -539.864
700.767;   39.626;   -1.075;   26.136
701.033; -251.071;-1015.075; -963.864
701.299;  -64.068; -450.075; -483.865
701.566;  249.734;  950.925;  763.135
701.832;   87.837;  -31.075;  -76.865
702.098; -177.260;-1054.074;-1034.866
702.365; -192.658;-1098.074;-1030.866
702.631; -107.755;-1038.074;-1063.867
702.897; 1783.348; -765.074; -676.867
703.163; 2819.350;  348.926;  254.133
703.429;  245.853; -256.073; -273.868
703.695; -118.844; -796.073; -792.868
703.961;   93.258; -214.073; -210.868
704.227;  -95.039; -630.073; -725.869
704.493;  328.864;  613.927;  510.131
704.759;  -34.434; -565.072; -540.870
705.025;   75.769; -203.072; -194.870
705.291;    7.272; -666.072; -562.870
705.557;  400.074;  719.928;   34.129
705.823;   52.177; -742.072; -694.871
706.089;  275.280; -307.071; -326.871
706.355;  697.982; -315.071; -244.872
706.620;10376.285; -776.071; -729.872
706.886;12175.188; -309.071; -362.873
707.152; 1051.991; -818.070; -973.873
707.418;  -21.207;-1153.070;-1186.873
707.683;   39.896; -550.070; -530.874
707.949;  -53.901; -547.070; -578.874
708.215;   51.201; -129.070; -207.874
708.480;  -34.496; -520.069; -420.875
708.746;  182.207;   68.931;   28.125
709.011; -101.691; -578.069; -612.876
709.277; -105.988; -538.069; -543.876
709.542;  -53.885; -428.069; -387.876
709.808;   74.717;  -59.068;   89.123
710.073; -106.980; -577.068; -695.877
710.339;  -12.077; -242.068; -228.877
710.604;   39.025; -780.068; -845.878
710.869;  415.828; -277.068; -366.878
711.135; -146.869; -715.067; -628.879
711.400; -114.867; -507.067; -608.879
711.665; -110.064; -404.067; -479.879
711.931; -161.361; -661.067; -677.880
712.196; -261.158; -876.067; -954.880
712.461;  117.344; -402.066; -490.880
712.726;   57.847; -727.066; -771.881
712.991; -148.950; -647.066; -664.881
713.256;  -29.148; -350.066; -332.882
713.521;  -69.245; -417.065; -381.882
713.787;  -85.942; -454.065; -472.882
714.052;  -25.740; -214.065; -400.883
714.317; -183.037;-1045.065; -981.883
714.581; 1864.566; -374.065; -268.883
714.846; 2155.668; -822.064; -888.884
715.111;  316.971;  261.936;  257.116
715.376;  -38.526;  -86.064; -223.885
715.641;  -13.324; -365.064; -367.885
715.906;  327.179;   15.936; -551.885
716.171;  219.682;  221.937;  209.114
716.436;   51.484;  -78.063; -104.886
716.700; -203.913; -818.063; -692.886
716.965; -244.610; -794.063; -807.887
717.230; -109.008; -339.063; -392.887
717.494;  -31.505;  -40.062; -134.888
717.759; -148.402; -784.062; -640.888
718.024;   69.701;  269.938;  250.112
718.288;  176.303;  685.938;  395.111
718.553; -265.194; -803.062; -977.889
718.817; -242.091; -883.061; -899.889
719.082;  -22.289; -115.061; -125.890
719.346; -223.186;-1000.061; -947.890
719.611;  -66.583; -300.061; -255.891
719.875; -162.081; -568.060; -537.891
720.140; -111.378; -453.060; -603.891
720.404;   71.625; -136.060; -249.892
720.668;  939.427; -475.060; -411.892
720.933;  406.730;  146.940;  137.108
721.197; -202.667; -667.059; -600.893
721.461; -215.065; -851.059; -826.893
721.725;   36.038;  -21.059; -250.894
721.990;  -82.059; -284.059; -204.894
722.254;  -24.757;  -26.059; -108.894
722.518;  -98.554; -286.058; -442.895
722.782; -156.651; -743.058; -594.895
723.046;  272.252;  614.942;  570.105
723.310;  114.454;  374.942;  210.104
723.574; -150.243; -654.058; -614.896
723.838; -162.840; -576.057; -642.897
724.102;  -19.438; -226.057; -239.897
724.366; -263.335;-1032.057; -978.897
724.630; -159.232; -749.057; -571.898
724.894; -113.530; -722.057; -514.898
725.158;   49.173;   38.944; -295.898
725.422;  -80.224; -394.056; -327.899
725.685; -114.022; -441.056; -349.899
725.949; -139.319; -566.056; -519.900
726.213; -140.816; -732.056; -811.900
726.477;   78.386;-1020.055; -933.900
726.740;  210.089; -274.055; -104.901
727.004;  560.792; -384.055; -510.901
727.268; 5385.894; -442.055; -400.901
727.531; 1354.397; -961.055; -775.902
727.795;  -45.400; -713.054; -673.902
728.059;  -92.398; -552.054; -557.903
728.322; -134.195; -841.054; -669.903
728.586;  -24.492; -692.054; -701.903
728.849; -142.989; -695.053; -756.904
729.112; -183.687; -812.053; -912.904
729.376; -220.384; -959.053; -905.904
729.639; -151.981; -536.053; -536.905
729.903; -160.479; -733.053; -699.905
730.166;  -87.976; -437.052; -399.906
730.429;  -64.773; -317.052; -468.906
730.693; -124.171; -355.052; -894.906
730.956;  436.532;  810.948;  651.093
731.219;  828.335; -310.052; -103.907
731.482;   72.137;-1003.051; -894.907
731.745;   55.440; -794.051; -935.908
732.009;   71.043;  -30.051;   50.092
732.272; -188.455; -904.051; -771.909
732.535;  -20.552; -300.051; -310.909
732.798; -302.449;-1083.050;-1166.909
733.061;  -93.047; -430.050; -456.910
733.324;   35.056;   31.950; -180.910
733.587;  160.259;  290.950;  365.090
733.850;  -97.538; -973.049;-1050.911
734.113;   87.464;   33.951;   32.089
734.376;  -13.933; -328.049; -447.912
734.639;  435.270; 1188.951; 1011.088
734.901;  116.272; -180.049; -402.912
735.164;  602.375; -883.048; -837.913
735.427; 1491.378; -166.048; -355.913
735.690;  212.480; -205.048; -234.913
735.952; -120.217; -923.048; -925.914
736.215;  -74.114;-1113.048;-1009.914
736.478;    4.088; -771.047; -774.915
736.740;  335.391;   33.953;  129.085
737.003;  918.894; -658.047; -672.915
737.266; 4779.596;  -94.047;   46.084
737.528;  558.899; -682.047; -660.916
737.791;  434.202; -316.046; -327.916
738.053; 1391.804;  465.954;  649.083
738.316;16875.507; -162.046; -136.917
738.578;10309.510; -770.046; -736.918
738.841;  697.712; -382.046; -446.918
739.103;  265.415; -875.045; -777.918
739.365;  706.418;   79.955;  -69.919
739.628;  -27.479; -884.045; -805.919
739.890;  -68.477; -758.045; -710.919
740.152;  -86.774; -692.044; -754.920
740.414;   10.329; -408.044; -359.920
740.677;  -82.969; -785.044; -634.921
740.939;  -73.166; -587.044; -487.921
741.201;  269.537; -432.044; -572.921
741.463;   33.539; -689.043; -745.922
741.725;   21.642;  -21.043; -199.922
741.987;  141.245;  220.957;  116.078
742.249;  -44.553; -751.043; -859.923
742.511;  209.750; -703.043; -794.923
742.773;  -36.147; -546.042; -546.924
743.035;  235.855;  796.958;  533.076
743.297; -111.842; -963.042;-1013.924
743.559;  984.261; -278.042; -262.925
743.821;   28.263; -735.042; -744.925
744.083;   73.566;  -44.041; -149.925
744.345; -166.031; -869.041; -892.926
744.607;  104.071;   75.959;  122.074
744.868; -101.426; -490.041; -554.927
745.130; -187.723; -994.041;-1008.927
745.392;  111.480;   -1.040;  -44.927
745.653;    7.882; -411.040; -378.928
745.915;  318.285;  896.960;  631.072
746.177;  124.788;   35.960;  -43.928
746.438;   24.790; -428.040; -543.929
746.700;  -64.807; -947.039; -988.929
746.961;    5.896; -659.039; -740.930
747.223;  251.498; -190.039;  -74.930
747.484;  130.701; -391.039; -471.930
747.746;  244.504;  -23.038; -106.931
748.007;  128.206; -647.038; -689.931
748.269;  422.709; -468.038; -440.931
748.530;  585.312; -852.038; -638.932
748.791;  409.214; -354.038; -420.932
749.053;  661.517;  286.963;  163.067
749.314;  625.020; -236.037; -169.933
749.575;  652.722; -945.037; -905.933
749.836; 1218.225; -217.037;   86.066
750.098; 3926.828;  -60.037;  -21.934
750.359;48083.231;  414.964;  555.066
750.620;11046.333; -121.036; -220.935
750.881; 1441.336; -585.036; -513.935
751.142; 1960.739; -950.036; -938.936
751.403;25752.741; -789.036; -705.936
751.664; 9827.144;-1034.035; -999.936
751.925;  776.947; -175.035; -262.937
752.186;  453.849; -298.035; -278.937
752.447;  207.552; -590.035; -445.937
752.708;   62.255; -532.035; -648.938
752.969;   13.757; -566.034; -576.938
753.230;  -13.140; -777.034; -672.939
753.491;    1.863; -650.034; -631.939
753.751;  178.265;  109.966;   19.061
754.012;  215.868;  258.967;  181.060
754.273;   94.171; -174.033;  -71.940
754.534;   -5.327; -487.033; -580.940
754.794; -154.424; -926.033; -911.941
755.055;  348.979; 1051.967;  881.059
755.316;  -58.119; -700.032; -566.942
755.576;  -13.416; -606.032; -576.942
755.837;  -60.213; -527.032; -695.942
756.097;  -22.410; -530.032; -564.943
756.358; -115.708; -725.032; -770.943
756.618;  -76.805; -705.031; -641.943
756.879;   34.698; -254.031; -349.944
757.139; -225.900;-1098.031;-1116.944
757.400;  -83.797; -538.031; -553.945
757.660;   -0.894; -365.031; -401.945
757.920;    2.308; -266.030; -228.945
758.181;   16.111; -468.030; -351.946
758.441; -144.086; -870.030; -809.946
758.701;    8.816; -308.030; -215.946
758.961;   15.319; -220.030; -278.947
759.222;  -68.078; -574.029; -502.947
759.482; -127.476; -683.029; -723.948
759.742; -124.673; -706.029; -547.948
760.002;   47.130;  -83.029; -143.948
760.262;  104.932;   50.972;  182.051
760.522;  -48.865; -498.028; -574.949
760.782; -106.862; -738.028; -612.949
761.042;  -52.359; -618.028; -573.950
761.302;  142.143;   55.972;  -18.950
761.562;  108.246; -164.027; -154.951
761.822;  152.049; -710.027; -551.951
762.082;  -93.849;-1104.027;-1093.951
762.342;  120.354; -328.027; -403.952
762.601;  124.757; -567.027; -506.952
762.861;  534.159; -281.026; -207.952
763.121;  743.462; -406.026; -411.953
763.381;13208.965; -499.026; -485.953
763.640;12179.267; -139.026; -307.954
763.900;  635.070; -242.026; -203.954
764.160;  189.673; -458.025; -491.954
764.419;   -2.525; -726.025; -782.955
764.679; -135.522; -795.025; -726.955
764.939;   53.181; -124.025; -210.955
765.198;  -85.217; -608.025; -563.956
765.458; -109.414; -710.024; -612.956
765.717; -145.511; -454.024; -590.957
765.976;  -42.609; -428.024; -411.957
766.236; -120.106; -475.024; -610.957
766.495;  105.397;  260.977;   73.042
766.755; -179.400;-1090.023; -987.958
767.014;  -35.798; -594.023; -665.958
767.273;  -46.195; -373.023; -397.959
767.533;  -46.192; -228.023; -307.959
767.792;   10.910; -151.022; -188.960
768.051;  -54.887; -228.022; -276.960
768.310; -136.984; -546.022; -650.960
768.569;   47.818; -161.022;    4.039
768.828;  -38.179; -285.022; -363.961
769.088; -211.976;-1050.021; -942.961
769.347; -127.774; -755.021; -599.962
769.606; -144.971; -876.021; -857.962
769.865; -187.368;-1016.021;-1033.963
770.124;   68.834; -411.021; -336.963
770.383;  -71.463; -778.020; -910.963
770.641;   30.340; -398.020; -400.964
770.900; -102.558; -953.020; -846.964
771.159;  -65.255; -851.020; -951.964
771.418;  -52.552; -917.020; -779.965
771.677;  278.651; -224.019; -293.965
771.936;  297.453; -794.019; -865.966
772.194; 4906.356; -465.019; -437.966
772.453;18329.759; -213.019; -391.966
772.712; 1354.161;  416.982;  329.033
772.970;  268.764;   32.982;   63.033
773.229;  228.867;  -22.018;  102.033
773.488; -128.531; -814.018; -770.968
773.746;  181.572;  296.982;  335.032
774.005;   71.375;  190.983;  -22.969
774.263;   96.377;  243.983;  177.031
774.522; -137.320; -422.017; -548.969
774.780;  -91.517; -484.017; -417.970
775.039; -153.615; -551.017; -531.970
775.297;  -17.112; -135.016; -351.970
775.555; -143.209; -489.016; -612.971
775.814; -173.707; -618.016; -570.971
776.072; -198.904; -749.016; -740.971
776.330; -117.201; -630.016; -520.972
776.589; -158.999; -703.015; -721.972
776.847; -214.296; -645.015; -624.973
777.105; -279.893;-1016.015;-1032.973
777.363;  -78.690; -459.015; -454.973
777.621; -229.888; -660.015; -717.974
777.879;   19.415;  -42.014;   32.026
778.138; -141.082; -554.014; -717.974
778.396; -183.180; -585.014; -526.975
778.654; -298.177;-1015.014; -970.975
778.912;  -63.774; -269.014; -371.976
779.170; -246.272; -880.013; -803.976
779.427; -223.469; -922.013; -897.976
779.685; -233.266; -880.013; -832.977
779.943; -134.964; -654.013; -593.977
780.201; -294.661; -964.012; -883.978
780.459; -165.358; -651.012; -610.978
780.717; -105.756; -440.012; -390.978
780.974; -144.453; -449.012; -490.979
781.232; -107.850; -358.012; -338.979
781.490; -121.348; -551.011; -472.979
781.747; -155.145; -555.011; -476.980
782.005;   95.358;  462.989;  254.020
782.263; -304.040; -542.011;-1004.981
782.520; -114.437; -326.011; -501.981
782.778; -298.834;-1013.010;-1051.981
783.035; -272.931; -962.010; -938.982
783.293;  -71.729; -248.010; -206.982
783.550;  -49.726; -134.010; -198.982
783.808; -232.923; -764.010; -776.983
784.065; -274.921; -745.009; -874.983
784.322;  -25.918;   25.991;  -86.984
784.580; -216.115; -915.009; -771.984
784.837; -125.613; -392.009; -466.984
785.094; -202.710; -783.009; -762.985
785.352; -134.807; -304.008; -404.985
785.609; -195.705; -934.008; -839.985
785.866; -121.702; -345.008; -401.986
786.123; -134.299; -639.008; -583.986
786.380; -175.297; -665.008; -604.987
786.637;  -53.794; -225.007; -380.987
786.895;  -77.991; -456.007; -543.987
787.152;  -20.989; -135.007; -267.988
787.409;  -45.986; -123.007; -225.988
787.666; -104.383; -299.006; -378.988
787.923; -187.580; -616.006; -695.989
788.179; -175.678; -551.006; -584.989
788.436; -151.075; -585.006; -585.990
788.693;   19.128;  -92.006;  -87.990
788.950;  234.830; -125.005; -112.990
789.207;  214.333; -381.005; -372.991
789.464;  -74.664; -161.005; -301.991
789.720;   61.438;  150.995;  110.009
789.977; -284.059;-1003.005; -671.992
790.234;  -39.756;   44.996;  -66.992
790.490; -268.354; -884.004;-1031.993
790.747;  -10.151;  -85.004;   22.007
791.004;  -62.148; -426.004; -348.993
791.260; -118.846; -430.004; -560.994
791.517; -152.643; -843.003; -788.994
791.773;  -38.040; -379.003; -342.994
792.030; -183.638; -596.003; -660.995
792.286; -133.235; -686.003; -636.995
792.543;   20.868;  -74.002; -159.995
792.799;  -71.630; -584.002; -382.996
793.055; -295.627;-1179.002;-1210.996
793.312; -131.324; -827.002; -816.997
793.568;  -88.221; -746.002; -599.997
793.824;   49.381; -226.001; -284.997
794.081;   49.284; -447.001; -508.998
794.337;  116.587; -664.001; -561.998
794.593; 2633.489; -319.001; -271.999
794.849; 9799.092; -746.001; -772.999
795.105;  489.195; -270.000; -261.999
795.361;   54.897; -490.000; -457.000
795.617; -103.600; -875.000; -945.000
795.873;  -51.800; -360.000; -407.000
796.129;  -41.800; -368.000; -306.000
796.385;   56.400; -124.000; -156.000
796.641;  208.800;  412.000;  550.000
796.897; -106.800; -666.000; -635.000
797.153;  199.900;  453.000;  357.000
797.409; -160.800; -785.000; -868.000
797.665; -127.800; -625.000; -732.000
797.921; -125.100; -775.000; -762.000
798.176;  -84.300; -744.000; -747.000
798.432;  -64.300; -824.000; -596.000
798.688; -114.400;-1174.000;-1078.000
798.943;  181.300; -165.000; -147.000
799.199;  -19.400;-1005.000; -959.000
799.455;  456.300;  369.000;  316.000
799.710;  205.000; -813.000; -380.000
799.966;  501.100; -162.000; -160.000
800.221;  774.500; -638.000; -721.000
800.477;17823.700; -743.000; -710.000
800.732;12415.000; -773.000; -800.000
800.988; 1144.100;  205.000;  -19.000
801.243; 4672.700; -454.000; -344.000
801.498;15472.900; -814.000; -739.000
801.754;  878.300; -289.000; -163.000
802.009;  214.900; -257.000; -335.000
802.264;  -55.800; -967.000;-1033.000
802.520;   97.700;  222.000;   -3.000
802.775;  -43.300; -524.000; -359.000
803.030;  167.500;  395.000;  356.000
803.285; -189.800; -840.000; -903.000
803.540;  -66.900; -686.000; -699.000
803.795;  -85.100; -648.000; -583.000
804.051;   -5.800; -279.000; -346.000
804.306;   86.100;  168.000;  128.000
804.561;  300.100;  451.000;  362.000
804.816;  323.300;  714.000;  861.000
805.071;   61.400; -185.000; -280.000
805.325;  241.500; -257.000; -427.000
805.580; -163.400; -841.000; -877.000
805.835;   10.000; -204.000; -297.000
806.090;  -90.600; -760.000; -676.000
806.345;   31.100; -344.000; -264.000
806.600;  -52.900; -549.000; -632.000
806.854;  -29.000; -408.000; -538.000
807.109;    7.400; -493.000; -577.000
807.364;   23.200; -407.000; -328.000
807.618;   11.100; -415.000; -381.000
807.873;   56.700; -470.000; -494.000
808.128;  173.700; -257.000; -518.000
808.382;  221.400; -224.000; -332.000
808.637;  133.200; -440.000; -511.000
808.891;  304.700; -257.000; -180.000
809.146;  110.900; -902.000; -794.000
809.400;  362.400; -848.000; -923.000
809.654;  482.700; -779.000; -551.000
809.909;  755.800; -841.000; -927.000
810.163;11067.700; -813.000; -651.000
810.418;22210.700; -940.000; -861.000
810.672; 1534.000; -685.000; -690.000
810.926; 1127.000; -993.000; -973.000
811.180; 2622.200; -439.000; -372.000
811.434;55637.800;  240.000;  135.000
811.689;17719.200; -231.000; -365.000
811.943;  969.700; -936.000; -953.000
812.197;  580.600; -893.000; -671.000
812.451;  250.000; -379.000; -514.000
812.705;  -28.400; -809.000; -619.000
812.959;  -38.100; -263.000; -388.000
813.213;   65.800; -283.000; -209.000
813.467;  175.500;  470.000;  253.000
813.721; -120.200; -764.000; -792.000
813.975; -189.900; -826.000; -877.000
814.229;  159.200;  430.000;  353.000
814.482; -117.600; -517.000; -566.000
814.736; -169.400; -766.000; -744.000
814.990; -198.600; -779.000; -872.000
815.244;  -40.500; -228.000; -285.000
815.497; -132.500; -636.000; -601.000
815.751;   42.400; -141.000;   82.000
816.005; -124.200; -470.000; -586.000
816.258;  -34.900; -510.000; -363.000
816.512; -163.100; -693.000; -610.000
816.766;   70.000;  121.000;  157.000
817.019;   97.800;  148.000;  149.000
817.273; -193.500;-1000.000; -802.000
817.526;  -15.500; -206.000; -173.000
817.779; -136.500;-1049.000; -960.000
818.033; -159.200; -693.000; -807.000
818.286; -199.000; -725.000; -792.000
818.540; -176.300; -403.000; -403.000
818.793; -102.700; -402.000; -489.000
819.046; -159.100; -582.000; -520.000
819.299;   28.800; -157.000; -166.000
819.553; -178.300; -552.000; -592.000
819.806; -286.200;-1016.000; -838.000
820.059;  -77.600; -334.000; -354.000
820.312;   51.000;  152.000;  185.000
820.565;   10.000;  110.000;  -27.000
820.818;  -20.600;  -59.000; -173.000
821.071; -303.100;-1041.000; -957.000
821.324; -174.100; -536.000; -540.000
821.577; -135.700; -457.000; -483.000
821.830;  -60.900; -270.000; -172.000
822.083; -216.500; -733.000; -288.000
822.336;  -31.100; -261.000; -167.000
822.589; -216.300; -805.000; -688.000
822.842; -217.900; -875.000; -770.000
823.094; -318.700;-1076.000;-1114.000
823.347; -217.800; -925.000; -729.000
823.600;   73.300;  402.000;  187.000
823.853;  -50.800; -311.000; -267.000
824.105;  -93.800; -331.000; -575.000
824.358; -167.000; -617.000; -716.000
824.611;   96.300;  234.000;   40.000
824.863;  -81.000; -612.000; -591.000
825.116;  102.200;  -33.000;   27.000
825.368;   89.600; -366.000; -372.000
825.621;  229.000; -186.000; -240.000
825.873;  139.200; -704.000; -737.000
826.126; 1102.600; -669.000; -641.000
826.378;18747.900; -389.000; -505.000
826.630; 3367.300; -890.000; -898.000
826.883;   46.200; -754.000; -693.000
827.135;  112.300; -279.000; -270.000
827.387; -185.500; -893.000; -839.000
827.639;   18.600;  -86.000;   32.000
827.892; -170.100; -742.000; -582.000
828.144; -252.400; -848.000; -804.000
828.396;   14.900;  104.000;  -80.000
828.648; -107.000; -440.000; -333.000
828.900; -225.400; -702.000; -795.000
829.152; -175.800; -684.000; -683.000
829.404;  -70.600; -215.000; -267.000
829.656;   88.200;  321.000;  214.000
829.908;   49.200;  393.000;  229.000
830.160; -277.500;-1064.000;-1047.000
830.412; -129.500; -481.000; -430.000
830.664; -206.200; -557.000; -665.000
830.916;  -81.400; -268.000; -206.000
831.167; -277.800;-1073.000; -951.000
831.419; -159.900; -623.000; -566.000
831.671; -250.600; -764.000; -809.000
831.923; -112.000; -311.000; -447.000
832.174;  -91.100; -273.000; -331.000
832.426; -165.700; -493.000; -582.000
832.678; -324.800;-1043.000;-1091.000
832.929; -242.500; -947.000; -935.000
833.181; -133.200; -575.000; -677.000
833.432;  -44.500;  -59.000; -186.000
833.684;   20.700;  112.000;  -27.000
833.935; -162.800; -610.000; -566.000
834.187; -212.100; -829.000; -823.000
834.438;  -19.700;  -58.000;  -25.000
834.689;  -79.100; -255.000; -123.000
834.941;  -36.300; -343.000; -244.000
835.192; -164.600; -590.000; -533.000
835.443; -113.700; -419.000; -506.000
835.695;   -3.900;  138.000;  -16.000
835.946; -105.800; -608.000; -378.000
836.197; -190.200; -599.000; -622.000
836.448; -127.600; -528.000; -395.000
836.699;  -62.500; -253.000; -341.000
836.950;   69.400;   72.000;    7.000
837.201; -260.400;-1003.000; -987.000
837.452;  -11.700; -356.000; -170.000
837.703; -208.600; -791.000; -737.000
837.954;  -12.800; -205.000; -365.000
838.205; -168.400;-1029.000;-1008.000
838.456;  239.700; -196.000; -282.000
838.707;   28.300; -423.000; -519.000
838.958;  -18.800; -634.000; -647.000
839.209;  448.200;   18.000;   40.000
839.460;  181.100; -439.000; -201.000
839.710;  263.800; -135.000; -297.000
839.961;  718.500;  730.000;  612.000
840.212;  527.500; -382.000; -497.000
840.462; 2060.700; -328.000; -277.000
840.713;30148.300; -571.000; -536.000
840.964; 9338.700;  -62.000; -143.000
841.214;  698.000; -384.000; -624.000
841.465;  876.500; -214.000; -141.000
841.715;  709.900; -417.000; -380.000
841.966;  915.400; -746.000; -685.000
842.216;15158.700; -330.000; -431.000
842.466;44789.100; -169.000; -313.000
842.717; 1817.600; -964.000; -952.000
842.967;  455.100; -635.000; -641.000
843.217;  403.400;   20.000;   28.000
843.468;  144.500; -104.000; -132.000
843.718;  -75.500; -718.000; -726.000
843.968; -157.600; -837.000; -765.000
844.218;   62.300; -315.000; -262.000
844.469;  -56.700; -577.000; -561.000
844.719; -159.500; -537.000; -682.000
844.969; -116.100; -550.000; -580.000
845.219; -243.000; -814.000; -862.000
845.469;  -83.000; -392.000; -342.000
845.719; -212.600; -792.000; -884.000
845.969;   55.800;  119.000;  174.000
846.219; -174.200; -738.000; -720.000
846.469;   94.300;  464.000;  432.000
846.718;  -64.100; -115.000;   31.000
846.968; -199.500; -827.000; -827.000
847.218;  -44.400; -224.000; -371.000
847.468; -156.900; -586.000; -555.000
847.718; -228.600; -827.000; -798.000
847.967; -212.700; -826.000; -915.000
848.217; -148.800; -449.000; -569.000
848.467;  -59.500; -405.000; -376.000
848.716; -157.100; -708.000; -725.000
848.966;   23.000; -372.000; -358.000
849.215;  -72.800; -428.000; -419.000
849.465; -139.300; -785.000; -615.000
849.714; -247.800;-1132.000;-1150.000
849.964; -104.500; -551.000; -613.000
850.213;  -10.100; -393.000; -355.000
850.463;  226.100;  137.000;  340.000
850.712;    0.100; -542.000; -567.000
850.961;   73.600; -739.000; -678.000
851.211;  159.300; -513.000; -504.000
851.460;  275.700; -635.000; -650.000
851.709; 1016.000;  -25.000;   18.000
851.958;18334.400; -912.000; -750.000
852.208;17382.500; -859.000; -879.000
852.457;  661.000; -181.000;  -13.000
852.706;  113.100; -791.000; -823.000
852.955;   35.300; -507.000; -528.000
853.204;  -99.100; -521.000; -461.000
853.453; -100.400; -418.000; -458.000
853.702; -222.700; -660.000; -750.000
853.951; -144.600; -532.000; -520.000
854.200; -158.000; -613.000; -562.000
854.449; -201.900; -695.000; -661.000
854.698; -109.300; -340.000; -279.000
854.946;  -35.900; -181.000; -284.000
855.195; -232.200; -843.000; -868.000
855.444;  -79.400; -395.000; -420.000
855.693; -197.600; -345.000; -432.000
855.941; -120.600; -387.000; -516.000
856.190; -104.000; -256.000; -382.000
856.439; -172.600; -652.000; -703.000
856.687;  -53.600;  -99.000;  -72.000
856.936; -147.700; -621.000; -323.000
857.184; -301.600;-1067.000;-1020.000
857.433; -118.200; -423.000; -512.000
857.681; -267.200; -989.000; -953.000
857.930;  -76.700; -282.000; -433.000
858.178; -259.300; -856.000; -929.000
858.427; -245.100; -802.000; -781.000
858.675; -175.700; -377.000; -544.000
858.923; -147.800; -527.000; -819.000
859.172; -299.400;-1094.000;-1070.000
859.420;  -89.800; -339.000; -239.000
859.668; -199.000; -624.000; -628.000
859.916;    3.500;  109.000;  115.000
860.164; -179.100; -699.000; -603.000
860.413;  313.200; -878.000; -696.000
860.661;   86.500; -709.000; -577.000
860.909; -105.000; -339.000; -325.000
861.157;  -91.900; -277.000; -444.000
861.405; -204.900; -534.000; -670.000
861.653;   97.200;  310.000;  310.000
861.901;  209.500; -543.000; -613.000
862.149; -136.000; -801.000; -824.000
862.396;  -72.600; -297.000; -187.000
862.644;  -97.800; -368.000; -347.000
862.892;   16.500;   98.000;  138.000
863.140; -178.900; -549.000; -530.000
863.388; -229.800; -815.000; -759.000
863.635; -208.300; -642.000; -601.000
863.883;   78.600;  231.000;  190.000
864.131; -113.800; -288.000; -357.000
864.378; -167.600; -675.000; -540.000
864.626; -127.900; -347.000; -415.000
864.873; -162.400; -556.000; -505.000
865.121; -215.800; -714.000; -799.000
865.368;   -2.800; -173.000;   75.000
865.616;   11.500;  -33.000;  -40.000
865.863;  -63.900; -462.000; -506.000
866.111; -172.000; -795.000; -824.000
866.358;  150.000; -426.000; -420.000
866.605; 5557.300;  -64.000; -804.000
866.853; 4247.500; -621.000; -537.000
867.100;    9.800; -728.000; -775.000
867.347;  -92.900; -672.000; -611.000
867.594; -143.900; -740.000; -714.000
867.841;  162.100;   97.000;   17.000
868.089; -232.700; -746.000; -698.000
868.336; -117.400; -477.000; -420.000
868.583; -197.900; -637.000; -741.000
868.830;  -16.900; -131.000; -170.000
869.077; -297.000; -859.000; -787.000
869.324; -154.000; -502.000; -458.000
869.571; -194.600; -398.000; -430.000
869.818; -166.800; -485.000; -439.000
870.065; -162.300; -439.000; -513.000
870.311; -150.700; -456.000; -542.000
870.558; -129.800; -332.000; -311.000
870.805;  -81.600; -320.000; -384.000
871.052; -152.300; -494.000; -369.000
871.298;  -50.000; -204.000; -131.000
871.545;  -82.200; -151.000; -185.000
871.792;  -73.800; -173.000; -222.000
872.038;  -89.400;   43.000; -126.000
872.285; -167.000; -496.000; -387.000
872.532; -126.400; -357.000; -387.000
872.778;  130.500;  556.000;  403.000
873.025; -130.000; -384.000; -359.000
873.271;  152.600;  501.000;  578.000
873.517;  -29.600; -133.000; -209.000
873.764;   -9.800; -193.000;  -80.000
874.010;  -67.200; -143.000; -230.000
874.257;    3.700;  123.000;   90.000
874.503; -188.800; -579.000; -479.000
874.749;  -56.200;   31.000;  275.000
874.995;  -71.500;  -80.000;  -20.000
875.242; -159.500; -540.000; -478.000
875.488; -165.300; -414.000; -439.000
875.734;  -25.800; -106.000; -234.000
875.980;  188.200; -872.000;-1032.000
876.226;  396.000; -157.000; -255.000
876.472;   37.000;  343.000;  237.000
876.718;  -26.100;  184.000;  158.000
876.964;   -3.400;   56.000;   55.000
877.210; -202.600; -547.000; -677.000
877.456; -176.600; -630.000; -557.000
877.702; -286.900; -821.000; -832.000
877.948; -142.200; -377.000; -497.000
878.193;   67.400;  361.000;  255.000
878.439; -168.200; -487.000; -472.000
878.685; -108.500; -272.000; -343.000
878.931; -218.900; -618.000; -676.000
879.176;  -81.900; -201.000; -201.000
879.422; -274.800; -933.000; -820.000
879.668;  193.800;   10.000;   79.000
879.913;  213.200;   53.000;  137.000
880.159;  -34.700; -112.000;  -17.000
880.404;  -50.600; -152.000; -162.000
880.650;   -3.000;   91.000;  141.000
880.895; -274.700; -670.000; -710.000
881.141; -148.400; -454.000; -428.000
881.386; -216.100; -503.000; -658.000
881.631; -103.800; -311.000; -166.000
881.877;  -22.600;  112.000;  -13.000
882.122; -175.600; -684.000; -600.000
882.367;  -90.000; -136.000; -186.000
882.612;  -60.100;  -80.000; -176.000
882.858; -275.900; -877.000; -823.000
883.103; -127.200; -297.000; -267.000
883.348; -227.200; -759.000; -852.000
883.593; -212.100; -677.000; -602.000
883.838;  -64.300; -311.000;  -24.000
884.083;   97.800;  353.000;  288.000
884.328; -124.700; -564.000; -545.000
884.573;  -25.400; -196.000; -143.000
884.818;  256.700; -694.000; -531.000
885.063;  164.600; -348.000; -315.000
885.308; -136.100; -475.000; -398.000
885.553;   87.200;  245.000;  325.000
885.797; -202.000; -545.000; -615.000
886.042;  -24.700;    8.000;   58.000
886.287; -124.800; -253.000; -211.000
886.532;  -33.500;   26.000;  204.000
886.776; -138.100; -407.000; -525.000
887.021; -211.600; -621.000; -574.000
887.265; -256.600; -685.000; -689.000
887.510; -180.600; -557.000; -496.000
887.755;  -92.000; -194.000; -164.000
887.999; -222.800; -552.000; -575.000
888.244;  -31.100;  -58.000;  161.000
888.488;  103.700;  371.000;  393.000
888.732; -162.500; -368.000; -520.000
888.977; -193.700; -622.000; -567.000
889.221; -290.500; -683.000; -659.000
889.465; -155.300; -422.000; -566.000
889.710; -111.200;  -56.000; -299.000
889.954;   69.800;  579.000;  467.000
890.198; -233.100; -584.000; -707.000
890.442; -234.200; -716.000; -712.000
890.687; -268.700; -800.000; -753.000
890.931;  -91.000; -273.000; -210.000
891.175; -194.800; -502.000; -500.000
891.419;  -60.700; -105.000; -110.000
891.663; -122.600; -239.000; -112.000
891.907; -247.800; -801.000; -545.000
892.151; -306.000; -920.000; -815.000
892.395; -150.900; -274.000; -387.000
892.638;   29.300;  408.000;  291.000
892.882; -297.400; -780.000; -867.000
893.126;  108.800;  758.000;  558.000
893.370;  -93.100; -167.000; -168.000
893.614; -216.900; -714.000; -715.000
893.857; -124.200; -183.000; -197.000
894.101; -204.100; -527.000; -631.000
894.345;  -25.900;  300.000;  150.000
894.588;   98.000;  569.000;  380.000
894.832;  -46.900; -178.000;  -84.000
895.075;  -89.300;   15.000;  -92.000
895.319; -187.400; -552.000; -420.000
895.563; -148.600; -413.000; -353.000
895.806; -203.700; -628.000; -741.000
896.049; -115.500; -576.000; -368.000
896.293;  198.400;  527.000;  405.000
896.536; -100.800; -465.000; -468.000
896.779;  -49.900; -149.000;   -1.000
897.023; -221.000; -751.000; -714.000
897.266;   27.700;  325.000;  269.000
897.509; -306.500; -900.000; -901.000
897.752;  -25.200;  149.000;  171.000
897.996; -315.100; -972.000; -864.000
898.239;    6.300;  168.000;  102.000
898.482; -200.900; -431.000; -453.000
898.725;   -6.100;  101.000;   53.000
898.968; -227.700; -609.000; -744.000
899.211; -159.100; -513.000; -361.000
899.454; -230.000; -633.000; -539.000
899.697;  -54.100;   90.000;  -43.000
899.940; -263.800; -761.000; -757.000
900.182; -110.300; -335.000; -405.000
900.425; -108.400; -150.000; -298.000
900.668;   60.300;  491.000;  350.000
900.911; -155.100; -292.000; -345.000
901.154;    4.100;  141.000;   -3.000
901.396; -192.300; -407.000; -412.000
901.639; -191.900; -430.000; -496.000
901.882; -308.900; -790.000; -809.000
902.124;  -86.300;  -29.000; -143.000
902.367; -146.000; -315.000; -361.000
902.609; -175.400; -476.000; -453.000
902.852; -100.400; -108.000; -260.000
903.094; -164.900; -458.000; -337.000
903.337;  -29.200;  -26.000;   53.000
903.579; -137.700; -228.000; -441.000
903.821; -213.700; -597.000; -744.000
904.064;  -37.900;   85.000;  127.000
904.306;  -99.000; -126.000; -166.000
904.548; -122.900; -152.000; -366.000
904.790; -124.900; -195.000; -340.000
905.033; -195.300; -625.000; -577.000
905.275; -177.900; -513.000; -524.000
905.517;  130.600;  468.000;  256.000
905.759; -130.700; -667.000; -761.000
906.001; -143.800; -322.000; -369.000
906.243;  -85.200; -162.000; -224.000
906.485;  211.000; -265.000; -207.000
906.727;   93.200; -499.000; -542.000
906.969;  -23.900;  -30.000; -135.000
907.211;  111.600; -316.000; -382.000
907.453;  319.500; -188.000; -237.000
907.695;  -27.500; -158.000; -385.000
907.936;  181.000;  818.000;  706.000
908.178;  -47.300;   92.000; -135.000
908.420;  -58.600; -111.000; -162.000
908.662; -222.800; -633.000; -682.000
908.903;  -83.400; -208.000; -123.000
909.145;  -58.600; -240.000; -305.000
909.386;  123.800;  315.000;  280.000
909.628;  153.700;  363.000;  397.000
909.870;  103.300;   29.000;  264.000
910.111; -156.600; -809.000; -949.000
910.353;   57.600; -123.000; -161.000
910.594;   38.000; -574.000; -606.000
910.835;  197.200; -265.000; -326.000
911.077;  282.800; -503.000; -604.000
911.318;  570.600; -505.000; -471.000
911.559;  819.400; -577.000; -880.000
911.801; 2638.600; -284.000; -280.000
912.042;22845.000;  -50.000; -159.000
912.283;47931.400;  404.000;  371.000
912.524; 5688.200; -396.000; -457.000
912.765;  928.000; -193.000;   79.000
913.006;  503.800; -307.000; -338.000
913.247;  161.300; -270.000; -290.000
913.488;   56.400;  -43.000;   30.000
913.729;  -95.800; -373.000; -373.000
913.970;  -76.000;  -96.000; -292.000
914.211;  -37.000; -160.000; -198.000
914.452;  -62.000; -118.000;  -11.000
914.693;   91.900;  510.000;  592.000
914.934;   59.300;  510.000;  440.000
915.175;  -55.000;   53.000;  -95.000
915.415;  -83.800; -137.000;   27.000
915.656;  -22.600;  -28.000;  192.000
915.897; -113.500; -252.000;  -82.000
916.137;  -28.700;   74.000;   -9.000
916.378; -218.800; -573.000; -517.000
916.619;  -70.500; -159.000;  -63.000
916.859;   21.400;  303.000;  330.000
917.100;  383.300; 1655.000; 1070.000
917.340;  192.200;  930.000;  728.000
917.581;  156.900;  965.000;  789.000
917.821;  -34.000; -171.000;  143.000
918.061;    6.500; -199.000;  -72.000
918.302;  -56.000; -152.000; -211.000
918.542;   42.800;  -22.000;    3.000
918.782;  158.600;  369.000;  377.000
919.023;  323.300;  360.000;  427.000
919.263; 2574.700; 8131.000;  202.000
919.503; 1486.700; -137.000;  -54.000
919.743;  867.200;  390.000;  266.000
919.983;  315.600; -134.000;  -26.000
920.223;  187.500;  135.000;   14.000
920.463;  328.700;  631.000;  554.000
920.703;  291.700;   84.000;   39.000
920.943;  352.200; -110.000;   90.000
921.183;  469.100; -414.000; -405.000
921.423; 1005.000;  307.000;  546.000
921.663; 1364.800; -174.000; -257.000
921.903; 3063.300;  237.000;  173.000
922.143;18409.300;  372.000;  389.000
922.383;61959.600;  158.000;  115.000
922.622;16473.500; -120.000;  -15.000
922.862; 2052.600;  796.000;  785.000
923.102;  834.700;  -51.000;   33.000
923.341;  373.800;   59.000;   74.000
923.581;  235.500;  450.000;  360.000
923.821;  129.900;  301.000;  398.000
924.060;   74.100;  351.000;  193.000
924.300;  -66.400;  -16.000; -128.000
924.539;   60.100;  584.000;  473.000
924.779;  122.800;  812.000;  597.000
925.018;  -44.300;  247.000;  353.000
925.257;   90.600;  595.000;  666.000
925.497;   13.000;  447.000;  412.000
925.736;  -59.600;  -35.000;  102.000
925.975;   70.300;  687.000;  669.000
926.214;  170.600;  907.000;  850.000
926.454;  150.400;  706.000;  757.000
926.693;   37.800;  419.000;  543.000
926.932;  164.800; 1021.000;  825.000
927.171;  252.100; 1107.000; 1044.000
927.410;  203.900; 1144.000;  967.000
927.649;  156.300;  924.000;  742.000
927.888;   76.800;  590.000;  564.000
928.127;   83.200;  680.000;  678.000
928.366;   92.500;  842.000;  826.000
928.605;  154.600;  831.000;  737.000
928.844;  529.500; 1451.000; 1393.000
929.083; 1023.900;  770.000;  613.000
929.321;  605.100; 1335.000; 1359.000
929.560;  242.200; 1158.000; 1122.000
929.799;    3.200;  574.000;  475.000
930.038;  279.600; 1025.000; 1394.000
930.276;  -40.300;  334.000;  397.000
930.515;   92.600;  827.000;  681.000
930.753;   45.200;  614.000;  589.000
930.992;   27.800;  664.000;  717.000
931.230;   98.900;  847.000;  847.000
931.469;  423.900; 2162.000;  892.000
931.707;  246.600;  840.000;  751.000
931.946;  230.200; 1278.000; 1344.000
932.184;  222.400; 1437.000; 1175.000
932.423;  199.800; 1265.000;  963.000
932.661;  253.300; 1296.000; 1428.000
932.899;  119.800;  987.000;  821.000
933.137;  119.500;  754.000;  564.000
933.376;  371.000; 1664.000; 1335.000
933.614;  367.400; 1759.000; 1196.000
933.852;  198.100; 1357.000; 1171.000
934.090;  366.700; 1722.000; 1747.000
934.328;  286.900; 1252.000; 1457.000
934.566;  261.900; 1431.000; 1110.000
934.804;  398.000; 1263.000; 1309.000
935.042; 1181.900; 1861.000; 1850.000
935.280; 4634.200; 2088.000; 2063.000
935.518; 3558.500; 2113.000; 2007.000
935.756;  796.300; 2481.000; 2316.000
935.994;  416.400; 1808.000; 1751.000
936.231;  772.600; 2890.000; 2950.000
936.469;  447.900; 2367.000; 2378.000
936.707;  415.400; 2220.000; 2167.000
936.945;  536.400; 2825.000; 2882.000
937.182;  534.400; 2679.000; 2741.000
937.420;  656.700; 3602.000; 3031.000
937.657;  868.100; 3365.000; 3478.000
937.895;  738.300; 3331.000; 3488.000
938.133;  740.300; 3540.000; 3528.000
938.370;  774.500; 3896.000; 4191.000
938.607;  918.800; 4488.000; 4205.000
938.845; 1255.000; 5587.000; 5549.000
939.082; 1092.300; 5387.000; 5177.000
939.320; 1185.100; 5799.000; 5728.000
939.557; 1391.400; 6549.000; 6491.000
939.794; 1586.400; 7285.000; 7097.000
940.031; 1950.800; 8421.000; 8368.000
940.269; 2252.600; 9552.000; 9107.000
940.506; 2322.400;10901.000;10507.000

