
Integration time [ms]: 100.000
Averaging Nr. [scans]: 40
Smoothing Nr. [pixels]: 0
Data measured with spectrometer [name]: 2101013U2
Wave   ;Sample   ;Dark     ;Reference
[nm]   ;[counts] ;[counts] ;[counts] 

394.013;   55.727; -450.257; -315.536
394.305;  236.500; -461.258; -419.536
394.596; 1157.118; -676.269; -527.514
394.887; 2793.561; -796.268; -654.518
395.178; 1054.817;  145.736;   11.476
395.470;   95.353; -210.263; -356.526
395.761;  194.576;  305.734;  394.479
396.052;  389.914; -545.284; -306.489
396.343;  366.911; -557.276; -454.503
396.634;  133.529; -200.279; -290.497
396.926;  136.233; -618.268; -565.517
397.217;  122.916;   11.725;  -17.504
397.508;   47.932; -366.273; -154.507
397.799;   52.704; -555.279; -571.497
398.090;   -1.327; -973.280; -902.495
398.381;  118.937;   11.708;  -11.473
398.672;    4.463; -585.292; -742.473
398.963;   54.335; -348.279; -373.498
399.254;  104.973;   54.709; -209.475
399.545;  -25.953;-1017.266; -883.520
399.836;   64.150; -407.277; -343.501
400.127;   60.763; -205.295; -209.468
400.418;   54.027; -423.274; -392.506
400.709;   68.035; -359.281; -333.493
401.000;   58.177; -268.291; -309.476
401.290;  108.222;  225.698;  115.545
401.581;   76.072; -166.286; -228.485
401.872;   19.159; -542.298; -486.462
402.163;   63.405; -313.296; -252.467
402.454;   98.873; -123.291; -163.475
402.744;   83.121; -844.297; -813.465
403.035;  461.553; -226.293;  -86.471
403.326;  618.216; -366.292; -384.474
403.617;  389.178;  204.701;  165.539
403.907;  272.470; -593.283; -679.490
404.198; 2462.925; -545.307; -599.446
404.489; 6391.325; -618.283; -588.491
404.779; 2121.076; -618.302; -660.456
405.070;  230.404;  -67.304; -174.451
405.360;  350.030; -259.293; -238.472
405.651;  363.987;  125.699;   98.542
405.942;  200.342;  209.714;  127.516
406.232;  298.657; -432.285; -413.487
406.523;  505.848;  641.706;  758.530
406.813;  109.394; -579.286; -644.484
407.104;  372.261;  261.708;  144.527
407.394;  196.254; -604.299; -591.462
407.685;  155.656;  336.715;  222.513
407.975;   67.749; -400.283; -382.490
408.265;  125.413; -134.289; -190.478
408.556;   79.120; -472.291; -459.475
408.846;  169.174;  474.706;  429.530
409.137;   82.422;   -1.288; -216.480
409.427;   60.281; -193.285; -271.487
409.717;   37.511; -776.273; -692.508
410.007;  139.625;    4.715; -170.486
410.298;   92.190; -360.295; -342.469
410.588;   75.004; -495.285; -510.486
410.878;   35.483; -792.287; -873.482
411.168;  118.361; -481.298; -478.463
411.459;  127.768; -295.283; -242.489
411.749;   75.544; -609.292; -507.474
412.039;   68.370; -755.289; -386.480
412.329;  211.743;   40.722;  132.501
412.619;  197.594;  -62.286; -148.485
412.909;  370.966;  639.711;  594.521
413.199;  341.449; -130.280; -251.495
413.490;  399.931;  521.710;  352.523
413.780;  156.103;-1013.279; -913.496
414.070;  345.537;  -46.276;  235.497
414.360;  391.114; -729.278; -666.498
414.650;  444.804; -726.288; -688.482
414.940;  549.327; -538.280; -441.496
415.230;  948.301;   50.712;   74.519
415.520; 6221.443;  155.730;   66.486
415.809;24719.285; -305.281; -125.493
416.099;18820.827; -388.277; -229.501
416.389; 5278.224;  435.726;  236.494
416.679; 3030.857;   91.738;   85.473
416.969;  525.788; -527.287; -503.483
417.259;  488.679;  341.721;  171.503
417.549;  707.333;  522.718;  318.508
417.838; 1673.960; -205.268; -147.518
418.128; 5637.862;  650.710;  492.522
418.418; 4618.692; -491.272; -579.509
418.708; 3149.724;    9.726;  -48.506
418.997;11875.095; -474.275; -480.505
419.287;12243.357; -733.273; -790.507
419.577;11526.993; -160.283; -123.489
419.866;38501.550; -588.277; -498.501
420.156;39459.188; -242.270;  -55.513
420.446; 6932.249; -112.263;  -26.526
420.735;  894.857; -376.271; -446.512
421.025;  821.188; 1830.722;  315.502
421.314;  718.805; -203.271; -226.512
421.604; 1529.428;   89.732;  233.484
421.893;  857.801; -705.271; -602.511
422.183;  232.175; -487.263; -461.526
422.472;  386.653;  -36.271; -107.511
422.762;  461.453; -416.266; -379.521
423.051;  257.938; -916.276; -916.503
423.341;  329.208; -491.273; -439.507
423.630;  422.035; -121.265;   15.477
423.919;  393.494;   58.725;   49.495
424.209;  381.255;  -31.263;   56.473
424.498;  491.432;   68.732;  161.483
424.787; 1109.439; -535.267; -601.518
425.077; 3482.608;   34.735;   29.478
425.366; 4817.861; -734.262; -744.528
425.655;10041.684;  639.727;  259.493
425.945;21866.844; -313.247; -268.554
426.234;11881.210;  117.741;  300.467
426.523; 5210.290;  -86.259; -350.534
426.812; 7066.299;  107.734;  159.480
427.101;10500.199; -127.269; -323.515
427.390;13143.517;  -55.270;  -86.514
427.680; 2999.635; -624.257; -411.538
427.969;  499.921; -330.255; -301.540
428.258;  328.151; -385.257; -477.536
428.547;  561.371;  449.728;  397.490
428.836; 1315.788; -421.253; -398.543
429.125; 1878.542; -199.259;  -72.534
429.414;  835.386; -330.251; -294.548
429.703; 3205.936; -231.251; -213.548
429.992; 9601.790; -938.250; -828.549
430.281; 6096.342; -397.264; -331.524
430.570;  593.551;  -21.252;   32.454
430.859;  597.514;  279.741;  352.466
431.148;  448.265;  636.752;  631.446
431.437;  314.476;  391.748;  367.454
431.725;  168.628; -544.257; -481.536
432.014;  135.645; -845.253; -756.545
432.303;  393.243; -149.239; -105.569
432.592;  643.374; -460.263; -178.525
432.881; 1074.466; -601.248; -437.554
433.169; 6262.747; -343.255;  -61.540
433.458;12769.777;  445.765;  540.424
433.747; 5298.542; -397.261; -289.529
434.036;  902.343; -275.242; -280.564
434.324; 2155.128; -395.249; -379.551
434.613; 3719.961;   40.757;  159.437
434.902; 1207.832;  333.760;  439.433
435.190;  593.716;   75.761;  295.431
435.479;  340.867;  -52.245;   83.441
435.767;  114.651; -411.244; -427.561
436.056;  218.013; -340.242; -294.563
436.345;  378.835; -372.240; -223.568
436.633;  377.048;   60.750;  383.450
436.922;  283.537;  208.760;  414.432
437.210;  602.142; -194.236;    1.426
437.499; 2008.025; -583.235; -432.576
437.787; 2168.117; -339.236;  -10.574
438.075;  550.372;   56.761;  162.430
438.364;  806.300;  -44.238;  250.429
438.652;  465.633; -286.226; -138.592
438.941;  146.346;    3.770;  269.415
439.229;   15.923; -665.252; -466.545
439.517;   40.559; -160.234;  -85.577
439.806;  -10.901; -501.225; -290.595
440.094;  193.017;  377.766;  650.421
440.382;  217.096; -653.233; -302.580
440.670;  231.175; -361.235; -285.576
440.959;   46.217; -347.223; -170.599
441.247;   69.582; -151.229; -109.587
441.535;  114.957; -266.235;   31.423
441.823;   30.839; -497.234; -305.578
442.111;  185.412;  173.771;  327.412
442.400;  545.792; -628.245; -335.559
442.688; 1440.442; -111.234; -620.579
442.976; 1054.657; -786.213; -450.617
443.264;  112.506; -324.224; -364.597
443.552;  101.109; -258.226;   51.408
443.840;  160.156;  602.765;  876.423
444.128;  116.620;  265.767;  269.420
444.416;    3.964; -694.228; -312.588
444.704;   25.997; -465.219;  -92.605
444.992;   78.412;   -0.226;  240.407
445.280;   63.196; -517.230;  -94.585
445.568;   52.361; -694.212; -396.618
445.856;  369.981; -174.221;  357.398
446.143;  789.443;  -54.220;   -7.604
446.431;  649.843;  -25.228;  625.411
446.719;  266.192;  489.783;  675.391
447.007;  184.415;  481.769;  705.416
447.295;  175.364;  597.777;  871.402
447.583;  101.055; -464.229;  -34.587
447.870;  167.003; -434.221; -202.601
448.158;  426.070; -104.230;  129.415
448.446;  329.769; -800.219; -338.604
448.733;  169.782;   13.776;  269.403
449.021;  249.260;   60.788;  341.382
449.309;  173.426; -296.210;  208.379
449.596;  212.538;  128.783;   59.392
449.884;  162.021; -571.222; -325.600
450.172;  146.124; -756.227; -406.590
450.459;  447.790;  645.786;  780.387
450.747; 2382.287; -411.218; -147.608
451.034; 7781.269;  493.772;  889.411
451.322; 6244.068; -413.214; -170.614
451.609;  535.809;  292.777;  508.403
451.897;  582.691; -550.203; -183.634
452.184; 1852.839; -622.223; -400.598
452.472; 1716.748;   97.792;  269.375
452.759;  347.420;  512.781;  864.395
453.047;  128.483; -407.212; -125.617
453.334;   85.478; -732.219; -216.606
453.621;   90.120; -438.214; -161.615
453.909;  129.007;   13.796;  384.368
454.196;  117.179; -299.199; -123.641
454.483;  226.329;  317.798;  540.364
454.771;  116.876; -215.208;  196.374
455.058;   49.754; -316.207;  102.374
455.345;   98.711;   71.807;  344.347
455.632;   92.333; -128.207;  235.373
455.919;   56.152;  -82.196;  182.354
456.207;  -45.316; -774.198; -450.642
456.494;   -7.634; -475.200;  -66.639
456.781;    7.874; -399.202; -198.635
457.068;   52.589; -253.206;  -29.628
457.355;   -9.635; -698.206; -401.629
457.642;   -9.754; -552.205; -290.630
457.929;    1.301; -778.194; -417.651
458.216;   56.808; -575.212; -354.617
458.503;  238.481; -173.193;  -19.652
458.790;  224.699; -864.208; -630.625
459.077;  268.229;  -77.202;  110.364
459.364;  813.769; -350.195; -210.649
459.651; 1720.787;  -46.206;  220.372
459.938;  776.039; -864.209; -665.623
460.225;  162.208;  132.799;  276.363
460.512;  -41.426; -836.197; -688.645
460.799;  117.560;  -32.218;  320.392
461.086;   64.521; -370.200; -251.640
461.372;   45.834; -509.198; -279.642
461.659;  116.903; -165.196;  108.354
461.946;   72.780; -445.193;  -54.651
462.233;  255.319;  842.800;  888.361
462.519;  357.390; -814.201; -464.639
462.806; 1036.525; -768.197; -497.645
463.093;  895.726; -445.191;  -66.656
463.380;  -10.831; -920.186; -824.664
463.666;   59.202; -259.197;  -18.646
463.953;   96.214; -406.195; -243.648
464.239;  208.664; -173.195;  -77.648
464.526;  380.725;  413.806;  743.350
464.813;  358.738; -565.190; -304.658
465.099;  349.506;  606.807;  607.348
465.386;  323.860;  903.807;  921.348
465.672;   15.650; -694.197; -522.645
465.959;   30.356; -598.188; -520.662
466.245;   21.860; -468.193; -359.652
466.532;  105.862; -109.195;   63.352
466.818;   74.593; -357.186; -216.664
467.104;   -1.315; -488.182; -415.672
467.391;  -14.585; -628.189; -459.658
467.677;   32.922; -289.186;    9.335
467.964;    4.472; -682.189; -471.660
468.250;   76.800; -331.186; -160.665
468.536;   91.516;   90.811;  180.341
468.822;  -39.913; -821.184; -574.668
469.109;  144.143;  351.827;  471.311
469.395;  208.320;  729.808;  787.346
469.681;  181.969;   46.811;  156.341
469.967; 1269.599; -699.188; -382.660
470.254; 2767.707; -494.188; -306.662
470.540; 1742.827; -601.196; -476.646
470.826;  252.046; -488.181; -397.675
471.112;  282.691;  288.816;  113.331
471.398;   80.295; -253.183;  -58.670
471.684;   55.450; -626.177; -447.680
471.970;    2.675; -918.180; -981.675
472.256;   15.294; -521.192; -441.654
472.542;    0.629; -499.171; -434.691
472.828;   14.330; -743.182; -607.672
473.114;   29.499; -380.166; -283.700
473.400;   12.667; -504.175; -293.684
473.686;   26.480; -452.166; -400.701
473.972;   43.632; -230.174; -131.687
474.258;  -32.082; -925.173; -843.689
474.544;  193.667; -183.178;   -2.679
474.830;  310.769;  -65.175;   45.316
475.116;  475.990; -123.190; -196.658
475.401;  678.277; -558.180; -467.676
475.687;  201.576; -725.180; -718.676
475.973;    9.014; -673.181; -770.673
476.259;  240.996;  736.825;  764.315
476.544;  358.033; -539.176; -437.682
476.830;  823.050; -398.172; -322.690
477.116;  697.757; -430.177; -336.682
477.401;  131.552;  346.820;  358.324
477.687;  -12.658; -289.175; -405.684
477.973;   48.267;   21.819;   28.326
478.258;  -14.299; -448.163; -348.706
478.544;   47.380;   21.815;   61.334
478.829;  -49.490; -818.171; -738.692
479.115;  -29.151; -749.172; -651.690
479.401;   -9.773; -444.174; -449.686
479.686;   37.476; -253.180;  -74.676
479.972;  -28.278; -886.178; -776.680
480.257;   37.325; -258.166;  -65.700
480.542;   -6.336; -614.170; -469.693
480.828;  229.040; 1288.824; 1392.317
481.113;  -28.812; -464.176; -426.683
481.399;   -0.899; -236.161; -202.711
481.684;  -52.050; -620.166; -462.700
481.969;   24.839; -158.159;  -73.713
482.255;    0.700; -439.169; -285.695
482.540;    9.497; -569.178; -441.680
482.825;    4.413; -395.187; -404.663
483.110;   87.553;  -85.169; -105.696
483.396;  194.137; -840.157; -652.718
483.681;  486.507;  543.826;  730.313
483.966;  156.608; -696.160; -700.712
484.251;   10.556; -404.174; -310.687
484.536;    4.386; -356.165; -378.703
484.822;   15.034; -205.173; -218.687
485.107;  -37.049; -599.152; -502.726
485.392;  116.666;  662.836;  541.296
485.677;   69.313;  354.832;  163.302
485.962;  101.809;  160.843;  270.283
486.247;   87.484;  -14.162;   -8.707
486.532;   55.501; -178.166; -325.701
486.817;  152.970;  381.839;  431.291
487.102;  122.883; -453.154; -514.722
487.387;  662.764; -637.156; -652.718
487.672; 1175.997; -154.164;  -38.705
487.957;  738.202; -394.160; -286.711
488.241;  189.918; -290.150; -314.729
488.526;  706.777; -280.152; -148.726
488.811; 1195.024; -881.177; -818.680
489.096;  890.211; -666.154; -702.723
489.381;  498.548;    3.847;  162.275
489.666;  379.675; -428.161; -510.710
489.950;  174.714;  558.846;  627.277
490.235;  -29.862; -480.151; -458.728
490.520;  -41.201; -756.161; -723.710
490.804;  -68.884; -827.156; -736.719
491.089;    4.534; -469.149; -299.732
491.374;   34.345; -132.164;  -75.704
491.658;   -4.579; -817.147; -717.735
491.943;  171.432; -657.152; -609.727
492.227;  288.479; -178.155;  -38.721
492.512;   54.609; -294.157; -341.717
492.797;  -67.447; -713.149; -716.731
493.081;  -48.851; -588.147; -598.735
493.366;  -42.599; -751.161; -635.711
493.650;  199.778;  831.859;  917.254
493.935;   38.695; -648.147; -447.734
494.219;  -51.635; -778.142; -687.743
494.503;  -33.527; -585.150; -487.730
494.788;   40.875;   46.842;   74.285
495.072;  113.394;  184.850;  434.271
495.356;  166.513; -463.148; -343.733
495.641;  495.031; -812.146; -736.736
495.925;  452.871; -976.156; -903.719
496.209;   43.584; -599.149; -451.732
496.494;  -40.884; -763.142; -544.744
496.778;   -2.192; -364.154; -360.722
497.062;  -54.905; -819.156; -627.719
497.346;  -27.696; -869.160; -640.711
497.631;  140.516;  580.852;  560.266
497.915;   81.991;  -64.145;  175.261
498.199;   43.687; -341.157; -277.718
498.483;   51.551; -562.152; -508.725
498.767;  173.096;  301.850;  300.271
499.051;  193.231; -126.149; -100.732
499.335;   31.779; -693.149; -739.731
499.619;  -27.668; -381.129; -423.767
499.903;   22.828; -272.155;  -65.721
500.187;   26.791; -588.153; -316.724
500.471;   17.506; -796.152; -595.727
500.755;  111.500;   62.839;  -96.710
501.039;   29.053; -270.155; -357.721
501.323;   91.205;  -21.141;  264.254
501.607;   60.277; -447.163; -503.706
501.891;    7.663; -607.156; -512.718
502.174;  -32.047; -726.144; -585.741
502.458;   65.035;   89.849;  370.273
502.742;   44.780; -180.138; -191.751
503.026;  111.570; -412.147; -254.734
503.310;  157.663; -437.159; -375.713
503.593;  127.797; -464.147; -325.735
503.877;  112.071; -232.133; -156.760
504.161;  191.143;    2.847;  -50.724
504.444;  137.852; -841.158; -710.716
504.728;  462.519; -487.164; -522.704
505.012;  715.017; -257.150;  -76.729
505.295;  539.601; -417.161; -212.711
505.579;  529.970; -256.156; -496.719
505.862;  746.363; -555.145; -333.738
506.146;  728.191; -681.159; -758.714
506.429;  392.491;  568.841;  461.286
506.713;   75.539; -732.151; -667.728
506.996;  319.758;   90.846;  295.278
507.280;  329.864; -633.165; -474.703
507.563;  243.626; -469.155; -261.721
507.847;   98.592; -423.153; -112.724
508.130;   78.051; -665.161; -456.711
508.413;  100.596; -758.167; -577.700
508.697;  236.771; -151.167;   12.300
508.980;  144.743; -422.153; -312.724
509.263;    2.422; -466.155; -450.720
509.547;   33.217; -124.150;   82.271
509.830;   50.279; -172.160;  140.289
510.113;   88.695;  128.844;  298.281
510.396;   39.874; -530.152; -300.725
510.680;  170.064; -818.145; -812.738
510.963;  643.263;  184.846;  180.277
511.246;  549.325; -493.150; -357.730
511.529;  281.844; -482.145;  -83.739
511.812;  391.143; -250.134;   10.241
512.095;  268.011; -740.151; -396.728
512.378;   77.326; -317.147; -245.736
512.661;   18.588; -703.137; -623.753
512.944;   30.717; -750.142; -637.744
513.227;   60.460; -170.137; -171.752
513.510;   33.103; -479.144; -671.741
513.793;   36.235; -485.140; -435.747
514.076;  128.204;  -43.127;  -39.771
514.359;  103.784; -294.149; -135.732
514.642;  101.270; -442.142; -567.744
514.925;  745.458;  581.860;  561.253
515.208; 1003.339; -498.134; -443.758
515.491;  661.953; -276.133; -182.761
515.773;  381.182; -410.143; -337.742
516.056; 2087.544;  249.864;  409.246
516.339; 2847.623; -754.136; -652.755
516.622; 1922.648; -518.150; -488.730
516.904; 1300.689;  882.857;  975.257
517.187;  609.383; -730.138; -523.752
517.470;  409.013; -568.143; -510.743
517.752;  447.126; -624.136; -470.756
518.035;  349.471; -708.139; -725.749
518.318;  373.748; -799.136; -744.755
518.600; 2425.282; -300.132; -325.762
518.883; 3362.520;  310.858;   88.256
519.165; 1589.951; -585.138; -426.751
519.448;  409.231;  -61.132;  -19.762
519.730;  209.412; -573.126; -415.773
520.013;  306.324;  588.867;  664.240
520.295;  886.669;  -94.134;  -15.759
520.578; 1981.920; -335.131; -305.764
520.860; 2236.182; -254.132;   56.238
521.143; 1165.928; -763.135; -584.756
521.425;  471.875; -251.125; -279.775
521.707;  674.529; -622.127; -380.771
521.990; 1783.230; -199.127;  167.229
522.272; 2033.886; -116.140;   -4.748
522.554;  924.432; -237.143; -157.742
522.836;  378.542;  -24.134;   99.241
523.119;  235.594; -496.148; -189.734
523.401;  158.427; -448.130; -314.766
523.683;   88.238; -865.137; -693.753
523.965;  278.956;  408.862;  260.248
524.247;  264.672;   54.878;  170.220
524.529;  192.494; -451.134; -367.759
524.812;  346.579;   -3.130;  191.234
525.094;  863.106; -773.138; -631.751
525.376; 1343.584; -143.124;   78.223
525.658;  822.295; -441.136; -339.754
525.940;   18.041; -805.131; -671.764
526.222;   63.074; -188.136;  -88.755
526.504;  131.189; -190.131;   32.237
526.786;  198.272; -960.133; -647.760
527.068;  336.065; -124.123;  -67.778
527.349;  146.867; -865.137; -774.754
527.631;  126.681; -137.132;   22.238
527.913;  138.078; -664.127; -450.771
528.195;  161.518; -761.125; -639.774
528.477;  256.114;  -93.134;  -30.758
528.759;  129.104; -648.130; -522.766
529.040;   59.838; -569.123; -293.778
529.322;   45.970; -235.125;  -10.774
529.604;  159.931;  -47.130;   93.233
529.886;  136.461; -546.126; -302.773
530.167;  143.872;  232.870;  192.235
530.449;   44.375;    1.853;   63.265
530.731;   17.896; -572.122; -459.779
531.012;   70.842; -513.120; -216.784
531.294;   67.707; -118.116;  -43.792
531.575;  158.550;  290.875;  538.225
531.857;   46.684; -548.135; -266.757
532.138;  102.979; -113.141;   40.254
532.420;  171.305;  294.865;  403.244
532.701;  237.174; -722.133; -751.760
532.983;  374.077;  232.867;  182.239
533.264;  120.009; -243.126;  175.228
533.546;  -25.926; -491.136; -508.755
533.827;   42.771;  173.867;   -1.759
534.109;   48.209; -352.135;  -80.757
534.390;  100.935; -725.132; -582.762
534.671;  247.555; -270.135;  -82.756
534.953;  127.366; -751.123; -611.779
535.234;   23.867; -426.117; -255.789
535.515;  -75.274; -891.119; -735.785
535.796;   -7.951; -431.128; -193.770
536.078; -117.691;-1050.124; -904.777
536.359;    4.717;  -22.123;    3.221
536.640;   -7.906; -480.125; -197.774
536.921;  151.261;  225.871;  143.232
537.202;  373.152;  -87.138;  -16.751
537.483;  459.694;  251.869;  377.236
537.764;  161.923;   17.870;   98.235
538.045;  -39.612; -543.134; -371.758
538.326;  -17.337; -596.129; -447.768
538.607;   22.280; -686.127; -476.771
538.888;  168.708;   98.879;    5.218
539.169;  182.602; -704.122; -535.781
539.450;  329.135;  236.871;   16.233
539.731;  223.562; -361.121; -182.783
540.012;  125.092;  199.880;  412.216
540.293;   89.278;   82.876;  158.224
540.574;   12.528; -895.113; -717.796
540.855;  451.535;  435.879;  377.218
541.136;  543.925;   47.878;  139.220
541.416;  274.404; -161.130; -220.766
541.697;  172.665; -274.131; -170.763
541.978; 1051.832; -270.135; -315.757
542.259; 1307.180; -211.127; -236.771
542.539;  625.851; -191.116; -186.790
542.820;  196.274;  461.875;  480.225
543.101;  138.366;  -52.145;  -77.738
543.381;   31.855; -638.127; -591.771
543.662;  264.227;  159.873; -254.771
543.942;  574.350; -751.127; -830.770
544.223; 1026.426;  193.878;  161.219
544.504;  689.408; -275.124; -182.777
544.784;  578.061; -592.126; -408.773
545.065; 1666.730;  104.884; -254.791
545.345; 1988.226;  227.881;   14.215
545.626; 1264.428;  -14.113; -108.796
545.906;  877.347;   77.869;   98.235
546.186;  351.166;   92.874;  -95.773
546.467;  206.961;   99.877;  -95.778
546.747;  312.326;  264.884;  327.210
547.027;  364.007;   91.876;  111.223
547.308;  342.650; -376.127; -530.770
547.588;  395.139;  299.871;  371.232
547.868;  194.123;  458.870;  588.235
548.149;  193.912;  609.885;  593.207
548.429;  127.928; -347.127; -299.771
548.709;  197.242; -645.120; -461.784
548.989;  471.961;   84.882;   88.213
549.269; 2061.130;   10.868;  139.239
549.550; 4846.415;  215.877;  117.222
549.830; 4323.696; -758.111; -556.799
550.110;  831.954; -468.110; -320.801
550.390;  815.446; -128.122;  -56.779
550.670; 1158.548; -868.114; -783.795
550.950;  801.135; -509.121; -471.782
551.230;  182.581;  549.879;  460.218
551.510;    3.009; -381.121; -326.782
551.790;   35.037; -173.109; -127.803
552.070;  245.211;  940.877; 1181.223
552.350;  404.905; -492.119; -377.786
552.630;  567.504;   -2.121;   77.219
552.909;  349.130;  181.884;   73.209
553.189;  234.662;  -49.132;   33.237
553.469;  185.779; -703.119; -514.786
553.749;  192.606; -469.127; -357.772
554.029;  157.596;   33.883;  -24.790
554.308;  151.192; -154.115;  -37.794
554.588;   69.848; -196.128; -204.770
554.868;   73.611; -366.121;  -47.782
555.147;  139.014; -114.115;  -46.793
555.427;  567.483; -260.116; -250.792
555.707; 3858.787; -284.115; -200.793
555.986; 4741.299; -719.111; -538.800
556.266; 2439.649;   23.884;   72.210
556.546;  113.909; -888.121; -675.782
556.825;  259.071; -657.114; -556.794
557.105; 1762.346; -125.128;   17.230
557.384; 2081.554;  122.884;  187.209
557.664;  802.307; -717.116; -508.792
557.943;   98.335; -557.121; -411.782
558.222;  178.264; -345.118; -344.788
558.502;  272.665; -116.115;  -76.793
558.781;  504.511;  194.885;  499.208
559.061;  412.113; -232.118; -227.788
559.340;  288.794;  302.883;  353.211
559.619;  706.674;   93.884;  148.210
559.899; 1020.545; -239.117; -266.789
560.178;  915.540; -778.115; -593.793
560.457; 3116.747; -623.117; -562.790
560.736; 4450.126; -472.111; -482.800
561.015; 2920.219; -500.128; -502.769
561.295;  360.632;  180.893;  215.193
561.574;  347.212;  119.885;  116.207
561.853;  496.166;  274.891;  303.197
562.132;  482.942;  -45.114;  182.206
562.411;  408.104;  396.879;  553.219
562.690;  153.460; -592.115; -458.792
562.969;  135.160;  472.888;  630.203
563.248;  456.677; 2966.878; 2487.219
563.527;  268.575; -290.111; -408.800
563.806;  386.328; -650.127; -521.771
564.085;  391.198; -297.105; -206.810
564.364;  228.799; -594.117; -405.790
564.643;  494.030; -276.121; -223.781
564.922; 1885.060;  221.890;  397.198
565.201; 1898.739; -640.109; -700.803
565.479;  815.384; -297.115; -219.792
565.758;  343.796; -810.128; -712.770
566.037;  475.515; -155.109; -100.803
566.316;  235.804; -286.116;  -28.791
566.595;   52.212;  -17.115;  -12.793
566.873;   90.102; -166.111;  -79.801
567.152;  -51.991; -490.113; -590.797
567.431;   12.175; -113.116;    6.210
567.709;    7.182; -344.107; -212.807
567.988;  252.271; -810.114; -769.794
568.266;  534.662; -160.115;  -68.793
568.545;  381.471; -644.100; -514.819
568.824;  562.083;  160.885;  356.208
569.102;  533.545; -351.114; -235.794
569.381;  212.457; -492.116; -407.792
569.659;  -46.319; -553.113; -553.796
569.938;   43.875; -743.122; -465.780
570.216;  100.168; -225.109; -225.804
570.494;  -38.076; -632.114; -572.795
570.773;   23.884;  202.879;  114.218
571.051;   12.964; -373.123; -357.778
571.330;   70.278; -221.113; -174.796
571.608;   42.939; -181.098; -173.823
571.886;  -66.481; -671.111; -581.799
572.164;  -70.439; -739.121; -621.782
572.443;  -40.348; -562.105; -512.811
572.721;  -27.578; -399.117; -289.790
572.999;  -29.734; -280.117; -168.788
573.277;   96.245;  379.894;  620.191
573.555;  259.297;   94.894;   37.190
573.834; 1339.565;  -86.117; -114.788
574.112; 1575.435;  880.893;  811.193
574.390;  443.451; -143.111;  -96.801
574.668;    2.836;  -91.112;  -61.797
574.946;  -15.903; -165.106; -187.810
575.224;    4.464;   71.891;  -16.803
575.502;  -24.348; -200.116; -204.791
575.780;  -84.013; -767.112; -829.798
576.058;  228.325; 1589.889; 1004.200
576.336;  -21.669; -210.110; -129.801
576.614;  -51.138; -511.112; -340.798
576.891;   52.891; -711.115; -823.794
577.169;  479.226; -158.108; -285.805
577.447;  555.209;  169.893;  202.193
577.725;  266.866;  629.888;  854.201
578.003;   10.064;  -71.112; -371.798
578.280;   85.586; -208.104; -242.812
578.558;   54.165; -450.115; -422.793
578.836;  124.399; -210.114; -145.795
579.114;   54.335; -630.112; -670.797
579.391;   71.167;   -6.117;  -18.789
579.669;  -74.483; -595.114; -704.794
579.947;  169.806; -326.107; -127.806
580.224;  327.956; -692.107; -524.806
580.502;  309.960;  127.893;   76.193
580.779;   25.098;  -42.117;   75.210
581.057;  -69.407; -584.109; -470.804
581.334; -100.499; -726.102; -695.815
581.612;   22.873;   54.895;  511.190
581.889;  -41.185;  -83.101; -129.818
582.167;  -34.896; -298.099; -190.821
582.444; -104.416; -845.102; -814.817
582.721;  107.685;  657.899;  715.183
582.999;   40.577; -326.100; -167.821
583.276;  528.693; -812.123; -713.779
583.553;  702.804; -364.102; -294.816
583.831;  236.982; -607.104; -631.812
584.108;   51.374;  349.892;  174.195
584.385;    9.150; -122.102;  -98.815
584.662;  -73.547; -651.111; -828.801
584.940;   25.727;  204.889;  204.199
585.217;  -23.470;  -73.113; -303.796
585.494;   32.511;   71.890;  118.198
585.771;  222.119; -250.109; -354.804
586.048;  512.730; -196.113;  -76.796
586.325;  316.130; -721.110; -773.801
586.602;   95.761;  230.896;  213.188
586.879;  -19.002; -499.100; -580.820
587.156;   46.924; -156.105; -331.810
587.433;  -36.543; -701.102; -667.817
587.710;   66.088;  152.888;  234.202
587.987;  292.629; -264.105; -236.811
588.264;  798.139;  315.888;  387.202
588.541; 1338.664;  -61.104;   26.187
588.818; 2722.921;   72.892;  171.196
589.095; 2306.809; -163.104; -174.812
589.371;  368.792; -459.109; -414.804
589.648;   31.585; -581.107; -437.807
589.925;   31.650; -517.114; -621.795
590.202;   11.462; -741.112; -607.798
590.478;   87.631; -166.105;  -73.811
590.755;  248.327; -241.108; -132.806
591.032; 2453.957; -741.110; -699.802
591.308; 3413.356; -732.094; -790.831
591.585; 1730.982; -573.110; -560.802
591.862;  152.334;-1056.102; -950.817
592.138;   69.400; -475.108; -474.805
592.415;  138.512; -486.104; -495.813
592.691; 1447.935;  460.896;  518.188
592.968; 1898.591; -208.098; -123.824
593.244;  889.275; -695.116; -595.790
593.521;   65.634; -105.102;  -42.817
593.797;  -13.278; -810.122; -720.780
594.074;  332.854; -611.096; -588.826
594.350;  668.091;  828.905;  729.172
594.626;  290.628; -303.111; -283.801
594.903;  114.934; -643.101; -645.817
595.179;  188.341;  243.896;  418.187
595.455;    8.736; -136.107; -150.807
595.731;   -5.258;  -19.103;  -38.814
596.008;  -37.953; -464.111; -434.800
596.284;   17.725; -187.100; -242.820
596.560;   46.062; -501.093; -493.833
596.836;  191.051; -173.105;  -70.810
597.112;  351.275; -582.108; -437.805
597.388;  285.977;  -49.097;  -48.826
597.665;  110.983;  437.887;  530.203
597.941;  -57.983; -572.089; -658.839
598.217;    2.860; -323.110; -293.802
598.493;  249.820;   61.891; -204.804
598.769;  516.744; -175.100;  -50.819
599.045;  280.303; -490.108; -562.806
599.321;   45.149; -193.100; -261.820
599.597;  129.320; -355.109; -476.804
599.872;  442.889;  409.896;  429.187
600.148;  348.704;  -61.097; -172.826
600.424;  301.608;   91.893;  202.193
600.700;  217.061; -170.107; -280.807
600.976;  116.173; -442.097; -464.825
601.252;  231.416; -226.109; -272.803
601.527;  204.065; -833.104; -840.813
601.803;  160.307; -453.105; -404.812
602.079;  175.894; -124.100; -118.819
602.354;  553.422; -620.092; -531.835
602.630;  814.780; -140.113; -482.796
602.906; 2235.815; -910.101; -863.818
603.181; 6714.230; -627.119; -534.786
603.457; 5677.901;   98.903; -278.826
603.733;  813.138; -605.120; -626.783
604.008;  923.998; -245.106; -164.810
604.284; 3043.561; -636.101; -580.817
604.559; 2630.466;   -3.112;  -42.799
604.835;  463.651; -163.105; -225.810
605.110;  411.055; -732.099; -892.821
605.385;  695.690;  224.907;  267.167
605.661;  614.318; -625.095; -729.829
605.936; 1187.754; -664.108; -737.806
606.211;  970.024;  -17.103; -170.815
606.487;  200.219; -329.114; -376.794
606.762;   12.455; -791.119; -745.786
607.037;  -27.949; -501.105; -433.810
607.313;  -44.263; -589.096; -574.828
607.588;    0.897; -375.106; -137.810
607.863;   34.064;  -28.101; -143.818
608.138;  178.484;  513.890;  516.198
608.413;   38.184; -576.099; -592.822
608.688;   45.350; -203.108; -267.805
608.964;  183.741; -509.106; -218.809
609.239;  231.823; -107.105; -212.810
609.514;  236.956;  281.895;  240.188
609.789;  627.786; -187.104; -716.812
610.064;  874.410; -435.096; -609.827
610.339;  860.892; -855.109; -799.804
610.614; 1180.425; -131.100; -315.820
610.889;  653.432;  215.895;  107.188
611.163;   32.957; -407.104; -591.812
611.438;   76.045;   81.886; -167.794
611.713;    5.536; -467.101; -499.817
611.988;   59.638; -144.101; -328.818
612.263;  -12.474; -771.102; -717.815
612.538;  205.030;  385.887;  251.204
612.812;  185.926; -832.100; -911.820
613.087;  143.689; -358.098; -338.823
613.362;  -61.739; -497.107; -557.807
613.637;   49.970;  261.897;  138.186
613.911;  -19.427; -256.092; -345.835
614.186;  110.684; -249.107; -292.807
614.460;  665.219; -842.081; -758.854
614.735;  772.891;  -55.087;  -17.843
615.010;  149.456;   43.912;  -82.841
615.284;  242.799;  360.892;  246.195
615.559;  377.422; -792.092; -955.835
615.833;  276.757;  -76.099;  -87.822
616.108;   -0.241; -225.090; -390.837
616.382;  141.218;  274.913;  402.156
616.656;  149.459; -241.090; -232.837
616.931;  511.782; -785.099; -700.822
617.205; 1046.315; -973.104; -979.813
617.480;  954.648;  -91.125;    6.225
617.754;  151.220; -396.125; -128.774
618.028;    7.515; -369.129; -382.768
618.302;   54.523;   73.892;  -25.805
618.577;  -52.303; -371.103; -518.815
618.851;  -59.337; -399.109; -600.803
619.125;  -57.956; -335.134; -378.759
619.399;  -38.285; -244.104; -374.813
619.673;  -41.442; -330.115; -515.792
619.947;  -37.027; -333.114; -448.795
620.222;  -27.896; -198.110; -204.801
620.496;   -5.415;  -47.121;  -96.782
620.770;   13.302; -187.122;  -93.781
621.044;  200.324;  323.895;  346.190
621.318;  716.913; -653.120; -614.783
621.592;  639.311; -430.121; -409.783
621.866;  355.417; -476.112; -572.799
622.140;   18.777; -207.116; -356.791
622.413;   52.422;  138.889;  112.200
622.687;  -32.114; -746.101; -492.817
622.961;   13.498; -130.108; -143.805
623.235;  -64.777; -633.111; -661.800
623.509; -106.069; -816.105; -848.811
623.783;   -8.168;  -12.107;   48.193
624.056;  -22.686; -254.120; -280.783
624.330;   46.236;   63.888;   -3.797
624.604;   44.449; -271.116; -355.790
624.877;   60.208;  180.890;   26.198
625.151;   44.843; -249.114; -238.794
625.425;  -38.233; -150.103; -283.814
625.698;  -54.651; -367.119; -374.785
625.972;  -92.864; -799.110; -765.802
626.245;   89.626;  685.884;  484.210
626.519;  -56.331; -426.120; -340.784
626.792;  -53.539; -192.107; -380.807
627.066;  -86.955; -485.122; -662.779
627.339; -105.744; -736.110; -663.802
627.613;   28.642;  351.880;  148.216
627.886;   55.087;  187.891; -612.803
628.160;  -20.337;  312.880; -161.783
628.433;  -95.175; -695.125; -703.775
628.706;  -75.531; -517.120; -615.784
628.979;   13.907;  296.876;  117.223
629.253;  -88.646; -785.119; -833.786
629.526;  358.859; -334.126; -253.772
629.799;  329.989; -641.123; -479.778
630.072;  158.191; -497.128; -516.769
630.346;  -61.349;-1115.116;-1080.790
630.619;  432.012; -467.107; -545.808
630.892;  613.223;  709.889;  593.200
631.165;  326.415;  790.896;  679.187
631.438;  -71.786;-1092.112;-1055.798
631.711;   48.893;  453.877;  257.221
631.984;  -74.229; -523.117; -624.789
632.257;  -82.058; -636.117; -681.789
632.530;  -30.026; -412.119; -433.785
632.803;   20.941; -109.115;    7.207
633.076;  -72.514; -360.123; -422.777
633.349;   -1.830;  173.872;  121.231
633.622;  -41.202; -187.119; -240.785
633.895; -123.086; -903.120; -823.783
634.167;  -64.263; -496.126; -525.773
634.440;   -6.593;  -19.116; -137.792
634.713;  -12.572;  -22.119; -120.786
634.986;   77.185;  593.871;  453.233
635.258;  -77.286; -507.115; -597.793
635.531;   89.763;  742.882; -343.788
635.804;  -36.306; -303.117; -318.789
636.077;  -89.247; -830.116; -852.791
636.349;  -20.763; -586.115; -474.793
636.622;  364.059; 1695.874; 1392.228
636.894;  251.119; -474.120; -909.784
637.167;  141.928; -836.127; -789.771
637.439;   39.624; -278.128; -213.770
637.712;  -52.240; -312.126; -293.772
637.984;  -88.146; -635.116; -707.791
638.257;  364.736;  515.877;  488.222
638.529;  568.401; -881.125; -924.776
638.802;  236.616; -508.128; -449.769
639.074; -120.574; -927.122; -952.781
639.346; -130.564; -942.135; -930.757
639.619;  -13.856;  -79.142; -319.744
639.891;    1.370;  -83.122; -168.779
640.163;  -78.878; -689.122; -756.780
640.435;   24.148;  273.878;  103.220
640.708;   -9.725;  -72.122; -132.780
640.980;  -38.298; -366.122; -362.781
641.252;  178.329;  -25.121;  -71.781
641.524; 1797.956;  580.879;  573.219
641.796; 1840.833;-1094.121; -907.782
642.068;  320.585; -191.121; -300.782
642.340;  -58.313; -486.121; -566.783
642.613;   35.938;  294.880;  323.217
642.885;  -97.210; -787.120; -878.783
643.157;  -57.058; -810.120; -658.784
643.428;   64.819;  170.880;  218.216
643.700;  -60.204; -498.120; -425.784
643.972;  -32.627;  -16.119; -133.785
644.244;  -90.325; -474.119; -559.785
644.516;  -50.173; -250.119; -114.786
644.788;   44.528;  662.881;  548.214
645.060;  -24.470;  -12.119; -124.786
645.332; -102.918; -525.118; -535.787
645.603;   18.109;  479.882;  342.213
645.875;  -85.639; -334.118; -369.787
646.147;  157.038; 1487.882; 1242.212
646.418;  -55.810; -931.117; -918.788
646.690;  146.917; -714.117; -715.789
646.962;   39.093; -413.117; -451.789
647.233;   -8.105;   15.883;   11.211
647.505;  -97.703; -595.117; -475.790
647.776;   15.149;  328.884;  229.210
648.048;    4.626; -248.116; -418.790
648.320;  -75.997; -752.116; -679.791
648.591; -169.970;-1055.116; -958.791
648.862;  -94.818; -505.116; -577.792
649.134;   11.183;  115.885;  198.208
649.405;  -37.090; -661.115; -618.792
649.677;  -48.813; -475.115; -598.793
649.948;  -13.686; -181.115; -296.793
650.219;  -13.909;  -37.115; -147.793
650.491;  -87.782; -431.114; -520.794
650.762; -115.455; -705.114; -731.794
651.033;  -75.903; -437.114; -424.795
651.304; -101.452; -743.114; -728.795
651.576;  -62.325; -680.114; -645.795
651.847;  -32.423; -250.113; -140.796
652.118;  -35.596;  -32.113; -189.796
652.389; -113.619; -639.113; -722.796
652.660;  -45.042; -147.113;  -89.797
652.931; -151.490; -897.112; -871.797
653.202;  -81.838; -382.112; -541.798
653.473;  -77.512; -633.112; -533.798
653.744;  146.065; -595.112; -590.798
654.015;  139.342; -356.112; -303.799
654.286;  -72.631; -642.111; -663.799
654.557;  -67.254; -586.111; -521.799
654.828; -167.527;-1114.111;-1088.800
655.099;  -90.750; -404.111; -291.800
655.370; -104.198; -427.111; -543.801
655.641; -118.071; -656.110; -714.801
655.911; -111.295; -618.110; -638.801
656.182;   51.307;  437.890;  387.198
656.453;   76.959;  830.890;  746.198
656.724;  -69.239; -466.110; -426.802
656.994;  -94.212; -553.109; -568.803
657.265; -119.185; -862.109; -873.803
657.536;  -89.433; -500.109; -377.804
657.806; -101.731; -561.109; -593.804
658.077; -146.905; -866.109; -950.804
658.347;  -84.353; -523.108; -598.805
658.618; -121.326; -646.108; -694.805
658.888;  -24.799;  -41.108;  112.195
659.159;  -83.972; -432.108; -548.806
659.429;  -23.820; -292.108; -349.806
659.700;   11.307; -435.107; -390.807
659.970;   -0.466; -370.107; -359.807
660.241;    6.685; -754.107; -921.807
660.511;  484.037; -147.107; -174.808
660.781;   85.039; -793.106; -748.808
661.052;  -45.959; -222.106; -381.808
661.322;  -25.932;   21.894;   -9.809
661.592;    8.820;  257.894;  148.191
661.862;  -91.228; -369.106; -382.810
662.133;  -89.576; -551.105; -502.810
662.403; -128.750; -770.105; -676.810
662.673;  -71.823; -256.105; -213.811
662.943;  -99.096; -612.105; -551.811
663.213;  -10.019;  -85.105;  -81.811
663.483;  -83.017; -593.104; -568.812
663.753;  -56.840; -194.104; -152.812
664.023;  -13.988;   68.896;  -32.813
664.293;  -61.186; -319.104; -126.813
664.563; -113.560; -694.104; -648.813
664.833; -128.158; -743.103; -608.814
665.103; -143.031; -730.103; -793.814
665.373; -117.904; -766.103; -806.814
665.643;  -93.752; -863.103; -918.815
665.913;   28.350; -534.103; -714.815
666.182;  129.652; -685.102; -719.816
666.452;  263.929;  -22.102;  -89.816
666.722;   -7.345; -724.102; -784.816
666.992; -128.643; -948.102; -921.817
667.261; -102.416; -824.102; -808.817
667.531;  186.336;  134.899;   45.183
667.801;  544.088; -440.101; -412.818
668.070;  218.965;  714.899;  697.182
668.340; -100.658; -883.101; -840.819
668.609;   82.419;  588.900;  301.181
668.879;  -86.705; -490.100; -558.819
669.149;  -73.703; -539.100; -516.820
669.418;  -99.826; -698.100; -726.820
669.688;  -47.224; -482.100; -666.820
669.957;   55.853; -423.099; -546.821
670.226;  -18.245; -268.099; -331.821
670.496; -105.043; -431.099; -635.822
670.765;  -94.391; -418.099; -501.822
671.034; -123.665; -872.099; -828.822
671.304;  -19.113;   55.902; -111.823
671.573; -153.061;-1085.098; -957.823
671.842;   75.766; -380.098; -294.823
672.112;   17.643; -692.098; -586.824
672.381;   -4.630; -239.098; -214.824
672.650; -142.303;-1005.097;-1021.825
672.919;  -96.701; -631.097; -507.825
673.188;  -97.800; -681.097; -878.825
673.457; -149.873;-1101.097;-1143.826
673.726;  -93.221; -579.096; -646.826
673.995;  -50.869; -533.096; -479.826
674.265;  -18.442; -263.096; -333.827
674.534;  -14.065; -183.096; -235.827
674.802;  -10.863; -618.096; -703.828
675.071;  925.064; -886.095; -801.828
675.340; 3890.215; -464.095; -339.828
675.609; 1286.042;  103.905;   82.171
675.878;   77.369; -949.095; -893.829
676.147;   26.796;  -26.095;   -8.829
676.416;   78.948; -210.094; -294.830
676.685;  732.075; 1000.906; -622.830
676.953;  110.952; -603.094; -452.831
677.222;  -22.096; -193.094; -273.831
677.491;  -20.944;  -24.094; -127.831
677.759;  -17.843;   11.907;  172.168
678.028;  -36.916; -279.093; -222.832
678.297;    2.261;   71.907;  197.168
678.565; -139.787; -898.093; -944.833
678.834;  -67.660; -311.093; -268.833
679.102;  -81.633; -411.092; -391.834
679.371; -139.481; -898.092; -727.834
679.639; -143.829; -797.092; -786.834
679.908; -111.278; -794.092; -724.835
680.176; -150.376; -895.091; -941.835
680.445;  -74.449; -346.091; -352.835
680.713;  -17.347;  -58.091;  -23.836
680.982;  -94.095; -523.091; -525.836
681.250; -114.418; -578.091; -507.837
681.518;  -84.491; -534.090; -751.837
681.787;  -32.189; -204.090; -167.837
682.055;  -80.363; -490.090; -422.838
682.323; -141.886; -993.090; -992.838
682.591;   24.016; -216.090; -538.838
682.859;   83.868;    9.911;  -35.839
683.128;   11.670;  232.911;  497.161
683.396; -161.703;-1102.089;-1122.840
683.664;  -40.326; -241.089;   21.160
683.932;   -2.199;  144.911;  -76.840
684.200;  -86.523; -576.088; -320.841
684.468;  -39.121;  -73.088; -124.841
684.736;  -38.269; -214.088; -175.841
685.004; -128.167;-1024.088; -982.842
685.272;  -51.565; -880.088; -774.842
685.540;  -69.638; -499.087; -557.843
685.808; -100.311; -651.087; -682.843
686.076; -105.609; -894.087; -969.843
686.343;  -52.583; -601.087; -815.844
686.611;   27.769; -195.087; -224.844
686.879;  404.071; -530.086; -553.844
687.147; 3307.623; -483.086; -480.845
687.414;  941.500;  -12.086; -169.845
687.682;   -6.598; -658.086; -757.846
687.950;  288.504;  259.915;  263.154
688.217;    4.956; -792.085; -760.846
688.485;   -6.643; -632.085; -636.847
688.753;  508.934;  -11.085; -102.847
689.020;  160.261; -820.085; -851.847
689.288; -117.212; -853.084; -787.848
689.555;  -23.685; -195.084; -148.848
689.823;  -50.308; -241.084; -345.849
690.090;  -87.906; -546.084; -651.849
690.358; -145.879; -877.084; -897.849
690.625;    0.997;  120.917;   45.150
690.892;  -89.926; -403.083; -369.850
691.160;  -24.624;   72.917;  -35.850
691.427;   -1.397;  141.917;  130.149
691.694; -130.270; -855.083; -929.851
691.962; -140.168;-1177.082;-1060.852
692.229;    1.434;  127.918;   56.148
692.496;   58.461;  130.918;  -49.852
692.763;    9.062; -164.082; -201.853
693.031;  -73.811; -739.082; -716.853
693.298;  -39.784; -509.081; -368.853
693.565;  279.418; -155.081; -163.854
693.832; 1270.220;   -5.081;   -9.854
694.099;  137.047; -643.081; -642.855
694.366;  -63.501; -882.081; -896.855
694.633;  -56.024; -920.080; -633.855
694.900;  720.702; 4367.920; -114.856
695.167;  426.179; -214.080; -380.856
695.434;  103.881; -646.080; -623.856
695.701;  175.783;  121.921;  -61.857
695.968;  462.110; -365.079; -361.857
696.234;  951.962; -415.079; -646.858
696.501;10586.914; -776.079; -614.858
696.768; 5634.791; -554.079; -617.858
697.035;  329.818; -632.078; -667.859
697.302;   44.969; -448.078; -552.859
697.568;   19.671; -458.078; -497.859
697.835;  -43.277; -683.078; -624.860
698.102;  -35.350; -498.078; -407.860
698.368;   65.502;  384.923;  396.139
698.635;  -23.096;  -47.077; -424.861
698.901;  -23.269; -240.077; -348.861
699.168;   63.633; -534.077; -456.862
699.435;   67.734;  -72.077;  -13.862
699.701; -101.989; -868.076; -764.862
699.968;   -1.037;  144.924; -441.863
700.234; -101.435; -783.076; -822.863
700.500;  -59.408; -448.076; -539.864
700.767;  -11.206;   -1.075;   26.136
701.033; -132.629;-1015.075; -963.864
701.299;  -53.052; -450.075; -483.865
701.566;   94.474;  950.925;  763.135
701.832;   14.226;  -31.075;  -76.865
702.098;  -89.622;-1054.074;-1034.866
702.365;  -93.670;-1098.074;-1030.866
702.631;  -30.768;-1038.074;-1063.867
702.897; 1298.859; -765.074; -676.867
703.163; 2318.961;  348.926;  254.133
703.429;  167.638; -256.073; -273.868
703.695;  -18.186; -796.073; -792.868
703.961;   20.641; -214.073; -210.868
704.227;  -50.157; -630.073; -725.869
704.493;  127.345;  613.927;  510.131
704.759;  -36.503; -565.072; -540.870
705.025;   37.349; -203.072; -194.870
705.291;  -12.599; -666.072; -562.870
705.557;  182.903;  719.928;   34.129
705.823;   34.404; -742.072; -694.871
706.089;  141.406; -307.071; -326.871
706.355;  332.058; -315.071; -244.872
706.620; 5591.410; -776.071; -729.872
706.886; 8232.087; -309.071; -362.873
707.152;  801.739; -818.070; -973.873
707.418;  -11.384;-1153.070;-1186.873
707.683;   10.543; -550.070; -530.874
707.949;  -46.781; -547.070; -578.874
708.215;   -5.104; -129.070; -207.874
708.480;  -21.252; -520.069; -420.875
708.746;  110.575;   68.931;   28.125
709.011;  -63.723; -578.069; -612.876
709.277;  -76.846; -538.069; -543.876
709.542;  -38.144; -428.069; -387.876
709.808;  -11.217;  -59.068;   89.123
710.073;  -81.091; -577.068; -695.877
710.339;  -35.064; -242.068; -228.877
710.604;   63.063; -780.068; -845.878
710.869;  336.815; -277.068; -366.878
711.135;  -77.233; -715.067; -628.879
711.400;  -74.681; -507.067; -608.879
711.665;  -60.179; -404.067; -479.879
711.931;  -94.777; -661.067; -677.880
712.196; -112.876; -876.067; -954.880
712.461;   96.626; -402.066; -490.880
712.726;  141.353; -727.066; -771.881
712.991;  -95.095; -647.066; -664.881
713.256;  -45.268; -350.066; -332.882
713.521;  -54.966; -417.065; -381.882
713.787;  -61.589; -454.065; -472.882
714.052;  -26.037; -214.065; -400.883
714.317;  -94.261;-1045.065; -981.883
714.581; 1022.691; -374.065; -268.883
714.846; 1509.568; -822.064; -888.884
715.111;  140.095;  261.936;  257.116
715.376;  -25.878;  -86.064; -223.885
715.641;  -14.401; -365.064; -367.885
715.906;  294.651;   15.936; -551.885
716.171;  132.378;  221.937;  209.114
716.436;   40.479;  -78.063; -104.886
716.700;  -97.694; -818.063; -692.886
716.965; -124.217; -794.063; -807.887
717.230;  -79.940; -339.063; -392.887
717.494;  -31.488;  -40.062; -134.888
717.759;  -92.036; -784.062; -640.888
718.024;  -11.134;  269.938;  250.112
718.288;   75.168;  685.938;  395.111
718.553; -145.205; -803.062; -977.889
718.817; -147.204; -883.061; -899.889
719.082;  -35.077; -115.061; -125.890
719.346; -141.450;-1000.061; -947.890
719.611;  -55.123; -300.061; -255.891
719.875; -105.446; -568.060; -537.891
720.140;  -69.569; -453.060; -603.891
720.404;   37.158; -136.060; -249.892
720.668;  821.135; -475.060; -411.892
720.933;  333.236;  146.940;  137.108
721.197; -104.237; -667.059; -600.893
721.461; -136.085; -851.059; -826.893
721.725;  -23.658;  -21.059; -250.894
721.990;  -43.606; -284.059; -204.894
722.254;  -37.279;  -26.059; -108.894
722.518;  -70.402; -286.058; -442.895
722.782; -102.650; -743.058; -594.895
723.046;  126.376;  614.942;  570.105
723.310;   20.403;  374.942;  210.104
723.574; -101.520; -654.058; -614.896
723.838;  -98.543; -576.057; -642.897
724.102;  -48.341; -226.057; -239.897
724.366; -143.864;-1032.057; -978.897
724.630;  -88.612; -749.057; -571.898
724.894;  -80.385; -722.057; -514.898
725.158;  -16.734;   38.944; -295.898
725.422;  -60.207; -394.056; -327.899
725.685;  -73.455; -441.056; -349.899
725.949;  -82.353; -566.056; -519.900
726.213;  -72.251; -732.056; -811.900
726.477;  171.601;-1020.055; -933.900
726.740;  160.578; -274.055; -104.901
727.004;  336.730; -384.055; -510.901
727.268; 3370.456; -442.055; -400.901
727.531; 1033.183; -961.055; -775.902
727.795;  -37.540; -713.054; -673.902
728.059;  -58.863; -552.054; -557.903
728.322;  -91.911; -841.054; -669.903
728.586;   25.841; -692.054; -701.903
728.849;  -74.557; -695.053; -756.904
729.112; -122.055; -812.053; -912.904
729.376; -135.529; -959.053; -905.904
729.639;  -86.227; -536.053; -536.905
729.903; -112.800; -733.053; -699.905
730.166;  -53.498; -437.052; -399.906
730.429;  -20.471; -317.052; -468.906
730.693;  -68.444; -355.052; -894.906
730.956;  181.783;  810.948;  651.093
731.219;  715.910; -310.052; -103.907
731.482;  121.886;-1003.051; -894.907
731.745;   84.788; -794.051; -935.908
732.009;   20.115;  -30.051;   50.092
732.272;  -99.983; -904.051; -771.909
732.535;  -35.156; -300.051; -310.909
732.798; -160.504;-1083.050;-1166.909
733.061;  -56.127; -430.050; -456.910
733.324;   -2.375;   31.950; -180.910
733.587;   60.351;  290.950;  365.090
733.850;  -61.697; -973.049;-1050.911
734.113;   26.380;   33.951;   32.089
734.376;   -0.993; -328.049; -447.912
734.639;  204.234; 1188.951; 1011.088
734.901;   73.286; -180.049; -402.912
735.164;  460.363; -883.048; -837.913
735.427; 1321.515; -166.048; -355.913
735.690;  131.791; -205.048; -234.913
735.952;  -46.582; -923.048; -925.914
736.215;  -27.155;-1113.048;-1009.914
736.478;   32.447; -771.047; -774.915
736.740;  210.624;   33.953;  129.085
737.003;  610.426; -658.047; -672.915
737.266; 4064.828;  -94.047;   46.084
737.528;  454.555; -682.047; -660.916
737.791;  321.407; -316.046; -327.916
738.053;  778.233;  465.954;  649.083
738.316;10714.060; -162.046; -136.917
738.578; 8266.937; -770.046; -736.918
738.841;  478.714; -382.046; -446.918
739.103;  175.691; -875.045; -777.918
739.365;  532.668;   79.955;  -69.919
739.628;    1.595; -884.045; -805.919
739.890;  -15.428; -758.045; -710.919
740.152;  -50.127; -692.044; -754.920
740.414;  -10.400; -408.044; -359.920
740.677;  -49.373; -785.044; -634.921
740.939;  -54.671; -587.044; -487.921
741.201;  239.506; -432.044; -572.921
741.463;   30.783; -689.043; -745.922
741.725;   -4.265;  -21.043; -199.922
741.987;   45.962;  220.957;  116.078
742.249;   -5.412; -751.043; -859.923
742.511;  200.640; -703.043; -794.923
742.773;    4.917; -546.042; -546.924
743.035;  133.819;  796.958;  533.076
743.297;  -41.929; -963.042;-1013.924
743.559;  748.273; -278.042; -262.925
743.821;   69.200; -735.042; -744.925
744.083;    4.252;  -44.041; -149.925
744.345;  -93.672; -869.041; -892.926
744.607;   44.180;   75.959;  122.074
744.868;  -59.118; -490.041; -554.927
745.130; -103.966; -994.041;-1008.927
745.392;   35.986;   -1.040;  -44.927
745.653;  -16.562; -411.040; -378.928
745.915;  140.115;  896.960;  631.072
746.177;   49.367;   35.960;  -43.928
746.438;    0.968; -428.040; -543.929
746.700;  -49.280; -947.039; -988.929
746.961;   -2.128; -659.039; -740.930
747.223;  125.424; -190.039;  -74.930
747.484;   98.326; -391.039; -471.930
747.746;  150.178;  -23.038; -106.931
748.007;  105.080; -647.038; -689.931
748.269;  285.882; -468.038; -440.931
748.530;  490.783; -852.038; -638.932
748.791;  275.160; -354.038; -420.932
749.053;  439.812;  286.963;  163.067
749.314;  460.239; -236.037; -169.933
749.575;  507.566; -945.037; -905.933
749.836;  843.318; -217.037;   86.066
750.098; 2301.245;  -60.037;  -21.934
750.359;36035.222;  414.964;  555.066
750.620;10191.773; -121.036; -220.935
750.881; 1054.450; -585.036; -513.935
751.142; 1327.602; -950.036; -938.936
751.403;16363.804; -789.036; -705.936
751.664; 8138.531;-1034.035; -999.936
751.925;  509.583; -175.035; -262.937
752.186;  286.885; -298.035; -278.937
752.447;  130.812; -590.035; -445.937
752.708;   42.063; -532.035; -648.938
752.969;    4.565; -566.034; -576.938
753.230;   -6.533; -777.034; -672.939
753.491;   10.519; -650.034; -631.939
753.751;   48.421;  109.966;   19.061
754.012;   90.623;  258.967;  181.060
754.273;   58.525; -174.033;  -71.940
754.534;   19.802; -487.033; -580.940
754.794;  -81.447; -926.033; -911.941
755.055;  136.930; 1051.967;  881.059
755.316;  -47.868; -700.032; -566.942
755.576;  -27.616; -606.032; -576.942
755.837;  -40.314; -527.032; -695.942
756.097;  -40.112; -530.032; -564.943
756.358;  -70.760; -725.032; -770.943
756.618;  -41.708; -705.031; -641.943
756.879;   -1.481; -254.031; -349.944
757.139; -115.580;-1098.031;-1116.944
757.400;  -58.528; -538.031; -553.945
757.660;   -8.026; -365.031; -401.945
757.920;    9.926; -266.030; -228.945
758.181;  -17.822; -468.030; -351.946
758.441;  -76.470; -870.030; -809.946
758.701;  -23.018; -308.030; -215.946
758.961;  -46.591; -220.030; -278.947
759.222;  -43.940; -574.029; -502.947
759.482;  -83.538; -683.029; -723.948
759.742;  -83.836; -706.029; -547.948
760.002;   -7.134;  -83.029; -143.948
760.262;   22.443;   50.972;  182.051
760.522;  -36.155; -498.028; -574.949
760.782;  -49.278; -738.028; -612.949
761.042;  -27.251; -618.028; -573.950
761.302;   50.500;   55.972;  -18.950
761.562;   37.677; -164.027; -154.951
761.822;   89.479; -710.027; -551.951
762.082;  -38.919;-1104.027;-1093.951
762.342;   70.583; -328.027; -403.952
762.601;   76.810; -567.027; -506.952
762.861;  369.412; -281.026; -207.952
763.121;  401.314; -406.026; -411.953
763.381; 7345.540; -499.026; -485.953
763.640; 9115.792; -139.026; -307.954
763.900;  405.944; -242.026; -203.954
764.160;   89.746; -458.025; -491.954
764.419;    6.298; -726.025; -782.955
764.679;  -83.175; -795.025; -726.955
764.939;  -16.323; -124.025; -210.955
765.198;  -83.071; -608.025; -563.956
765.458;  -65.045; -710.024; -612.956
765.717;  -73.043; -454.024; -590.957
765.976;  -71.866; -428.024; -411.957
766.236;  -79.064; -475.024; -610.957
766.495;    9.013;  260.977;   73.042
766.755;  -84.285;-1090.023; -987.958
767.014;    4.317; -594.023; -665.958
767.273;  -62.081; -373.023; -397.959
767.533;  -40.205; -228.023; -307.959
767.792;  -41.103; -151.022; -188.960
768.051;  -55.726; -228.022; -276.960
768.310;  -85.999; -546.022; -650.960
768.569;   -9.847; -161.022;    4.039
768.828;  -38.545; -285.022; -363.961
769.088; -120.643;-1050.021; -942.961
769.347;  -86.641; -755.021; -599.962
769.606;  -89.690; -876.021; -857.962
769.865; -117.913;-1016.021;-1033.963
770.124;   -6.261; -411.021; -336.963
770.383;  -51.284; -778.020; -910.963
770.641;   -1.682; -398.020; -400.964
770.900;  -60.730; -953.020; -846.964
771.159;  -39.978; -851.020; -951.964
771.418;   -6.476; -917.020; -779.965
771.677;  127.550; -224.019; -293.965
771.936;  138.177; -794.019; -865.966
772.194; 2012.504; -465.019; -437.966
772.453;11791.381; -213.019; -391.966
772.712;  872.733;  416.982;  329.033
772.970;  127.610;   32.982;   63.033
773.229;   81.187;  -22.018;  102.033
773.488;  -75.061; -814.018; -770.968
773.746;   56.965;  296.982;  335.032
774.005;   -6.183;  190.983;  -22.969
774.263;   10.169;  243.983;  177.031
774.522;  -52.854; -422.017; -548.969
774.780;  -74.777; -484.017; -417.970
775.039;  -96.625; -551.017; -531.970
775.297;  -28.523; -135.016; -351.970
775.555; -108.096; -489.016; -612.971
775.814; -113.295; -618.016; -570.971
776.072; -131.668; -749.016; -740.971
776.330; -112.141; -630.016; -520.972
776.589; -129.839; -703.015; -721.972
776.847; -118.712; -645.015; -624.973
777.105; -171.560;-1016.015;-1032.973
777.363;  -90.333; -459.015; -454.973
777.621; -149.606; -660.015; -717.974
777.879;  -23.679;  -42.014;   32.026
778.138; -102.478; -554.014; -717.974
778.396; -105.901; -585.014; -526.975
778.654; -157.449;-1015.014; -970.975
778.912;  -76.197; -269.014; -371.976
779.170; -127.645; -880.013; -803.976
779.427; -144.893; -922.013; -897.976
779.685; -134.616; -880.013; -832.977
779.943;  -82.114; -654.013; -593.977
780.201; -164.513; -964.012; -883.978
780.459; -117.886; -651.012; -610.978
780.717;  -94.034; -440.012; -390.978
780.974; -112.857; -449.012; -490.979
781.232;  -77.605; -358.012; -338.979
781.490;  -75.903; -551.011; -472.979
781.747;  -98.476; -555.011; -476.980
782.005;    7.276;  462.989;  254.020
782.263; -179.823; -542.011;-1004.981
782.520;  -81.921; -326.011; -501.981
782.778; -167.744;-1013.010;-1051.981
783.035; -169.367; -962.010; -938.982
783.293;  -69.515; -248.010; -206.982
783.550;  -57.488; -134.010; -198.982
783.808; -132.011; -764.010; -776.983
784.065; -167.709; -745.009; -874.983
784.322;  -57.183;   25.991;  -86.984
784.580; -139.231; -915.009; -771.984
784.837;  -91.204; -392.009; -466.984
785.094; -136.552; -783.009; -762.985
785.352;  -85.925; -304.008; -404.985
785.609; -112.173; -934.008; -839.985
785.866;  -80.571; -345.008; -401.986
786.123;  -65.369; -639.008; -583.986
786.380; -118.418; -665.008; -604.987
786.637;  -59.391; -225.007; -380.987
786.895;  -19.414; -456.007; -543.987
787.152;  -52.712; -135.007; -267.988
787.409;  -45.710; -123.007; -225.988
787.666;  -86.908; -299.006; -378.988
787.923; -118.856; -616.006; -695.989
788.179;  -92.879; -551.006; -584.989
788.436; -108.953; -585.006; -585.990
788.693;  -47.176;  -92.006;  -87.990
788.950;  106.826; -125.005; -112.990
789.207;  222.078; -381.005; -372.991
789.464;  -62.020; -161.005; -301.991
789.720;  -15.718;  150.995;  110.009
789.977; -166.116;-1003.005; -671.992
790.234;  -27.539;   44.996;  -66.992
790.490; -154.313; -884.004;-1031.993
790.747;  -28.036;  -85.004;   22.007
791.004;  -32.509; -426.004; -348.993
791.260;  -76.882; -430.004; -560.994
791.517;  -97.880; -843.003; -788.994
791.773;  -43.503; -379.003; -342.994
792.030; -108.051; -596.003; -660.995
792.286;  -97.424; -686.003; -636.995
792.543;  -19.398;  -74.002; -159.995
792.799;  -50.846; -584.002; -382.996
793.055; -154.519;-1179.002;-1210.996
793.312;  -90.942; -827.002; -816.997
793.568;  -68.840; -746.002; -599.997
793.824;   11.987; -226.001; -284.997
794.081;   29.064; -447.001; -508.998
794.337;   74.041; -664.001; -561.998
794.593; 1189.867; -319.001; -271.999
794.849; 7002.794; -746.001; -772.999
795.105;  398.621; -270.000; -261.999
795.361;   25.173; -490.000; -457.000
795.617;  -57.325; -875.000; -945.000
795.873;  -33.100; -360.000; -407.000
796.129;  -47.425; -368.000; -306.000
796.385;  -18.900; -124.000; -156.000
796.641;   64.400;  412.000;  550.000
796.897;  -82.400; -666.000; -635.000
797.153;   45.375;  453.000;  357.000
797.409;  -94.175; -785.000; -868.000
797.665;  -74.800; -625.000; -732.000
797.921;  -61.125; -775.000; -762.000
798.176;  -52.125; -744.000; -747.000
798.432;  -51.475; -824.000; -596.000
798.688;  -72.175;-1174.000;-1078.000
798.943;   74.525; -165.000; -147.000
799.199;   12.775;-1005.000; -959.000
799.455;  236.225;  369.000;  316.000
799.710;  134.475; -813.000; -380.000
799.966;  310.400; -162.000; -160.000
800.221;  473.450; -638.000; -721.000
800.477; 9942.150; -743.000; -710.000
800.732;10394.300; -773.000; -800.000
800.988;  677.925;  205.000;  -19.000
801.243; 1659.900; -454.000; -344.000
801.498; 8500.850; -814.000; -739.000
801.754;  530.825; -289.000; -163.000
802.009;  101.200; -257.000; -335.000
802.264;  -48.375; -967.000;-1033.000
802.520;   28.400;  222.000;   -3.000
802.775;  -51.700; -524.000; -359.000
803.030;   51.250;  395.000;  356.000
803.285; -116.925; -840.000; -903.000
803.540;  -62.825; -686.000; -699.000
803.795;  -32.775; -648.000; -583.000
804.051;  -42.350; -279.000; -346.000
804.306;    8.375;  168.000;  128.000
804.561;  145.375;  451.000;  362.000
804.816;  124.525;  714.000;  861.000
805.071;   -4.475; -185.000; -280.000
805.325;  224.325; -257.000; -427.000
805.580;  -85.350; -841.000; -877.000
805.835;  -17.700; -204.000; -297.000
806.090;  -62.800; -760.000; -676.000
806.345;  -15.725; -344.000; -264.000
806.600;  -33.750; -549.000; -632.000
806.854;  -34.225; -408.000; -538.000
807.109;  -10.375; -493.000; -577.000
807.364;   12.575; -407.000; -328.000
807.618;   -3.075; -415.000; -381.000
807.873;   48.450; -470.000; -494.000
808.128;  114.700; -257.000; -518.000
808.382;  102.625; -224.000; -332.000
808.637;   69.650; -440.000; -511.000
808.891;  186.200; -257.000; -180.000
809.146;  120.000; -902.000; -794.000
809.400;  278.100; -848.000; -923.000
809.654;  350.350; -779.000; -551.000
809.909;  482.575; -841.000; -927.000
810.163; 5989.225; -813.000; -651.000
810.418;18253.050; -940.000; -861.000
810.672; 1166.475; -685.000; -690.000
810.926;  755.825; -993.000; -973.000
811.180; 1427.700; -439.000; -372.000
811.434;31916.550;  240.000;  135.000
811.689;15287.500; -231.000; -365.000
811.943;  739.700; -936.000; -953.000
812.197;  375.225; -893.000; -671.000
812.451;  153.550; -379.000; -514.000
812.705;    3.425; -809.000; -619.000
812.959;    6.450; -263.000; -388.000
813.213;   -1.225; -283.000; -209.000
813.467;   59.200;  470.000;  253.000
813.721; -107.300; -764.000; -792.000
813.975; -113.825; -826.000; -877.000
814.229;   36.525;  430.000;  353.000
814.482;  -69.525; -517.000; -566.000
814.736; -118.000; -766.000; -744.000
814.990; -128.625; -779.000; -872.000
815.244;  -62.625; -228.000; -285.000
815.497; -102.350; -636.000; -601.000
815.751;  -13.200; -141.000;   82.000
816.005;  -78.475; -470.000; -586.000
816.258;  -68.675; -510.000; -363.000
816.512;  -97.225; -693.000; -610.000
816.766;    8.625;  121.000;  157.000
817.019;    7.800;  148.000;  149.000
817.273; -111.400;-1000.000; -802.000
817.526;  -42.575; -206.000; -173.000
817.779;  -52.850;-1049.000; -960.000
818.033;  -64.325; -693.000; -807.000
818.286; -119.000; -725.000; -792.000
818.540;  -83.650; -403.000; -403.000
818.793;  -80.300; -402.000; -489.000
819.046; -112.500; -582.000; -520.000
819.299;  -47.775; -157.000; -166.000
819.553; -100.425; -552.000; -592.000
819.806; -164.100;-1016.000; -838.000
820.059;  -62.850; -334.000; -354.000
820.312;   23.650;  152.000;  185.000
820.565;  -30.025;  110.000;  -27.000
820.818;  -51.225;  -59.000; -173.000
821.071; -171.625;-1041.000; -957.000
821.324; -108.550; -536.000; -540.000
821.577; -104.225; -457.000; -483.000
821.830;  -50.500; -270.000; -172.000
822.083; -123.050; -733.000; -288.000
822.336;  -57.025; -261.000; -167.000
822.589; -137.200; -805.000; -688.000
822.842; -135.150; -875.000; -770.000
823.094; -175.875;-1076.000;-1114.000
823.347; -123.825; -925.000; -729.000
823.600;   13.750;  402.000;  187.000
823.853;  -52.900; -311.000; -267.000
824.105;  -70.575; -331.000; -575.000
824.358; -104.550; -617.000; -716.000
824.611;   32.625;  234.000;   40.000
824.863;  -48.550; -612.000; -591.000
825.116;   40.850;  -33.000;   27.000
825.368;   80.225; -366.000; -372.000
825.621;  173.600; -186.000; -240.000
825.873;   75.950; -704.000; -737.000
826.126;  525.750; -669.000; -641.000
826.378;11369.350; -389.000; -505.000
826.630; 3388.750; -890.000; -898.000
826.883;   70.700; -754.000; -693.000
827.135;   38.725; -279.000; -270.000
827.387; -108.600; -893.000; -839.000
827.639;  -34.125;  -86.000;   32.000
827.892; -118.925; -742.000; -582.000
828.144; -145.325; -848.000; -804.000
828.396;  -33.725;  104.000;  -80.000
828.648; -105.275; -440.000; -333.000
828.900; -139.450; -702.000; -795.000
829.152; -122.975; -684.000; -683.000
829.404;  -52.500; -215.000; -267.000
829.656;  -12.925;  321.000;  214.000
829.908;  -22.725;  393.000;  229.000
830.160; -165.250;-1064.000;-1047.000
830.412;  -85.300; -481.000; -430.000
830.664; -123.525; -557.000; -665.000
830.916;  -75.875; -268.000; -206.000
831.167; -185.825;-1073.000; -951.000
831.419; -102.975; -623.000; -566.000
831.671; -154.150; -764.000; -809.000
831.923;  -84.325; -311.000; -447.000
832.174;  -75.475; -273.000; -331.000
832.426; -110.775; -493.000; -582.000
832.678; -189.150;-1043.000;-1091.000
832.929; -166.075; -947.000; -935.000
833.181;  -75.200; -575.000; -677.000
833.432;  -56.825;  -59.000; -186.000
833.684;  -31.000;  112.000;  -27.000
833.935; -110.975; -610.000; -566.000
834.187; -135.425; -829.000; -823.000
834.438;  -61.500;  -58.000;  -25.000
834.689;  -69.575; -255.000; -123.000
834.941;  -60.550; -343.000; -244.000
835.192; -100.150; -590.000; -533.000
835.443;  -81.925; -419.000; -506.000
835.695;  -13.325;  138.000;  -16.000
835.946;  -89.150; -608.000; -378.000
836.197; -109.825; -599.000; -622.000
836.448;  -97.100; -528.000; -395.000
836.699;  -61.650; -253.000; -341.000
836.950;  -17.675;   72.000;    7.000
837.201; -155.000;-1003.000; -987.000
837.452;  -50.825; -356.000; -170.000
837.703; -114.525; -791.000; -737.000
837.954;  -49.250; -205.000; -365.000
838.205;  -82.200;-1029.000;-1008.000
838.456;  165.175; -196.000; -282.000
838.707;   -2.300; -423.000; -519.000
838.958;    4.650; -634.000; -647.000
839.209;  289.250;   18.000;   40.000
839.460;  125.000; -439.000; -201.000
839.710;  161.575; -135.000; -297.000
839.961;  435.025;  730.000;  612.000
840.212;  357.475; -382.000; -497.000
840.462; 1065.600; -328.000; -277.000
840.713;17369.375; -571.000; -536.000
840.964; 8407.625;  -62.000; -143.000
841.214;  546.100; -384.000; -624.000
841.465;  577.825; -214.000; -141.000
841.715;  526.025; -417.000; -380.000
841.966;  644.450; -746.000; -685.000
842.216; 7963.925; -330.000; -431.000
842.466;36054.025; -169.000; -313.000
842.717; 2465.825; -964.000; -952.000
842.967;  315.400; -635.000; -641.000
843.217;  273.825;   20.000;   28.000
843.468;   75.125; -104.000; -132.000
843.718;  -31.700; -718.000; -726.000
843.968;  -72.825; -837.000; -765.000
844.218;   20.525; -315.000; -262.000
844.469;  -46.175; -577.000; -561.000
844.719; -107.050; -537.000; -682.000
844.969; -108.525; -550.000; -580.000
845.219; -140.350; -814.000; -862.000
845.469;  -77.500; -392.000; -342.000
845.719; -126.600; -792.000; -884.000
845.969;  -19.500;  119.000;  174.000
846.219; -109.325; -738.000; -720.000
846.469;    0.925;  464.000;  432.000
846.718;  -59.675; -115.000;   31.000
846.968; -139.525; -827.000; -827.000
847.218;  -65.275; -224.000; -371.000
847.468;   -8.825; -586.000; -555.000
847.718; -148.825; -827.000; -798.000
847.967; -141.075; -826.000; -915.000
848.217;  -88.300; -449.000; -569.000
848.467;  -68.750; -405.000; -376.000
848.716; -122.925; -708.000; -725.000
848.966;    4.025; -372.000; -358.000
849.215;  -77.575; -428.000; -419.000
849.465;  -92.175; -785.000; -615.000
849.714; -150.325;-1132.000;-1150.000
849.964;  -51.900; -551.000; -613.000
850.213;  -34.200; -393.000; -355.000
850.463;   65.575;  137.000;  340.000
850.712;   -4.150; -542.000; -567.000
850.961;   20.675; -739.000; -678.000
851.211;  101.150; -513.000; -504.000
851.460;  178.325; -635.000; -650.000
851.709;  554.900;  -25.000;   18.000
851.958; 9701.800; -912.000; -750.000
852.208;14169.250; -859.000; -879.000
852.457;  539.575; -181.000;  -13.000
852.706;   87.875; -791.000; -823.000
852.955;   30.325; -507.000; -528.000
853.204;  -62.925; -521.000; -461.000
853.453;  -79.975; -418.000; -458.000
853.702; -129.200; -660.000; -750.000
853.951;  -99.450; -532.000; -520.000
854.200; -118.125; -613.000; -562.000
854.449; -129.000; -695.000; -661.000
854.698; -105.750; -340.000; -279.000
854.946;  -65.825; -181.000; -284.000
855.195; -154.625; -843.000; -868.000
855.444; -106.850; -395.000; -420.000
855.693; -124.000; -345.000; -432.000
855.941; -107.325; -387.000; -516.000
856.190;  -58.225; -256.000; -382.000
856.439; -134.950; -652.000; -703.000
856.687;  -63.500;  -99.000;  -72.000
856.936; -114.800; -621.000; -323.000
857.184; -192.800;-1067.000;-1020.000
857.433; -106.175; -423.000; -512.000
857.681; -172.900; -989.000; -953.000
857.930;  -78.750; -282.000; -433.000
858.178; -162.900; -856.000; -929.000
858.427; -150.050; -802.000; -781.000
858.675; -125.475; -377.000; -544.000
858.923; -111.275; -527.000; -819.000
859.172; -177.750;-1094.000;-1070.000
859.420;  -96.250; -339.000; -239.000
859.668; -136.925; -624.000; -628.000
859.916;  -18.775;  109.000;  115.000
860.164; -131.025; -699.000; -603.000
860.413;  258.925; -878.000; -696.000
860.661;  241.700; -709.000; -577.000
860.909;  -73.775; -339.000; -325.000
861.157;  -85.350; -277.000; -444.000
861.405; -127.225; -534.000; -670.000
861.653;    3.650;  310.000;  310.000
861.901;  154.425; -543.000; -613.000
862.149;    9.200; -801.000; -824.000
862.396;  -73.100; -297.000; -187.000
862.644; -109.975; -368.000; -347.000
862.892;  -39.350;   98.000;  138.000
863.140; -125.225; -549.000; -530.000
863.388; -152.975; -815.000; -759.000
863.635; -131.500; -642.000; -601.000
863.883;  -16.775;  231.000;  190.000
864.131;  -99.750; -288.000; -357.000
864.378; -116.450; -675.000; -540.000
864.626; -110.325; -347.000; -415.000
864.873; -121.000; -556.000; -505.000
865.121; -143.675; -714.000; -799.000
865.368;  -42.150; -173.000;   75.000
865.616;  -38.650;  -33.000;  -40.000
865.863;  -87.975; -462.000; -506.000
866.111; -107.350; -795.000; -824.000
866.358;   33.525; -426.000; -420.000
866.605; 2142.600;  -64.000; -804.000
866.853; 2657.700; -621.000; -537.000
867.100;  -32.800; -728.000; -775.000
867.347;  -92.900; -672.000; -611.000
867.594;  -98.250; -740.000; -714.000
867.841;   88.025;   97.000;   17.000
868.089; -142.725; -746.000; -698.000
868.336; -115.125; -477.000; -420.000
868.583; -150.500; -637.000; -741.000
868.830;  -70.375; -131.000; -170.000
869.077; -168.425; -859.000; -787.000
869.324; -136.125; -502.000; -458.000
869.571; -144.650; -398.000; -430.000
869.818; -130.875; -485.000; -439.000
870.065; -117.075; -439.000; -513.000
870.311; -117.775; -456.000; -542.000
870.558; -114.800; -332.000; -311.000
870.805;  -94.600; -320.000; -384.000
871.052; -109.225; -494.000; -369.000
871.298;  -61.775; -204.000; -131.000
871.545;  -78.775; -151.000; -185.000
871.792;  -83.350; -173.000; -222.000
872.038;  -79.250;   43.000; -126.000
872.285; -109.575; -496.000; -387.000
872.532; -114.400; -357.000; -387.000
872.778;   -0.525;  556.000;  403.000
873.025; -107.125; -384.000; -359.000
873.271;   20.100;  501.000;  578.000
873.517;  -45.850; -133.000; -209.000
873.764;  -37.200; -193.000;  -80.000
874.010;  -89.250; -143.000; -230.000
874.257;  -30.575;  123.000;   90.000
874.503; -125.375; -579.000; -479.000
874.749;  -67.900;   31.000;  275.000
874.995;  -69.800;  -80.000;  -20.000
875.242; -125.575; -540.000; -478.000
875.488; -116.425; -414.000; -439.000
875.734;  -55.800; -106.000; -234.000
875.980;  158.000; -872.000;-1032.000
876.226;  382.300; -157.000; -255.000
876.472;   -0.775;  343.000;  237.000
876.718;  -39.800;  184.000;  158.000
876.964;  -55.950;   56.000;   55.000
877.210; -140.150; -547.000; -677.000
877.456; -145.300; -630.000; -557.000
877.702; -167.475; -821.000; -832.000
877.948; -114.975; -377.000; -497.000
878.193;   -1.900;  361.000;  255.000
878.439;  -90.275; -487.000; -472.000
878.685; -100.125; -272.000; -343.000
878.931; -137.000; -618.000; -676.000
879.176;  -80.650; -201.000; -201.000
879.422; -178.225; -933.000; -820.000
879.668;   47.250;   10.000;   79.000
879.913;  125.450;   53.000;  137.000
880.159;  -57.075; -112.000;  -17.000
880.404;  -53.050; -152.000; -162.000
880.650;  -30.175;   91.000;  141.000
880.895; -157.850; -670.000; -710.000
881.141; -119.975; -454.000; -428.000
881.386; -151.000; -503.000; -658.000
881.631;  -84.600; -311.000; -166.000
881.877;  -57.900;  112.000;  -13.000
882.122; -129.075; -684.000; -600.000
882.367; -102.475; -136.000; -186.000
882.612;  -73.950;  -80.000; -176.000
882.858; -175.325; -877.000; -823.000
883.103;  -99.350; -297.000; -267.000
883.348; -156.200; -759.000; -852.000
883.593; -155.425; -677.000; -602.000
883.838;  -67.725; -311.000;  -24.000
884.083;   26.925;  353.000;  288.000
884.328;  -97.125; -564.000; -545.000
884.573;  -52.050; -196.000; -143.000
884.818;  157.825; -694.000; -531.000
885.063;  213.525; -348.000; -315.000
885.308; -110.475; -475.000; -398.000
885.553;  -20.725;  245.000;  325.000
885.797; -139.125; -545.000; -615.000
886.042;  -47.450;    8.000;   58.000
886.287; -104.550; -253.000; -211.000
886.532;  -49.150;   26.000;  204.000
886.776; -100.500; -407.000; -525.000
887.021; -142.525; -621.000; -574.000
887.265; -173.400; -685.000; -689.000
887.510; -137.000; -557.000; -496.000
887.755; -108.500; -194.000; -164.000
887.999; -149.125; -552.000; -575.000
888.244;  -67.775;  -58.000;  161.000
888.488;   -7.300;  371.000;  393.000
888.732; -142.825; -368.000; -520.000
888.977; -124.075; -622.000; -567.000
889.221; -144.700; -683.000; -659.000
889.465; -118.000; -422.000; -566.000
889.710;  -95.025;  -56.000; -299.000
889.954;   -3.450;  579.000;  467.000
890.198; -151.175; -584.000; -707.000
890.442; -155.225; -716.000; -712.000
890.687; -168.650; -800.000; -753.000
890.931;  -96.525; -273.000; -210.000
891.175; -134.625; -502.000; -500.000
891.419;  -74.100; -105.000; -110.000
891.663;  -95.300; -239.000; -112.000
891.907; -169.250; -801.000; -545.000
892.151; -178.175; -920.000; -815.000
892.395; -117.750; -274.000; -387.000
892.638;  -34.825;  408.000;  291.000
892.882; -172.325; -780.000; -867.000
893.126;    5.100;  758.000;  558.000
893.370;  -80.900; -167.000; -168.000
893.614; -149.400; -714.000; -715.000
893.857;  -98.875; -183.000; -197.000
894.101; -139.275; -527.000; -631.000
894.345;  -62.075;  300.000;  150.000
894.588;    0.075;  569.000;  380.000
894.832;  -80.950; -178.000;  -84.000
895.075;  -82.025;   15.000;  -92.000
895.319; -128.775; -552.000; -420.000
895.563; -105.950; -413.000; -353.000
895.806; -137.875; -628.000; -741.000
896.049;  -80.025; -576.000; -368.000
896.293;   92.625;  527.000;  405.000
896.536;  -84.575; -465.000; -468.000
896.779;  -53.425; -149.000;   -1.000
897.023; -156.400; -751.000; -714.000
897.266;  -42.550;  325.000;  269.000
897.509; -174.100; -900.000; -901.000
897.752;  -49.375;  149.000;  171.000
897.996; -195.450; -972.000; -864.000
898.239;  -55.775;  168.000;  102.000
898.482; -133.675; -431.000; -453.000
898.725;  -38.500;  101.000;   53.000
898.968; -153.500; -609.000; -744.000
899.211; -111.150; -513.000; -361.000
899.454; -119.800; -633.000; -539.000
899.697;  -72.500;   90.000;  -43.000
899.940; -170.625; -761.000; -757.000
900.182; -112.150; -335.000; -405.000
900.425;  -91.825; -150.000; -298.000
900.668;  -20.575;  491.000;  350.000
900.911; -100.625; -292.000; -345.000
901.154;  -59.925;  141.000;   -3.000
901.396; -129.725; -407.000; -412.000
901.639; -138.000; -430.000; -496.000
901.882; -181.625; -790.000; -809.000
902.124;  -85.825;  -29.000; -143.000
902.367; -134.350; -315.000; -361.000
902.609; -141.550; -476.000; -453.000
902.852;  -93.650; -108.000; -260.000
903.094; -136.700; -458.000; -337.000
903.337;  -67.275;  -26.000;   53.000
903.579; -121.350; -228.000; -441.000
903.821; -159.475; -597.000; -744.000
904.064;  -57.875;   85.000;  127.000
904.306;  -91.550; -126.000; -166.000
904.548; -103.450; -152.000; -366.000
904.790; -108.225; -195.000; -340.000
905.033; -133.325; -625.000; -577.000
905.275; -144.200; -513.000; -524.000
905.517;   35.125;  468.000;  256.000
905.759;  -73.900; -667.000; -761.000
906.001; -100.625; -322.000; -369.000
906.243;  -53.900; -162.000; -224.000
906.485;  102.375; -265.000; -207.000
906.727;  128.325; -499.000; -542.000
906.969;  -32.000;  -30.000; -135.000
907.211;  108.125; -316.000; -382.000
907.453;  283.125; -188.000; -237.000
907.695;   18.525; -158.000; -385.000
907.936;   32.500;  818.000;  706.000
908.178;  -66.200;   92.000; -135.000
908.420;  -67.025; -111.000; -162.000
908.662; -145.750; -633.000; -682.000
908.903;  -81.975; -208.000; -123.000
909.145;  -72.800; -240.000; -305.000
909.386;   -8.825;  315.000;  280.000
909.628;   33.675;  363.000;  397.000
909.870;    4.450;   29.000;  264.000
910.111; -100.125; -809.000; -949.000
910.353;   28.850; -123.000; -161.000
910.594;   19.375; -574.000; -606.000
910.835;   93.625; -265.000; -326.000
911.077;  153.800; -503.000; -604.000
911.318;  291.850; -505.000; -471.000
911.559;  471.350; -577.000; -880.000
911.801; 1344.800; -284.000; -280.000
912.042; 9951.025;  -50.000; -159.000
912.283;28947.625;  404.000;  371.000
912.524; 5255.575; -396.000; -457.000
912.765;  547.675; -193.000;   79.000
913.006;  265.550; -307.000; -338.000
913.247;   73.750; -270.000; -290.000
913.488;   -6.650;  -43.000;   30.000
913.729;  -94.525; -373.000; -373.000
913.970;  -64.675;  -96.000; -292.000
914.211;  -77.000; -160.000; -198.000
914.452;  -72.800; -118.000;  -11.000
914.693;   -3.500;  510.000;  592.000
914.934;    3.475;  510.000;  440.000
915.175;  -66.575;   53.000;  -95.000
915.415;  -78.875; -137.000;   27.000
915.656;  -67.400;  -28.000;  192.000
915.897; -102.300; -252.000;  -82.000
916.137;  -78.625;   74.000;   -9.000
916.378; -136.725; -573.000; -517.000
916.619;  -89.550; -159.000;  -63.000
916.859;  -22.150;  303.000;  330.000
917.100;  131.375; 1655.000; 1070.000
917.340;   35.500;  930.000;  728.000
917.581;   54.650;  965.000;  789.000
917.821;  -47.700; -171.000;  143.000
918.061;   12.575; -199.000;  -72.000
918.302;  -62.200; -152.000; -211.000
918.542;  -26.450;  -22.000;    3.000
918.782;   34.550;  369.000;  377.000
919.023;  115.300;  360.000;  427.000
919.263; 1638.300; 8131.000;  202.000
919.503; 1186.225; -137.000;  -54.000
919.743;  608.750;  390.000;  266.000
919.983;  304.200; -134.000;  -26.000
920.223;   80.550;  135.000;   14.000
920.463;  154.200;  631.000;  554.000
920.703;  134.750;   84.000;   39.000
920.943;  170.350; -110.000;   90.000
921.183;  226.650; -414.000; -405.000
921.423;  510.175;  307.000;  546.000
921.663;  736.200; -174.000; -257.000
921.903; 1562.775;  237.000;  173.000
922.143; 8307.700;  372.000;  389.000
922.383;34092.775;  158.000;  115.000
922.622;13608.325; -120.000;  -15.000
922.862; 1412.075;  796.000;  785.000
923.102;  501.650;  -51.000;   33.000
923.341;  206.700;   59.000;   74.000
923.581;   95.325;  450.000;  360.000
923.821;   29.625;  301.000;  398.000
924.060;    5.150;  351.000;  193.000
924.300;  -56.775;  -16.000; -128.000
924.539;  -25.625;  584.000;  473.000
924.779;   -0.800;  812.000;  597.000
925.018;  -39.125;  247.000;  353.000
925.257;   -5.675;  595.000;  666.000
925.497;  -58.050;  447.000;  412.000
925.736;  -65.225;  -35.000;  102.000
925.975;    4.325;  687.000;  669.000
926.214;   32.475;  907.000;  850.000
926.454;    8.375;  706.000;  757.000
926.693;  -29.100;  419.000;  543.000
926.932;   26.575; 1021.000;  825.000
927.171;   69.350; 1107.000; 1044.000
927.410;   45.700; 1144.000;  967.000
927.649;   13.850;  924.000;  742.000
927.888;  -24.325;  590.000;  564.000
928.127;  -17.850;  680.000;  678.000
928.366;   16.100;  842.000;  826.000
928.605;   41.350;  831.000;  737.000
928.844;  229.075; 1451.000; 1393.000
929.083;  599.800;  770.000;  613.000
929.321;  351.675; 1335.000; 1359.000
929.560;   87.225; 1158.000; 1122.000
929.799;  -41.875;  574.000;  475.000
930.038;   70.975; 1025.000; 1394.000
930.276;  -55.425;  334.000;  397.000
930.515;    2.175;  827.000;  681.000
930.753;  -14.075;  614.000;  589.000
930.992;  -17.025;  664.000;  717.000
931.230;    2.075;  847.000;  847.000
931.469;  155.800; 2162.000;  892.000
931.707;   52.225;  840.000;  751.000
931.946;   58.150; 1278.000; 1344.000
932.184;   56.275; 1437.000; 1175.000
932.423;   52.150; 1265.000;  963.000
932.661;   82.575; 1296.000; 1428.000
932.899;   39.050;  987.000;  821.000
933.137;   13.400;  754.000;  564.000
933.376;  120.875; 1664.000; 1335.000
933.614;  164.825; 1759.000; 1196.000
933.852;   49.300; 1357.000; 1171.000
934.090;  120.800; 1722.000; 1747.000
934.328;   98.125; 1252.000; 1457.000
934.566;   95.100; 1431.000; 1110.000
934.804;  142.175; 1263.000; 1309.000
935.042;  438.600; 1861.000; 1850.000
935.280; 1740.725; 2088.000; 2063.000
935.518; 1909.325; 2113.000; 2007.000
935.756;  407.925; 2481.000; 2316.000
935.994;  155.875; 1808.000; 1751.000
936.231;  333.825; 2890.000; 2950.000
936.469;  190.025; 2367.000; 2378.000
936.707;  167.700; 2220.000; 2167.000
936.945;  213.775; 2825.000; 2882.000
937.182;  196.000; 2679.000; 2741.000
937.420;  293.350; 3602.000; 3031.000
937.657;  412.400; 3365.000; 3478.000
937.895;  334.200; 3331.000; 3488.000
938.133;  292.650; 3540.000; 3528.000
938.370;  338.325; 3896.000; 4191.000
938.607;  400.675; 4488.000; 4205.000
938.845;  524.050; 5587.000; 5549.000
939.082;  471.275; 5387.000; 5177.000
939.320;  506.250; 5799.000; 5728.000
939.557;  649.625; 6549.000; 6491.000
939.794;  715.625; 7285.000; 7097.000
940.031;  884.500; 8421.000; 8368.000
940.269; 1097.200; 9552.000; 9107.000
940.506; 1121.400;10901.000;10507.000

