
Integration time [ms]: 200.000
Averaging Nr. [scans]: 10
Smoothing Nr. [pixels]: 0
Data measured with spectrometer [name]: 2101013U2
Wave   ;Sample   ;Dark     ;Reference
[nm]   ;[counts] ;[counts] ;[counts] 

394.013;   82.268; -450.257; -315.536
394.305;  452.765; -461.258; -419.536
394.596; 2016.827; -676.269; -527.514
394.887; 4806.749; -796.268; -654.518
395.178; 1925.390;  145.736;   11.476
395.470;  136.605; -210.263; -356.526
395.761;  412.469;  305.734;  394.479
396.052;  697.758; -545.284; -306.489
396.343;  767.952; -557.276; -454.503
396.634;  193.910; -200.279; -290.497
396.926;  146.045; -618.268; -565.517
397.217;  190.558;   11.725;  -17.504
397.508;   64.280; -366.273; -154.507
397.799;   55.610; -555.279; -571.497
398.090;  -46.798; -973.280; -902.495
398.381;  212.357;   11.708;  -11.473
398.672;  -36.441; -585.292; -742.473
398.963;   85.518; -348.279; -373.498
399.254;  195.771;   54.709; -209.475
399.545;  -99.836;-1017.266; -883.520
399.836;   65.337; -407.277; -343.501
400.127;   76.625; -205.295; -209.468
400.418;   79.872; -423.274; -392.506
400.709;   71.285; -359.281; -333.493
401.000;   92.776; -268.291; -309.476
401.290;  176.940;  225.698;  115.545
401.581;   91.835; -166.286; -228.485
401.872;   -5.512; -542.298; -486.462
402.163;   97.715; -313.296; -252.467
402.454;  169.072; -123.291; -163.475
402.744;   76.704; -844.297; -813.465
403.035;  630.046; -226.293;  -86.471
403.326;  868.763; -366.292; -384.474
403.617;  635.980;  204.701;  165.539
403.907;  409.866; -593.283; -679.490
404.198; 4168.378; -545.307; -599.446
404.489;10869.073; -618.283; -588.491
404.779; 3665.045; -618.302; -660.456
405.070;  413.616;  -67.304; -174.451
405.360;  568.548; -259.293; -238.472
405.651;  659.160;  125.699;   98.542
405.942;  311.829;  209.714;  127.516
406.232;  428.548; -432.285; -413.487
406.523;  870.339;  641.706;  758.530
406.813;  141.732; -579.286; -644.484
407.104;  559.256;  261.708;  144.527
407.394;  267.282; -604.299; -591.462
407.685;  282.547;  336.715;  222.513
407.975;   84.771; -400.283; -382.490
408.265;  197.691; -134.289; -190.478
408.556;   84.568; -472.291; -459.475
408.846;  354.540;  474.706;  429.530
409.137;  162.703;   -1.288; -216.480
409.427;   90.048; -193.285; -271.487
409.717;   18.384; -776.273; -692.508
410.007;  257.039;    4.715; -170.486
410.298;  136.729; -360.295; -342.469
410.588;  100.144; -495.285; -510.486
410.878;   -8.382; -792.287; -873.482
411.168;  183.791; -481.298; -478.463
411.459;  219.563; -295.283; -242.489
411.749;   73.866; -609.292; -507.474
412.039;   34.000; -755.289; -386.480
412.329;  365.428;   40.722;  132.501
412.619;  292.632;  -62.286; -148.485
412.909;  655.595;  639.711;  594.521
413.199;  536.103; -130.280; -251.495
413.490;  712.082;  521.710;  352.523
413.780;  191.008;-1013.279; -913.496
414.070;  561.053;  -46.276;  235.497
414.360;  561.823; -729.278; -666.498
414.650;  656.412; -726.288; -688.482
414.940;  823.507; -538.280; -441.496
415.230; 1521.008;   50.712;   74.519
415.520;10089.725;  155.730;   66.486
415.809;40048.385; -305.281; -125.493
416.099;32266.640; -388.277; -229.501
416.389; 8696.369;  435.726;  236.494
416.679; 5304.610;   91.738;   85.473
416.969;  870.624; -527.287; -503.483
417.259;  992.011;  341.721;  171.503
417.549; 1181.883;  522.718;  318.508
417.838; 2730.548; -205.268; -147.518
418.128; 9198.390;  650.710;  492.522
418.418; 7752.992; -491.272; -579.509
418.708; 5146.069;    9.726;  -48.506
418.997;19431.364; -474.275; -480.505
419.287;20729.678; -733.273; -790.507
419.577;18937.862; -160.283; -123.489
419.866;61071.938; -588.277; -498.501
420.156;63305.020; -242.270;  -55.513
420.446;11989.500; -112.263;  -26.526
420.735; 1406.512; -376.271; -446.512
421.025; 1537.122; 1830.722;  315.502
421.314; 1066.009; -203.271; -226.512
421.604; 2129.438;   89.732;  233.484
421.893; 1199.004; -705.271; -602.511
422.183;  393.300; -487.263; -461.526
422.472;  628.406;  -36.271; -107.511
422.762;  720.672; -416.266; -379.521
423.051;  333.854; -916.276; -916.503
423.341;  445.381; -491.273; -439.507
423.630;  662.680; -121.265;   15.477
423.919;  603.963;   58.725;   49.495
424.209;  610.707;  -31.263;   56.473
424.498;  798.045;   68.732;  161.483
424.787; 1740.553; -535.267; -601.518
425.077; 5356.178;   34.735;   29.478
425.366; 7462.215; -734.262; -744.528
425.655;15968.182;  639.727;  259.493
425.945;35798.488; -313.247; -268.554
426.234;20483.846;  117.741;  300.467
426.523; 8284.152;  -86.259; -350.534
426.812;11558.767;  107.734;  159.480
427.101;16786.834; -127.269; -323.515
427.390;21332.525;  -55.270;  -86.514
427.680; 4641.079; -624.257; -411.538
427.969;  824.394; -330.255; -301.540
428.258;  483.068; -385.257; -477.536
428.547;  863.898;  449.728;  397.490
428.836; 1825.915; -421.253; -398.543
429.125; 2742.055; -199.259;  -72.534
429.414; 1279.646; -330.251; -294.548
429.703; 5002.346; -231.251; -213.548
429.992;15215.950; -938.250; -828.549
430.281;10224.490; -397.264; -331.524
430.570;  973.733;  -21.252;   32.454
430.859;  920.452;  279.741;  352.466
431.148;  785.083;  636.752;  631.446
431.437;  500.032;  391.748;  367.454
431.725;  245.570; -544.257; -481.536
432.014;  135.625; -845.253; -756.545
432.303;  562.384; -149.239; -105.569
432.592;  890.599; -460.263; -178.525
432.881; 1640.584; -601.248; -437.554
433.169;10035.995; -343.255;  -61.540
433.458;20644.430;  445.765;  540.424
433.747; 8770.322; -397.261; -289.529
434.036; 1351.052; -275.242; -280.564
434.324; 3354.367; -395.249; -379.551
434.613; 5909.043;   40.757;  159.437
434.902; 1997.071;  333.760;  439.433
435.190;  881.583;   75.761;  295.431
435.479;  510.219;  -52.245;   83.441
435.767;  132.730; -411.244; -427.561
436.056;  282.246; -340.242; -294.563
436.345;  580.674; -372.240; -223.568
436.633;  626.161;   60.750;  383.450
436.922;  455.477;  208.760;  414.432
437.210;  834.716; -194.236;    1.426
437.499; 2619.527; -583.235; -432.576
437.787; 2994.816; -339.236;  -10.574
438.075;  792.590;   56.761;  162.430
438.364; 1129.094;  -44.238;  250.429
438.652;  671.234; -286.226; -138.592
438.941;  237.486;    3.770;  269.415
439.229;    2.029; -665.252; -466.545
439.517;   70.539; -160.234;  -85.577
439.806;  -16.844; -501.225; -290.595
440.094;  276.849;  377.766;  650.421
440.382;  232.254; -653.233; -302.580
440.670;  296.027; -361.235; -285.576
440.959;   22.379; -347.223; -170.599
441.247;   81.802; -151.229; -109.587
441.535;  161.436; -266.235;   31.423
441.823;   31.145; -497.234; -305.578
442.111;  309.307;  173.771;  327.412
442.400;  742.718; -628.245; -335.559
442.688; 1967.548; -111.234; -620.579
442.976; 1398.497; -786.213; -450.617
443.264;  107.665; -324.224; -364.597
443.552;  157.836; -258.226;   51.408
443.840;  325.335;  602.765;  876.423
444.128;  175.253;  265.767;  269.420
444.416;  -25.689; -694.228; -312.588
444.704;    2.519; -465.219;  -92.605
444.992;  133.740;   -0.226;  240.407
445.280;   62.187; -517.230;  -94.585
445.568;   28.902; -694.212; -396.618
445.856;  511.497; -174.221;  357.398
446.143; 1091.114;  -54.220;   -7.604
446.431;  942.616;  -25.228;  625.411
446.719;  435.045;  489.783;  675.391
447.007;  334.980;  481.769;  705.416
447.295;  362.275;  597.777;  871.402
447.583;  128.898; -464.229;  -34.587
447.870;  180.693; -434.221; -202.601
448.158;  563.085; -104.230;  129.415
448.446;  388.215; -800.219; -338.604
448.733;  251.266;   13.776;  269.403
449.021;  390.001;   60.788;  341.382
449.309;  230.221; -296.210;  208.379
449.596;  351.640;  128.783;   59.392
449.884;  203.684; -571.222; -325.600
450.172;  199.523; -756.227; -406.590
450.459;  743.074;  645.786;  780.387
450.747; 3698.438; -411.218; -147.608
451.034;12142.617;  493.772;  889.411
451.322;10187.178; -413.214; -170.614
451.609;  889.968;  292.777;  508.403
451.897;  882.806; -550.203; -183.634
452.184; 2757.575; -622.223; -400.598
452.472; 2743.250;   97.792;  269.375
452.759;  604.616;  512.781;  864.395
453.047;  182.298; -407.212; -125.617
453.334;  115.726; -732.219; -216.606
453.621;  126.582; -438.214; -161.615
453.909;  248.295;   13.796;  384.368
454.196;  162.156; -299.199; -123.641
454.483;  356.623;  317.798;  540.364
454.771;  205.854; -215.208;  196.374
455.058;   64.458; -316.207;  102.374
455.345;  258.930;   71.807;  344.347
455.632;  143.163; -128.207;  235.373
455.919;  103.286;  -82.196;  182.354
456.207; -155.038; -774.198; -450.642
456.494;  -47.361; -475.200;  -66.639
456.781;   -8.483; -399.202; -198.635
457.068;   52.772; -253.206;  -29.628
457.355;  -48.627; -698.206; -401.629
457.642;  -26.620; -552.205; -290.630
457.929;  -28.382; -778.194; -417.651
458.216;   92.298; -575.212; -354.617
458.503;  390.124; -173.193;  -19.652
458.790;  312.751; -864.208; -630.625
459.077;  403.324;  -77.202;  110.364
459.364; 1208.209; -350.195; -210.649
459.651; 2571.669;  -46.206;  220.372
459.938; 1246.138; -864.209; -665.623
460.225;  237.028;  132.799;  276.363
460.512;  -99.218; -836.197; -688.645
460.799;  202.836;  -32.218;  320.392
461.086;   89.546; -370.200; -251.640
461.372;   32.163; -509.198; -279.642
461.659;  175.588; -165.196;  108.354
461.946;   91.322; -445.193;  -54.651
462.233;  416.242;  842.800;  888.361
462.519;  449.038; -814.201; -464.639
462.806; 1508.983; -768.197; -497.645
463.093; 1384.150; -445.191;  -66.656
463.380; -100.194; -920.186; -824.664
463.666;   63.386; -259.197;  -18.646
463.953;  123.502; -406.195; -243.648
464.239;  296.502; -173.195;  -77.648
464.526;  622.816;  413.806;  743.350
464.813;  469.866; -565.190; -304.658
465.099;  583.924;  606.807;  607.348
465.386;  598.929;  903.807;  921.348
465.672;   -8.717; -694.197; -522.645
465.959;    7.590; -598.188; -520.662
466.245;    6.329; -468.193; -359.652
466.532;  136.499; -109.195;   63.352
466.818;  124.305; -357.186; -216.664
467.104;  -39.441; -488.182; -415.672
467.391;  -59.632; -628.189; -459.658
467.677;   55.910; -289.186;    9.335
467.964;   -5.223; -682.189; -471.660
468.250;   84.614; -331.186; -160.665
468.536;  140.770;   90.811;  180.341
468.822;  -91.170; -821.184; -574.668
469.109;  271.967;  351.827;  471.311
469.395;  352.642;  729.808;  787.346
469.681;  321.274;   46.811;  156.341
469.967; 1898.480; -699.188; -382.660
470.254; 4120.291; -494.188; -306.662
470.540; 2756.786; -601.196; -476.646
470.826;  364.574; -488.181; -397.675
471.112;  553.234;  288.816;  113.331
471.398;  153.141; -253.183;  -58.670
471.684;   38.512; -626.177; -447.680
471.970;  -84.321; -918.180; -981.675
472.256;   36.841; -521.192; -441.654
472.542;   -8.918; -499.171; -434.691
472.828;   -8.046; -743.182; -607.672
473.114;   25.841; -380.166; -283.700
473.400;   12.334; -504.175; -293.684
473.686;   30.349; -452.166; -400.701
473.972;   85.254; -230.174; -131.687
474.258;  -99.632; -925.173; -843.689
474.544;  328.601; -183.178;   -2.679
474.830;  471.536;  -65.175;   45.316
475.116;  728.068; -123.190; -196.658
475.401;  964.582; -558.180; -467.676
475.687;  266.881; -725.180; -718.676
475.973;  -38.536; -673.181; -770.673
476.259;  444.539;  736.825;  764.315
476.544;  500.023; -539.176; -437.682
476.830; 1223.277; -398.172; -322.690
477.116; 1079.621; -430.177; -336.682
477.401;  271.482;  346.820;  358.324
477.687;  -40.566; -289.175; -405.684
477.973;   60.069;   21.819;   28.326
478.258;  -10.623; -448.163; -348.706
478.544;   81.321;   21.815;   61.334
478.829; -119.610; -818.171; -738.692
479.115;  -93.224; -749.172; -651.690
479.401;  -24.252; -444.174; -449.686
479.686;   49.880; -253.180;  -74.676
479.972; -100.992; -886.178; -776.680
480.257;   45.043; -258.166;  -65.700
480.542;   -7.905; -614.170; -469.693
480.828;  502.432; 1288.824; 1392.317
481.113;  -57.271; -464.176; -426.683
481.399;  -27.492; -236.161; -202.711
481.684; -106.658; -620.166; -462.700
481.969;   55.026; -158.159;  -73.713
482.255;   -7.791; -439.169; -285.695
482.540;  -46.692; -569.178; -441.680
482.825;   -6.601; -395.187; -404.663
483.110;  129.014;  -85.169; -105.696
483.396;  202.555; -840.157; -652.718
483.681;  797.354;  543.826;  730.313
483.966;  195.618; -696.160; -700.712
484.251;  -18.047; -404.174; -310.687
484.536;    6.456; -356.165; -378.703
484.822;   20.457; -205.173; -218.687
485.107;  -67.493; -599.152; -502.726
485.392;  263.064;  662.836;  541.296
485.677;  145.227;  354.832;  163.302
485.962;  198.252;  160.843;  270.283
486.247;  169.487;  -14.162;   -8.707
486.532;   57.344; -178.166; -325.701
486.817;  292.901;  381.839;  431.291
487.102;  143.284; -453.154; -514.722
487.387;  988.058; -637.156; -652.718
487.672; 1826.071; -154.164;  -38.705
487.957; 1126.010; -394.160; -286.711
488.241;  299.229; -290.150; -314.729
488.526; 1150.508; -280.152; -148.726
488.811; 1761.911; -881.177; -818.680
489.096; 1342.587; -666.154; -702.723
489.381;  787.104;    3.847;  162.275
489.666;  581.608; -428.161; -510.710
489.950;  325.692;  558.846;  627.277
490.235;  -97.778; -480.151; -458.728
490.520; -131.193; -756.161; -723.710
490.804; -116.939; -827.156; -736.719
491.089;  -19.250; -469.149; -299.732
491.374;   39.269; -132.164;  -75.704
491.658;  -83.434; -817.147; -717.735
491.943;  190.014; -657.152; -609.727
492.227;  344.678; -178.155;  -38.721
492.512;   63.252; -294.157; -341.717
492.797; -153.358; -713.149; -716.731
493.081; -112.531; -588.147; -598.735
493.366; -121.491; -751.161; -635.711
493.650;  383.641;  831.859;  917.254
493.935;   12.165; -648.147; -447.734
494.219; -135.177; -778.142; -687.743
494.503; -100.965; -585.150; -487.730
494.788;   94.540;   46.842;   74.285
495.072;  164.831;  184.850;  434.271
495.356;  246.555; -463.148; -343.733
495.641;  635.178; -812.146; -736.736
495.925;  616.367; -976.156; -903.719
496.209;   47.049; -599.149; -451.732
496.494; -104.676; -763.142; -544.744
496.778;  -27.716; -364.154; -360.722
497.062; -138.933; -819.156; -627.719
497.346; -122.887; -869.160; -640.711
497.631;  268.659;  580.852;  560.266
497.915;  121.992;  -64.145;  175.261
498.199;   49.355; -341.157; -277.718
498.483;   28.606; -562.152; -508.725
498.767;  327.732;  301.850;  300.271
499.051;  278.146; -126.149; -100.732
499.335;   -2.156; -693.149; -739.731
499.619;  -98.524; -381.129; -423.767
499.903;   42.976; -272.155;  -65.721
500.187;   -5.407; -588.153; -316.724
500.471;  -25.387; -796.152; -595.727
500.755;  159.707;   62.839;  -96.710
501.039;    9.377; -270.155; -357.721
501.323;  171.343;  -21.141;  264.254
501.607;   28.677; -447.163; -503.706
501.891;  -64.443; -607.156; -512.718
502.174;  -80.193; -726.144; -585.741
502.458;  121.019;   89.849;  370.273
502.742;   82.775; -180.138; -191.751
503.026;   98.064; -412.147; -254.734
503.310;  238.725; -437.159; -375.713
503.593;  146.566; -464.147; -325.735
503.877;  148.829; -232.133; -156.760
504.161;  237.297;    2.847;  -50.724
504.444;  121.843; -841.158; -710.716
504.728;  665.568; -487.164; -522.704
505.012; 1056.128; -257.150;  -76.729
505.295;  871.109; -417.161; -212.711
505.579;  783.266; -256.156; -496.719
505.862; 1104.687; -555.145; -333.738
506.146; 1020.728; -681.159; -758.714
506.429;  639.629;  568.841;  461.286
506.713;   99.724; -732.151; -667.728
506.996;  517.483;   90.846;  295.278
507.280;  459.961; -633.165; -474.703
507.563;  344.075; -469.155; -261.721
507.847;  108.695; -423.153; -112.724
508.130;  105.410; -665.161; -456.711
508.413;  130.637; -758.167; -577.700
508.697;  360.337; -151.167;   12.300
508.980;  187.096; -422.153; -312.724
509.263;  -27.030; -466.155; -450.720
509.547;   54.328; -124.150;   82.271
509.830;   47.912; -172.160;  140.289
510.113;  163.866;  128.844;  298.281
510.396;    4.804; -530.152; -300.725
510.680;  176.589; -818.145; -812.738
510.963;  895.189;  184.846;  180.277
511.246;  726.338; -493.150; -357.730
511.529;  385.096; -482.145;  -83.739
511.812;  552.924; -250.134;   10.241
512.095;  346.020; -740.151; -396.728
512.378;   99.572; -317.147; -245.736
512.661;  -25.515; -703.137; -623.753
512.944;   12.526; -750.142; -637.744
513.227;   74.181; -170.137; -171.752
513.510;   22.807; -479.144; -671.741
513.793;   23.449; -485.140; -435.747
514.076;  201.204;  -43.127;  -39.771
514.359;  111.351; -294.149; -135.732
514.642;  105.730; -442.142; -567.744
514.925; 1171.447;  581.860;  561.253
515.208; 1429.119; -498.134; -443.758
515.491;  954.138; -276.133; -182.761
515.773;  541.412; -410.143; -337.742
516.056; 3205.194;  249.864;  409.246
516.339; 4055.199; -754.136; -652.755
516.622; 2729.035; -518.150; -488.730
516.904; 1813.921;  882.857;  975.257
517.187;  746.980; -730.138; -523.752
517.470;  552.520; -568.143; -510.743
517.752;  615.003; -624.136; -470.756
518.035;  459.363; -708.139; -725.749
518.318;  496.799; -799.136; -744.755
518.600; 3612.043; -300.132; -325.762
518.883; 4967.029;  310.858;   88.256
519.165; 2428.870; -585.138; -426.751
519.448;  559.842;  -61.132;  -19.762
519.730;  255.814; -573.126; -415.773
520.013;  504.833;  588.867;  664.240
520.295; 1165.227;  -94.134;  -15.759
520.578; 2580.560; -335.131; -305.764
520.860; 2851.643; -254.132;   56.238
521.143; 1494.906; -763.135; -584.756
521.425;  702.631; -251.125; -279.775
521.707;  970.905; -622.127; -380.771
521.990; 2664.205; -199.127;  167.229
522.272; 2977.151; -116.140;   -4.748
522.554; 1368.513; -237.143; -157.742
522.836;  538.024;  -24.134;   99.241
523.119;  297.962; -496.148; -189.734
523.401;  221.169; -448.130; -314.766
523.683;   70.886; -865.137; -693.753
523.965;  426.677;  408.862;  260.248
524.247;  430.860;   54.878;  170.220
524.529;  271.926; -451.134; -367.759
524.812;  558.372;   -3.130;  191.234
525.094; 1175.976; -773.138; -631.751
525.376; 1997.144; -143.124;   78.223
525.658; 1191.495; -441.136; -339.754
525.940;  -32.845; -805.131; -671.764
526.222;   40.600; -188.136;  -88.755
526.504;  177.753; -190.131;   32.237
526.786;  213.930; -960.133; -647.760
527.068;  388.851; -124.123;  -67.778
527.349;   62.791; -865.137; -774.754
527.631;  188.942; -137.132;   22.238
527.913;  168.404; -664.127; -450.771
528.195;  169.022; -761.125; -639.774
528.477;  351.620;  -93.134;  -30.758
528.759;  158.171; -648.130; -522.766
529.040;   94.149; -569.123; -293.778
529.322;   83.126; -235.125;  -10.774
529.604;  210.874;  -47.130;   93.233
529.886;  171.714; -546.126; -302.773
530.167;  211.763;  232.870;  192.235
530.449;  103.371;    1.853;   63.265
530.731;  -18.941; -572.122; -459.779
531.012;   89.087; -513.120; -216.784
531.294;   87.239; -118.116;  -43.792
531.575;  266.731;  290.875;  538.225
531.857;   41.713; -548.135; -266.757
532.138;  195.941; -113.141;   40.254
532.420;  276.308;  294.865;  403.244
532.701;  237.133; -722.133; -751.760
532.983;  528.737;  232.867;  182.239
533.264;  200.111; -243.126;  175.228
533.546;  -89.600; -491.136; -508.755
533.827;  102.328;  173.867;   -1.759
534.109;   15.313; -352.135;  -80.757
534.390;   71.248; -725.132; -582.762
534.671;  304.007; -270.135;  -82.756
534.953;  174.653; -751.123; -611.779
535.234;   32.219; -426.117; -255.789
535.515; -186.302; -891.119; -735.785
535.796;  -56.102; -431.128; -193.770
536.078; -234.557;-1050.124; -904.777
536.359;    4.354;  -22.123;    3.221
536.640;  -55.276; -480.125; -197.774
536.921;  258.481;  225.871;  143.232
537.202;  499.472;  -87.138;  -16.751
537.483;  686.859;  251.869;  377.236
537.764;  305.263;   17.870;   98.235
538.045;  -71.081; -543.134; -371.758
538.326;  -66.216; -596.129; -447.768
538.607;   -8.894; -686.127; -476.771
538.888;  267.875;   98.879;    5.218
539.169;  242.567; -704.122; -535.781
539.450;  512.880;  236.871;   16.233
539.731;  296.980; -361.121; -182.783
540.012;  206.887;  199.880;  412.216
540.293;  134.536;   82.876;  158.224
540.574;  -15.833; -895.113; -717.796
540.855;  680.378;  435.879;  377.218
541.136;  766.264;   47.878;  139.220
541.416;  381.972; -161.130; -220.766
541.697;  293.053; -274.131; -170.763
541.978; 1553.811; -270.135; -315.757
542.259; 1918.306; -211.127; -236.771
542.539;  894.231; -191.116; -186.790
542.820;  307.231;  461.875;  480.225
543.101;  161.091;  -52.145;  -77.738
543.381;  -13.495; -638.127; -591.771
543.662;  426.802;  159.873; -254.771
543.942;  780.000; -751.127; -830.770
544.223; 1565.066;  193.878;  161.219
544.504; 1042.343; -275.124; -182.777
544.784;  841.814; -592.126; -408.773
545.065; 2439.136;  104.884; -254.791
545.345; 2876.798;  227.881;   14.215
545.626; 1870.366;  -14.113; -108.796
545.906; 1310.663;   77.869;   98.235
546.186;  524.320;   92.874;  -95.773
546.467;  307.246;   99.877;  -95.778
546.747;  490.031;  264.884;  327.210
547.027;  544.741;   91.876;  111.223
547.308;  413.499; -376.127; -530.770
547.588;  612.785;  299.871;  371.232
547.868;  317.364;  458.870;  588.235
548.149;  373.846;  609.885;  593.207
548.429;  201.103; -347.127; -299.771
548.709;  206.886; -645.120; -461.784
548.989;  745.011;   84.882;   88.213
549.269; 3171.740;   10.868;  139.239
549.550; 7030.852;  215.877;  117.222
549.830; 6276.590; -758.111; -556.799
550.110; 1234.900; -468.110; -320.801
550.390; 1191.359; -128.122;  -56.779
550.670; 1572.060; -868.114; -783.795
550.950; 1177.277; -509.121; -471.782
551.230;  355.272;  549.879;  460.218
551.510;  -41.924; -381.121; -326.782
551.790;   24.210; -173.109; -127.803
552.070;  498.946;  940.877; 1181.223
552.350;  578.903; -492.119; -377.786
552.630;  898.069;   -2.121;   77.219
552.909;  550.337;  181.884;   73.209
553.189;  313.349;  -49.132;   33.237
553.469;  233.803; -703.119; -514.786
553.749;  231.107; -469.127; -357.772
554.029;  276.225;   33.883;  -24.790
554.308;  197.151; -154.115;  -37.794
554.588;   88.097; -196.128; -204.770
554.868;   69.878; -366.121;  -47.782
555.147;  224.748; -114.115;  -46.793
555.427;  914.840; -260.116; -250.792
555.707; 5820.745; -284.115; -200.793
555.986; 6717.694; -719.111; -538.800
556.266; 3714.829;   23.884;   72.210
556.546;  106.376; -888.121; -675.782
556.825;  336.057; -657.114; -556.794
557.105; 2583.094; -125.128;   17.230
557.384; 3072.435;  122.884;  187.209
557.664; 1153.039; -717.116; -508.792
557.943;  148.478; -557.121; -411.782
558.222;  213.215; -345.118; -344.788
558.502;  419.749; -116.115;  -76.793
558.781;  755.543;  194.885;  499.208
559.061;  588.415; -232.118; -227.788
559.340;  522.721;  302.883;  353.211
559.619;  999.229;   93.884;  148.210
559.899; 1476.624; -239.117; -266.789
560.178; 1340.849; -778.115; -593.793
560.457; 4695.226; -623.117; -562.790
560.736; 6248.796; -472.111; -482.800
561.015; 4302.691; -500.128; -502.769
561.295;  542.237;  180.893;  215.193
561.574;  500.145;  119.885;  116.207
561.853;  757.416;  274.891;  303.197
562.132;  770.252;  -45.114;  182.206
562.411;  724.470;  396.879;  553.219
562.690;  158.043; -592.115; -458.792
562.969;  310.575;  472.888;  630.203
563.248;  976.267; 2966.878; 2487.219
563.527;  429.195; -290.111; -408.800
563.806;  511.403; -650.127; -521.771
564.085;  585.357; -297.105; -206.810
564.364;  320.928; -594.117; -405.790
564.643;  735.570; -276.121; -223.781
564.922; 2815.608;  221.890;  397.198
565.201; 2705.213; -640.109; -700.803
565.479; 1220.741; -297.115; -219.792
565.758;  435.894; -810.128; -712.770
566.037;  687.014; -155.109; -100.803
566.316;  353.635; -286.116;  -28.791
566.595;   67.545;  -17.115;  -12.793
566.873;  185.098; -166.111;  -79.801
567.152; -124.225; -490.113; -590.797
567.431;   49.430; -113.116;    6.210
567.709;   17.037; -344.107; -212.807
567.988;  338.457; -810.114; -769.794
568.266;  769.445; -160.115;  -68.793
568.545;  553.320; -644.100; -514.819
568.824;  906.040;  160.885;  356.208
569.102;  750.256; -351.114; -235.794
569.381;  310.539; -492.116; -407.792
569.659;  -64.930; -553.113; -553.796
569.938;   -6.136; -743.122; -465.780
570.216;  138.718; -225.109; -225.804
570.494;  -88.639; -632.114; -572.795
570.773;  101.376;  202.879;  114.218
571.051;  -22.050; -373.123; -357.778
571.330;  103.967; -221.113; -174.796
571.608;   61.044; -181.098; -173.823
571.886; -135.913; -671.111; -581.799
572.164; -150.322; -739.121; -621.782
572.443;  -88.038; -562.105; -512.811
572.721;  -81.174; -399.117; -289.790
572.999;  -57.382; -280.117; -168.788
573.277;  172.554;  379.894;  620.191
573.555;  456.156;   94.894;   37.190
573.834; 1957.417;  -86.117; -114.788
574.112; 2295.340;  880.893;  811.193
574.390;  722.596; -143.111;  -96.801
574.668;   43.176;  -91.112;  -61.797
574.946;  -33.343; -165.106; -187.810
575.224;    9.813;   71.891;  -16.803
575.502;  -21.068; -200.116; -204.791
575.780; -159.822; -767.112; -829.798
576.058;  354.095; 1589.889; 1004.200
576.336;  -57.497; -210.110; -129.801
576.614; -120.522; -511.112; -340.798
576.891;   49.451; -711.115; -823.794
577.169;  711.229; -158.108; -285.805
577.447;  887.840;  169.893;  202.193
577.725;  459.584;  629.888;  854.201
578.003;   30.781;  -71.112; -371.798
578.280;   90.474; -208.104; -242.812
578.558;   48.549; -450.115; -422.793
578.836;  183.360; -210.114; -145.795
579.114;   20.876; -630.112; -670.797
579.391;  124.319;   -6.117;  -18.789
579.669; -177.648; -595.114; -704.794
579.947;  244.835; -326.107; -127.806
580.224;  440.235; -692.107; -524.806
580.502;  479.141;  127.893;   76.193
580.779;   47.427;  -42.117;   75.210
581.057; -151.682; -584.109; -470.804
581.334; -185.306; -726.102; -695.815
581.612;   98.058;   54.895;  511.190
581.889;  -44.488;  -83.101; -129.818
582.167;  -70.569; -298.099; -190.821
582.444; -205.195; -845.102; -814.817
582.721;  229.206;  657.899;  715.183
582.999;  101.128; -326.100; -167.821
583.276;  747.956; -812.123; -713.779
583.553; 1026.598; -364.102; -294.816
583.831;  267.970; -607.104; -631.812
584.108;  116.026;  349.892;  174.195
584.385;    6.093; -122.102;  -98.815
584.662; -130.402; -651.111; -828.801
584.940;  110.597;  204.889;  204.199
585.217;  -49.531;  -73.113; -303.796
585.494;   79.609;   71.890;  118.198
585.771;  287.219; -250.109; -354.804
586.048;  698.469; -196.113;  -76.796
586.325;  418.001; -721.110; -773.801
586.602;  149.175;  230.896;  213.188
586.879;  -54.177; -499.100; -580.820
587.156;   60.759; -156.105; -331.810
587.433; -109.198; -701.102; -667.817
587.710;  120.279;  152.888;  234.202
587.987;  450.166; -264.105; -236.811
588.264; 1166.681;  315.888;  387.202
588.541; 2093.778;  -61.104;   26.187
588.818; 3815.522;   72.892;  171.196
589.095; 3313.572; -163.104; -174.812
589.371;  505.417; -459.109; -414.804
589.648;  -13.360; -581.107; -437.807
589.925;    3.862; -517.114; -621.795
590.202;   -3.922; -741.112; -607.798
590.478;  149.568; -166.105;  -73.811
590.755;  386.130; -241.108; -132.806
591.032; 3671.804; -741.110; -699.802
591.308; 4789.898; -732.094; -790.831
591.585; 2530.604; -573.110; -560.802
591.862;  130.304;-1056.102; -950.817
592.138;  102.627; -475.108; -474.805
592.415;  225.676; -486.104; -495.813
592.691; 2211.373;  460.896;  518.188
592.968; 2578.947; -208.098; -123.824
593.244; 1289.630; -695.116; -595.790
593.521;   85.904; -105.102;  -42.817
593.797;  -87.539; -810.122; -720.780
594.074;  438.964; -611.096; -588.826
594.350; 1014.379;  828.905;  729.172
594.626;  447.398; -303.111; -283.801
594.903;   92.305; -643.101; -645.817
595.179;  318.881;  243.896;  418.187
595.455;    3.942; -136.107; -150.807
595.731;    4.383;  -19.103;  -38.814
596.008;  -59.209; -464.111; -434.800
596.284;   52.026; -187.100; -242.820
596.560;   33.906; -501.093; -493.833
596.836;  322.261; -173.105;  -70.810
597.112;  507.128; -582.108; -437.805
597.388;  419.161;  -49.097;  -48.826
597.665;  223.473;  437.887;  530.203
597.941; -116.354; -572.089; -658.839
598.217;    4.309; -323.110; -293.802
598.493;  403.021;   61.891; -204.804
598.769;  696.418; -175.100;  -50.819
599.045;  393.832; -490.108; -562.806
599.321;   70.025; -193.100; -261.820
599.597;  203.320; -355.109; -476.804
599.872;  702.478;  409.896;  429.187
600.148;  521.863;  -61.097; -172.826
600.424;  429.039;   91.893;  202.193
600.700;  346.041; -170.107; -280.807
600.976;  158.555; -442.097; -464.825
601.252;  342.816; -226.109; -272.803
601.527;  241.979; -833.104; -840.813
601.803;  170.569; -453.105; -404.812
602.079;  288.918; -124.100; -118.819
602.354;  760.020; -620.092; -531.835
602.630; 1153.569; -140.113; -482.796
602.906; 3569.112; -910.101; -863.818
603.181; 9503.703; -627.119; -534.786
603.457; 8180.860;   98.903; -278.826
603.733; 1152.181; -605.120; -626.783
604.008; 1531.557; -245.106; -164.810
604.284; 4144.607; -636.101; -580.817
604.559; 3868.084;   -3.112;  -42.799
604.835;  737.561; -163.105; -225.810
605.110;  549.232; -732.099; -892.821
605.385; 1045.710;  224.907;  267.167
605.661;  973.182; -625.095; -729.829
605.936; 1595.232; -664.108; -737.806
606.211; 1418.692;  -17.103; -170.815
606.487;  260.055; -329.114; -376.794
606.762;    0.903; -791.119; -745.786
607.037;  -73.839; -501.105; -433.810
607.313; -101.227; -589.096; -574.828
607.588;  -22.643; -375.106; -137.810
607.863;  102.611;  -28.101; -143.818
608.138;  341.807;  513.890;  516.198
608.413;   -1.763; -576.099; -592.822
608.688;   68.127; -203.108; -267.805
608.964;  238.849; -509.106; -218.809
609.239;  365.458; -107.105; -212.810
609.514;  381.768;  281.895;  240.188
609.789;  886.174; -187.104; -716.812
610.064; 1162.672; -435.096; -609.827
610.339; 1236.817; -855.109; -799.804
610.614; 1601.125; -131.100; -315.820
610.889;  985.069;  215.895;  107.188
611.163;   19.070; -407.104; -591.812
611.438;   91.756;   81.886; -167.794
611.713;   -4.593; -467.101; -499.817
611.988;   69.010; -144.101; -328.818
612.263;  -62.606; -771.102; -717.815
612.538;  369.668;  385.887;  251.204
612.812;  183.127; -832.100; -911.820
613.087;  173.844; -358.098; -338.823
613.362; -111.858; -497.107; -557.807
613.637;   94.587;  261.897;  138.186
613.911;  -21.179; -256.092; -345.835
614.186;  173.640; -249.107; -292.807
614.460;  873.946; -842.081; -758.854
614.735; 1097.477;  -55.087;  -17.843
615.010;  254.664;   43.912;  -82.841
615.284;  412.927;  360.892;  246.195
615.559;  452.419; -792.092; -955.835
615.833;  442.434;  -76.099;  -87.822
616.108;    0.335; -225.090; -390.837
616.382;  245.179;  274.913;  402.156
616.656;  234.135; -241.090; -232.837
616.931;  722.635; -785.099; -700.822
617.205; 1462.080; -973.104; -979.813
617.480; 1359.029;  -91.125;    6.225
617.754;  220.525; -396.125; -128.774
618.028;  -11.514; -369.129; -382.768
618.302;   79.925;   73.892;  -25.805
618.577; -131.712; -371.103; -518.815
618.851; -133.288; -399.109; -600.803
619.125;  -98.074; -335.134; -378.759
619.399;  -32.120; -244.104; -374.813
619.673;  -88.759; -330.115; -515.792
619.947;  -67.940; -333.114; -448.795
620.222;  -40.900; -198.110; -204.801
620.496;   13.578;  -47.121;  -96.782
620.770;    5.667; -187.122;  -93.781
621.044;  345.059;  323.895;  346.190
621.318; 1009.582; -653.120; -614.783
621.592;  915.079; -430.121; -409.783
621.866;  456.685; -476.112; -572.799
622.140;   38.932; -207.116; -356.791
622.413;   98.491;  138.889;  112.200
622.687; -105.293; -746.101; -492.817
622.961;   33.625; -130.108; -143.805
623.235; -128.308; -633.111; -661.800
623.509; -215.232; -816.105; -848.811
623.783;   33.436;  -12.107;   48.193
624.056;  -25.417; -254.120; -280.783
624.330;  147.076;   63.888;   -3.797
624.604;   47.028; -271.116; -355.790
624.877;  133.806;  180.890;   26.198
625.151;   35.253; -249.114; -238.794
625.425;  -20.317; -150.103; -283.814
625.698;  -72.504; -367.119; -374.785
625.972; -189.691; -799.110; -765.802
626.245;  179.030;  685.884;  484.210
626.519;  -89.311; -426.120; -340.784
626.792;  -53.659; -192.107; -380.807
627.066; -162.643; -485.122; -662.779
627.339; -169.197; -736.110; -663.802
627.613;  103.087;  351.880;  148.216
627.886;  105.511;  187.891; -612.803
628.160;  -28.619;  312.880; -161.783
628.433; -208.068; -695.125; -703.775
628.706; -164.211; -517.120; -615.784
628.979;   53.441;  296.876;  117.223
629.253; -158.098; -785.119; -833.786
629.526;  530.512; -334.126; -253.772
629.799;  421.451; -641.123; -479.778
630.072;  204.188; -497.128; -516.769
630.346; -184.669;-1115.116;-1080.790
630.619;  611.943; -467.107; -545.808
630.892;  953.093;  709.889;  593.200
631.165;  519.680;  790.896;  679.187
631.438; -198.719;-1092.112;-1055.798
631.711;  116.255;  453.877;  257.221
631.984; -117.876; -523.117; -624.789
632.257; -158.981; -636.117; -681.789
632.530;  -73.304; -412.119; -433.785
632.803;   38.551; -109.115;    7.207
633.076; -115.554; -360.123; -422.777
633.349;   60.993;  173.872;  121.231
633.622;  -40.005; -187.119; -240.785
633.895; -267.117; -903.120; -823.783
634.167; -117.086; -496.126; -525.773
634.440;   29.439;  -19.116; -137.792
634.713;  -11.899;  -22.119; -120.786
634.986;  174.280;  593.871;  453.233
635.258; -163.152; -507.115; -597.793
635.531;  219.314;  742.882; -343.788
635.804;  -51.478; -303.117; -318.789
636.077; -201.066; -830.116; -852.791
636.349;  -31.954; -586.115; -474.793
636.622;  735.311; 1695.874; 1392.228
636.894;  323.789; -474.120; -909.784
637.167;  168.003; -836.127; -789.771
637.439;   25.998; -278.128; -213.770
637.712;  -74.887; -312.126; -293.772
637.984; -179.265; -635.116; -707.791
638.257;  591.847;  515.877;  488.222
638.529;  703.434; -881.125; -924.776
638.802;  318.588; -508.128; -449.769
639.074; -212.834; -927.122; -952.781
639.346; -260.685; -942.135; -930.757
639.619;   18.328;  -79.142; -319.744
639.891;  -15.143;  -83.122; -168.779
640.163; -157.840; -689.122; -756.780
640.435;   66.262;  273.878;  103.220
640.708;   53.065;  -72.122; -132.780
640.980;  -82.333; -366.122; -362.781
641.252;  354.670;  -25.121;  -71.781
641.524; 2671.072;  580.879;  573.219
641.796; 2468.575;-1094.121; -907.782
642.068;  448.777; -191.121; -300.782
642.340; -105.421; -486.121; -566.783
642.613;   99.982;  294.880;  323.217
642.885; -195.016; -787.120; -878.783
643.157; -125.613; -810.120; -658.784
643.428;  109.589;  170.880;  218.216
643.700; -101.108; -498.120; -425.784
643.972;  -42.306;  -16.119; -133.785
644.244; -156.103; -474.119; -559.785
644.516;  -58.801; -250.119; -114.786
644.788;  159.902;  662.881;  548.214
645.060;  -31.196;  -12.119; -124.786
645.332; -175.894; -525.118; -535.787
645.603;   80.809;  479.882;  342.213
645.875; -120.989; -334.118; -369.787
646.147;  386.414; 1487.882; 1242.212
646.418; -140.784; -931.117; -918.788
646.690;  158.119; -714.117; -715.789
646.962;   26.421; -413.117; -451.789
647.233;   21.924;   15.883;   11.211
647.505; -169.074; -595.117; -475.790
647.776;  126.628;  328.884;  229.210
648.048;  -23.569; -248.116; -418.790
648.320; -137.767; -752.116; -679.791
648.591; -300.064;-1055.116; -958.791
648.862; -138.462; -505.116; -577.792
649.134;   62.341;  115.885;  198.208
649.405; -116.257; -661.115; -618.792
649.677;  -95.354; -475.115; -598.793
649.948;  -32.552; -181.115; -296.793
650.219;    3.051;  -37.115; -147.793
650.491; -124.547; -431.114; -520.794
650.762; -240.845; -705.114; -731.794
651.033; -139.142; -437.114; -424.795
651.304; -202.940; -743.114; -728.795
651.576; -133.737; -680.114; -645.795
651.847;  -32.435; -250.113; -140.796
652.118;  -36.332;  -32.113; -189.796
652.389; -180.830; -639.113; -722.796
652.660;  -28.327; -147.113;  -89.797
652.931; -246.025; -897.112; -871.797
653.202; -139.723; -382.112; -541.798
653.473; -131.420; -633.112; -533.798
653.744;  191.182; -595.112; -590.798
654.015;  164.485; -356.112; -303.799
654.286; -154.113; -642.111; -663.799
654.557;  -96.510; -586.111; -521.799
654.828; -306.308;-1114.111;-1088.800
655.099; -155.105; -404.111; -291.800
655.370; -137.203; -427.111; -543.801
655.641; -219.100; -656.110; -714.801
655.911; -169.698; -618.110; -638.801
656.182;  130.704;  437.890;  387.198
656.453;  230.207;  830.890;  746.198
656.724; -132.891; -466.110; -426.802
656.994; -157.588; -553.109; -568.803
657.265; -224.386; -862.109; -873.803
657.536; -139.283; -500.109; -377.804
657.806; -170.081; -561.109; -593.804
658.077; -254.578; -866.109; -950.804
658.347; -155.476; -523.108; -598.805
658.618; -228.474; -646.108; -694.805
658.888;   11.729;  -41.108;  112.195
659.159; -140.669; -432.108; -548.806
659.429;  -69.466; -292.108; -349.806
659.700;    5.036; -435.107; -390.807
659.970;  -43.361; -370.107; -359.807
660.241;  -10.259; -754.107; -921.807
660.511;  676.744; -147.107; -174.808
660.781;   92.246; -793.106; -748.808
661.052;  -59.352; -222.106; -381.808
661.322;    4.751;   21.894;   -9.809
661.592;   83.653;  257.894;  148.191
661.862; -125.744; -369.106; -382.810
662.133; -166.042; -551.105; -502.810
662.403; -223.239; -770.105; -676.810
662.673;  -86.137; -256.105; -213.811
662.943; -187.034; -612.105; -551.811
663.213;   16.268;  -85.105;  -81.811
663.483; -143.729; -593.104; -568.812
663.753;  -63.827; -194.104; -152.812
664.023;   23.475;   68.896;  -32.813
664.293; -102.322; -319.104; -126.813
664.563; -198.520; -694.104; -648.813
664.833; -238.017; -743.103; -608.814
665.103; -267.515; -730.103; -793.814
665.373; -217.912; -766.103; -806.814
665.643; -159.410; -863.103; -918.815
665.913;   25.393; -534.103; -714.815
666.182;  176.095; -685.102; -719.816
666.452;  399.997;  -22.102;  -89.816
666.722;  -99.700; -724.102; -784.816
666.992; -270.598; -948.102; -921.817
667.261; -172.295; -824.102; -808.817
667.531;  337.107;  134.899;   45.183
667.801;  708.510; -440.101; -412.818
668.070;  437.512;  714.899;  697.182
668.340; -207.785; -883.101; -840.819
668.609;  201.117;  588.900;  301.181
668.879; -132.080; -490.100; -558.819
669.149; -129.978; -539.100; -516.820
669.418; -180.076; -698.100; -726.820
669.688;  -63.873; -482.100; -666.820
669.957;   72.729; -423.099; -546.821
670.226;  -58.268; -268.099; -331.821
670.496; -184.966; -431.099; -635.822
670.765; -118.163; -418.099; -501.822
671.034; -245.861; -872.099; -828.822
671.304;    3.542;   55.902; -111.823
671.573; -312.256;-1085.098; -957.823
671.842;  109.446; -380.098; -294.823
672.112;  -10.451; -692.098; -586.824
672.381;   -7.249; -239.098; -214.824
672.650; -257.346;-1005.097;-1021.825
672.919; -191.744; -631.097; -507.825
673.188; -176.541; -681.097; -878.825
673.457; -303.839;-1101.097;-1143.826
673.726; -162.936; -579.096; -646.826
673.995;  -67.434; -533.096; -479.826
674.265;  -50.732; -263.096; -333.827
674.534;    6.771; -183.096; -235.827
674.802;    0.573; -618.096; -703.828
675.071; 1504.776; -886.095; -801.828
675.340; 5379.578; -464.095; -339.828
675.609; 1877.781;  103.905;   82.171
675.878;   65.283; -949.095; -893.829
676.147;   31.386;  -26.095;   -8.829
676.416;  145.888; -210.094; -294.830
676.685; 1153.691; 1000.906; -622.830
676.953;  129.193; -603.094; -452.831
677.222;  -20.905; -193.094; -273.831
677.491;  -46.302;  -24.094; -127.831
677.759;   33.300;   11.907;  172.168
678.028;   -9.197; -279.093; -222.832
678.297;   22.605;   71.907;  197.168
678.565; -268.592; -898.093; -944.833
678.834; -101.490; -311.093; -268.833
679.102; -135.487; -411.092; -391.834
679.371; -268.685; -898.092; -727.834
679.639; -239.783; -797.092; -786.834
679.908; -232.080; -794.092; -724.835
680.176; -270.878; -895.091; -941.835
680.445; -104.875; -346.091; -352.835
680.713;   23.227;  -58.091;  -23.836
680.982; -160.470; -523.091; -525.836
681.250; -153.968; -578.091; -507.837
681.518; -168.765; -534.090; -751.837
681.787;  -16.663; -204.090; -167.837
682.055; -108.360; -490.090; -422.838
682.323; -292.058; -993.090; -992.838
682.591;   46.844; -216.090; -538.838
682.859;  142.047;    9.911;  -35.839
683.128;   60.449;  232.911;  497.161
683.396; -313.348;-1102.089;-1122.840
683.664;  -61.446; -241.089;   21.160
683.932;   46.757;  144.911;  -76.840
684.200; -131.241; -576.088; -320.841
684.468;    0.362;  -73.088; -124.841
684.736;  -49.636; -214.088; -175.841
685.004; -239.434;-1024.088; -982.842
685.272; -123.031; -880.088; -774.842
685.540; -118.029; -499.087; -557.843
685.808; -159.726; -651.087; -682.843
686.076; -187.124; -894.087; -969.843
686.343; -107.021; -601.087; -815.844
686.611;   81.781; -195.087; -224.844
686.879;  704.284; -530.086; -553.844
687.147; 4537.786; -483.086; -480.845
687.414; 1307.289;  -12.086; -169.845
687.682;  -46.709; -658.086; -757.846
687.950;  498.093;  259.915;  263.154
688.217;  -49.004; -792.085; -760.846
688.485;  -23.002; -632.085; -636.847
688.753;  718.101;  -11.085; -102.847
689.020;  126.803; -820.085; -851.847
689.288; -190.494; -853.084; -787.848
689.555;  -16.592; -195.084; -148.848
689.823;  -68.189; -241.084; -345.849
690.090; -183.987; -546.084; -651.849
690.358; -280.085; -877.084; -897.849
690.625;   42.318;  120.917;   45.150
690.892; -137.680; -403.083; -369.850
691.160;    9.323;   72.917;  -35.850
691.427;   59.725;  141.917;  130.149
691.694; -245.772; -855.083; -929.851
691.962; -278.770;-1177.082;-1060.852
692.229;   47.733;  127.918;   56.148
692.496;  124.435;  130.918;  -49.852
692.763;   59.537; -164.082; -201.853
693.031; -150.660; -739.082; -716.853
693.298;  -93.558; -509.081; -368.853
693.565;  506.345; -155.081; -163.854
693.832; 1692.447;   -5.081;   -9.854
694.099;  187.850; -643.081; -642.855
694.366; -128.348; -882.081; -896.855
694.633; -117.445; -920.080; -633.855
694.900; 1505.957; 4367.920; -114.856
695.167;  591.060; -214.080; -380.856
695.434;  103.862; -646.080; -623.856
695.701;  338.564;  121.921;  -61.857
695.968;  696.267; -365.079; -361.857
696.234; 1572.269; -415.079; -646.858
696.501;14997.672; -776.079; -614.858
696.768; 7072.074; -554.079; -617.858
697.035;  417.377; -632.078; -667.859
697.302;   26.979; -448.078; -552.859
697.568;   41.282; -458.078; -497.859
697.835;  -59.116; -683.078; -624.860
698.102;  -25.614; -498.078; -407.860
698.368;  171.389;  384.923;  396.139
698.635;  -29.309;  -47.077; -424.861
698.901;  -11.006; -240.077; -348.861
699.168;   64.796; -534.077; -456.862
699.435;  125.999;  -72.077;  -13.862
699.701; -244.099; -868.076; -764.862
699.968;  -58.396;  144.924; -441.863
700.234; -176.494; -783.076; -822.863
700.500; -103.891; -448.076; -539.864
700.767;   21.711;   -1.075;   26.136
701.033; -238.387;-1015.075; -963.864
701.299; -110.084; -450.075; -483.865
701.566;  254.018;  950.925;  763.135
701.832;   62.021;  -31.075;  -76.865
702.098; -192.577;-1054.074;-1034.866
702.365; -198.274;-1098.074;-1030.866
702.631;  -89.772;-1038.074;-1063.867
702.897; 2034.531; -765.074; -676.867
703.163; 3115.333;  348.926;  254.133
703.429;  216.635; -256.073; -273.868
703.695;  -95.862; -796.073; -792.868
703.961;    9.840; -214.073; -210.868
704.227; -122.657; -630.073; -725.869
704.493;  273.645;  613.927;  510.131
704.759;  -47.552; -565.072; -540.870
705.025;   63.650; -203.072; -194.870
705.291;  -65.647; -666.072; -562.870
705.557;  377.555;  719.928;   34.129
705.823;   29.057; -742.072; -694.871
706.089;  189.360; -307.071; -326.871
706.355;  571.462; -315.071; -244.872
706.620; 8166.765; -776.071; -729.872
706.886;10509.967; -309.071; -362.873
707.152;  900.070; -818.070; -973.873
707.418; -102.628;-1153.070;-1186.873
707.683;  -33.125; -550.070; -530.874
707.949;  -66.623; -547.070; -578.874
708.215;    6.780; -129.070; -207.874
708.480;  -38.318; -520.069; -420.875
708.746;  158.584;   68.931;   28.125
709.011; -120.313; -578.069; -612.876
709.277; -144.711; -538.069; -543.876
709.542;  -69.108; -428.069; -387.876
709.808;   26.794;  -59.068;   89.123
710.073; -159.203; -577.068; -695.877
710.339;  -27.001; -242.068; -228.877
710.604;   84.102; -780.068; -845.878
710.869;  373.004; -277.068; -366.878
711.135; -146.594; -715.067; -628.879
711.400; -138.991; -507.067; -608.879
711.665; -121.689; -404.067; -479.879
711.931; -158.486; -661.067; -677.880
712.196; -208.384; -876.067; -954.880
712.461;  133.819; -402.066; -490.880
712.726;  121.521; -727.066; -771.881
712.991; -184.276; -647.066; -664.881
713.256;  -74.674; -350.066; -332.882
713.521;  -89.571; -417.065; -381.882
713.787;  -97.569; -454.065; -472.882
714.052;  -61.467; -214.065; -400.883
714.317; -174.664;-1045.065; -981.883
714.581; 1490.138; -374.065; -268.883
714.846; 1809.241; -822.064; -888.884
715.111;  242.943;  261.936;  257.116
715.376;  -27.354;  -86.064; -223.885
715.641;  -21.952; -365.064; -367.885
715.906;  386.251;   15.936; -551.885
716.171;  207.053;  221.937;  209.114
716.436;   93.655;  -78.063; -104.886
716.700; -199.042; -818.063; -692.886
716.965; -210.840; -794.063; -807.887
717.230; -113.937; -339.063; -392.887
717.494;  -17.535;  -40.062; -134.888
717.759; -164.332; -784.062; -640.888
718.024;   44.970;  269.938;  250.112
718.288;  182.873;  685.938;  395.111
718.553; -276.825; -803.062; -977.889
718.817; -271.322; -883.061; -899.889
719.082;   -3.720; -115.061; -125.890
719.346; -264.118;-1000.061; -947.890
719.611;  -60.915; -300.061; -255.891
719.875; -162.813; -568.060; -537.891
720.140;  -92.510; -453.060; -603.891
720.404;   71.692; -136.060; -249.892
720.668; 1218.695; -475.060; -411.892
720.933;  492.597;  146.940;  137.108
721.197; -152.100; -667.059; -600.893
721.461; -241.398; -851.059; -826.893
721.725;   10.304;  -21.059; -250.894
721.990;  -95.393; -284.059; -204.894
722.254;  -53.991;  -26.059; -108.894
722.518; -115.288; -286.058; -442.895
722.782; -155.486; -743.058; -594.895
723.046;  249.417;  614.942;  570.105
723.310;   86.719;  374.942;  210.104
723.574; -182.078; -654.058; -614.896
723.838; -176.276; -576.057; -642.897
724.102;  -53.774; -226.057; -239.897
724.366; -271.071;-1032.057; -978.897
724.630; -139.069; -749.057; -571.898
724.894; -118.966; -722.057; -514.898
725.158;   -6.264;   38.944; -295.898
725.422;  -58.961; -394.056; -327.899
725.685; -111.659; -441.056; -349.899
725.949; -150.956; -566.056; -519.900
726.213; -146.554; -732.056; -811.900
726.477;  147.349;-1020.055; -933.900
726.740;  223.951; -274.055; -104.901
727.004;  539.053; -384.055; -510.901
727.268; 4526.556; -442.055; -400.901
727.531; 1144.758; -961.055; -775.902
727.795;  -98.039; -713.054; -673.902
728.059;  -82.337; -552.054; -557.903
728.322; -157.534; -841.054; -669.903
728.586;  -10.432; -692.054; -701.903
728.849; -156.529; -695.053; -756.904
729.112; -223.527; -812.053; -912.904
729.376; -205.125; -959.053; -905.904
729.639; -107.022; -536.053; -536.905
729.903; -205.220; -733.053; -699.905
730.166;  -57.117; -437.052; -399.906
730.429;  -22.115; -317.052; -468.906
730.693; -109.712; -355.052; -894.906
730.956;  413.290;  810.948;  651.093
731.219;  967.993; -310.052; -103.907
731.482;  134.395;-1003.051; -894.907
731.745;   53.998; -794.051; -935.908
732.009;   58.100;  -30.051;   50.092
732.272; -174.298; -904.051; -771.909
732.535;  -54.595; -300.051; -310.909
732.798; -292.093;-1083.050;-1166.909
733.061; -113.290; -430.050; -456.910
733.324;   48.912;   31.950; -180.910
733.587;  168.815;  290.950;  365.090
733.850; -136.983; -973.049;-1050.911
734.113;   70.020;   33.951;   32.089
734.376;    4.922; -328.049; -447.912
734.639;  440.524; 1188.951; 1011.088
734.901;  142.927; -180.049; -402.912
735.164;  771.429; -883.048; -837.913
735.427; 1696.432; -166.048; -355.913
735.690;  194.434; -205.048; -234.913
735.952; -101.463; -923.048; -925.914
736.215;  -93.761;-1113.048;-1009.914
736.478;   27.242; -771.047; -774.915
736.740;  332.544;   33.953;  129.085
737.003; 1098.446; -658.047; -672.915
737.266; 5531.249;  -94.047;   46.084
737.528;  577.051; -682.047; -660.916
737.791;  432.454; -316.046; -327.916
738.053; 1346.256;  465.954;  649.083
738.316;16106.159; -162.046; -136.917
738.578; 9630.761; -770.046; -736.918
738.841;  614.764; -382.046; -446.918
739.103;  265.066; -875.045; -777.918
739.365;  767.869;   79.955;  -69.919
739.628;  -17.329; -884.045; -805.919
739.890; -105.127; -758.045; -710.919
740.152;  -89.524; -692.044; -754.920
740.414;  -33.122; -408.044; -359.920
740.677;  -66.519; -785.044; -634.921
740.939;  -66.717; -587.044; -487.921
741.201;  367.686; -432.044; -572.921
741.463;   33.488; -689.043; -745.922
741.725;   38.491;  -21.043; -199.922
741.987;  123.593;  220.957;  116.078
742.249;  -35.805; -751.043; -859.923
742.511;  264.198; -703.043; -794.923
742.773;   23.600; -546.042; -546.924
743.035;  248.603;  796.958;  533.076
743.297;  -54.895; -963.042;-1013.924
743.559; 1000.208; -278.042; -262.925
743.821;   17.210; -735.042; -744.925
744.083;    4.913;  -44.041; -149.925
744.345; -167.485; -869.041; -892.926
744.607;   86.718;   75.959;  122.074
744.868; -105.280; -490.041; -554.927
745.130; -192.078; -994.041;-1008.927
745.392;   72.525;   -1.040;  -44.927
745.653;  -18.373; -411.040; -378.928
745.915;  330.030;  896.960;  631.072
746.177;  124.232;   35.960;  -43.928
746.438;  -24.965; -428.040; -543.929
746.700; -114.763; -947.039; -988.929
746.961;  -10.360; -659.039; -740.930
747.223;  205.242; -190.039;  -74.930
747.484;  107.444; -391.039; -471.930
747.746;  246.547;  -23.038; -106.931
748.007;  141.749; -647.038; -689.931
748.269;  420.352; -468.038; -440.931
748.530;  611.254; -852.038; -638.932
748.791;  374.657; -354.038; -420.932
749.053;  704.959;  286.963;  163.067
749.314;  680.262; -236.037; -169.933
749.575;  674.464; -945.037; -905.933
749.836; 1222.067; -217.037;   86.066
750.098; 4138.769;  -60.037;  -21.934
750.359;51925.571;  414.964;  555.066
750.620;11371.274; -121.036; -220.935
750.881; 1486.076; -585.036; -513.935
751.142; 1948.279; -950.036; -938.936
751.403;24674.581; -789.036; -705.936
751.664; 9110.784;-1034.035; -999.936
751.925;  709.386; -175.035; -262.937
752.186;  429.289; -298.035; -278.937
752.447;  207.691; -590.035; -445.937
752.708;   76.093; -532.035; -648.938
752.969;    1.896; -566.034; -576.938
753.230;  -37.902; -777.034; -672.939
753.491;  -30.599; -650.034; -631.939
753.751;  150.003;  109.966;   19.061
754.012;  195.006;  258.967;  181.060
754.273;  141.408; -174.033;  -71.940
754.534;    3.811; -487.033; -580.940
754.794; -142.487; -926.033; -911.941
755.055;  338.315; 1051.967;  881.059
755.316;  -76.282; -700.032; -566.942
755.576;  -21.580; -606.032; -576.942
755.837;  -92.577; -527.032; -695.942
756.097;  -56.775; -530.032; -564.943
756.358; -135.072; -725.032; -770.943
756.618;  -87.170; -705.031; -641.943
756.879;   10.633; -254.031; -349.944
757.139; -210.765;-1098.031;-1116.944
757.400; -105.362; -538.031; -553.945
757.660;  -25.560; -365.031; -401.945
757.920;   74.242; -266.030; -228.945
758.181;  -35.755; -468.030; -351.946
758.441; -164.153; -870.030; -809.946
758.701;  -23.050; -308.030; -215.946
758.961;   -6.248; -220.030; -278.947
759.222;  -88.945; -574.029; -502.947
759.482; -144.143; -683.029; -723.948
759.742; -140.940; -706.029; -547.948
760.002;   75.562;  -83.029; -143.948
760.262;   36.964;   50.972;  182.051
760.522;  -70.333; -498.028; -574.949
760.782; -110.531; -738.028; -612.949
761.042;  -92.128; -618.028; -573.950
761.302;   95.874;   55.972;  -18.950
761.562;  105.677; -164.027; -154.951
761.822;  105.679; -710.027; -551.951
762.082; -104.318;-1104.027;-1093.951
762.342;  100.384; -328.027; -403.952
762.601;   96.787; -567.027; -506.952
762.861;  510.689; -281.026; -207.952
763.121;  714.791; -406.026; -411.953
763.381;12155.994; -499.026; -485.953
763.640;10818.796; -139.026; -307.954
763.900;  542.799; -242.026; -203.954
764.160;  158.401; -458.025; -491.954
764.419;  -39.896; -726.025; -782.955
764.679; -138.094; -795.025; -726.955
764.939;   19.409; -124.025; -210.955
765.198; -116.889; -608.025; -563.956
765.458; -140.687; -710.024; -612.956
765.717; -164.084; -454.024; -590.957
765.976;  -86.482; -428.024; -411.957
766.236; -122.579; -475.024; -610.957
766.495;  103.923;  260.977;   73.042
766.755; -208.874;-1090.023; -987.958
767.014;  -38.172; -594.023; -665.958
767.273;  -67.569; -373.023; -397.959
767.533;  -39.967; -228.023; -307.959
767.792;  -14.365; -151.022; -188.960
768.051;  -92.262; -228.022; -276.960
768.310; -124.460; -546.022; -650.960
768.569;   23.443; -161.022;    4.039
768.828;  -32.555; -285.022; -363.961
769.088; -233.952;-1050.021; -942.961
769.347; -142.250; -755.021; -599.962
769.606; -226.947; -876.021; -857.962
769.865; -237.145;-1016.021;-1033.963
770.124;   -0.042; -411.021; -336.963
770.383; -107.040; -778.020; -910.963
770.641;  -56.938; -398.020; -400.964
770.900; -157.535; -953.020; -846.964
771.159; -147.533; -851.020; -951.964
771.418;  -50.030; -917.020; -779.965
771.677;  193.272; -224.019; -293.965
771.936;  172.575; -794.019; -865.966
772.194; 3924.277; -465.019; -437.966
772.453;15197.680; -213.019; -391.966
772.712; 1143.482;  416.982;  329.033
772.970;  229.184;   32.982;   63.033
773.229;  176.987;  -22.018;  102.033
773.488; -165.911; -814.018; -770.968
773.746;  169.592;  296.982;  335.032
774.005;   47.794;  190.983;  -22.969
774.263;   65.897;  243.983;  177.031
774.522; -149.801; -422.017; -548.969
774.780; -148.998; -484.017; -417.970
775.039; -133.796; -551.017; -531.970
775.297;    1.107; -135.016; -351.970
775.555; -177.291; -489.016; -612.971
775.814; -206.089; -618.016; -570.971
776.072; -185.786; -749.016; -740.971
776.330; -175.484; -630.016; -520.972
776.589; -213.181; -703.015; -721.972
776.847; -207.979; -645.015; -624.973
777.105; -288.176;-1016.015;-1032.973
777.363; -104.074; -459.015; -454.973
777.621; -261.971; -660.015; -717.974
777.879;   -5.569;  -42.014;   32.026
778.138; -161.667; -554.014; -717.974
778.396; -188.364; -585.014; -526.975
778.654; -286.162;-1015.014; -970.975
778.912; -109.959; -269.014; -371.976
779.170; -249.257; -880.013; -803.976
779.427; -262.254; -922.013; -897.976
779.685; -208.852; -880.013; -832.977
779.943; -151.249; -654.013; -593.977
780.201; -266.847; -964.012; -883.978
780.459; -211.644; -651.012; -610.978
780.717; -134.142; -440.012; -390.978
780.974; -175.740; -449.012; -490.979
781.232;  -94.937; -358.012; -338.979
781.490; -133.335; -551.011; -472.979
781.747; -135.532; -555.011; -476.980
782.005;   70.970;  462.989;  254.020
782.263; -289.527; -542.011;-1004.981
782.520; -136.625; -326.011; -501.981
782.778; -299.922;-1013.010;-1051.981
783.035; -300.320; -962.010; -938.982
783.293;  -78.018; -248.010; -206.982
783.550;  -86.615; -134.010; -198.982
783.808; -192.013; -764.010; -776.983
784.065; -295.810; -745.009; -874.983
784.322;  -31.808;   25.991;  -86.984
784.580; -259.905; -915.009; -771.984
784.837; -116.503; -392.009; -466.984
785.094; -209.300; -783.009; -762.985
785.352;  -78.098; -304.008; -404.985
785.609; -203.796; -934.008; -839.985
785.866; -115.193; -345.008; -401.986
786.123; -139.991; -639.008; -583.986
786.380; -187.088; -665.008; -604.987
786.637;  -54.086; -225.007; -380.987
786.895;  -46.883; -456.007; -543.987
787.152;  -66.981; -135.007; -267.988
787.409;  -53.178; -123.007; -225.988
787.666; -102.676; -299.006; -378.988
787.923; -177.173; -616.006; -695.989
788.179; -163.271; -551.006; -584.989
788.436; -163.869; -585.006; -585.990
788.693;  -21.766;  -92.006;  -87.990
788.950;  272.036; -125.005; -112.990
789.207;  247.739; -381.005; -372.991
789.464;  -77.859; -161.005; -301.991
789.720;   39.644;  150.995;  110.009
789.977; -289.154;-1003.005; -671.992
790.234;  -20.851;   44.996;  -66.992
790.490; -268.849; -884.004;-1031.993
790.747;    3.953;  -85.004;   22.007
791.004;  -17.944; -426.004; -348.993
791.260; -114.642; -430.004; -560.994
791.517; -180.439; -843.003; -788.994
791.773;  -67.437; -379.003; -342.994
792.030; -175.834; -596.003; -660.995
792.286; -194.432; -686.003; -636.995
792.543;   13.371;  -74.002; -159.995
792.799;  -75.427; -584.002; -382.996
793.055; -286.224;-1179.002;-1210.996
793.312; -184.922; -827.002; -816.997
793.568; -103.320; -746.002; -599.997
793.824;   35.983; -226.001; -284.997
794.081;   63.485; -447.001; -508.998
794.337;   94.088; -664.001; -561.998
794.593; 2545.790; -319.001; -271.999
794.849; 9313.293; -746.001; -772.999
795.105;  444.395; -270.000; -261.999
795.361;   36.098; -490.000; -457.000
795.617; -138.200; -875.000; -945.000
795.873;  -77.500; -360.000; -407.000
796.129;  -49.200; -368.000; -306.000
796.385;  -11.000; -124.000; -156.000
796.641;  179.200;  412.000;  550.000
796.897; -111.300; -666.000; -635.000
797.153;  209.900;  453.000;  357.000
797.409; -194.400; -785.000; -868.000
797.665; -140.300; -625.000; -732.000
797.921; -149.900; -775.000; -762.000
798.176; -133.900; -744.000; -747.000
798.432; -117.300; -824.000; -596.000
798.688; -165.500;-1174.000;-1078.000
798.943;  139.200; -165.000; -147.000
799.199;  -64.400;-1005.000; -959.000
799.455;  393.900;  369.000;  316.000
799.710;  135.300; -813.000; -380.000
799.966;  397.300; -162.000; -160.000
800.221;  646.700; -638.000; -721.000
800.477;16330.500; -743.000; -710.000
800.732;10984.000; -773.000; -800.000
800.988;  900.800;  205.000;  -19.000
801.243; 3324.400; -454.000; -344.000
801.498;10667.000; -814.000; -739.000
801.754;  591.000; -289.000; -163.000
802.009;  135.500; -257.000; -335.000
802.264; -139.800; -967.000;-1033.000
802.520;   60.400;  222.000;   -3.000
802.775;  -61.200; -524.000; -359.000
803.030;  147.100;  395.000;  356.000
803.285; -213.300; -840.000; -903.000
803.540;  -79.700; -686.000; -699.000
803.795;  -78.600; -648.000; -583.000
804.051;  -51.900; -279.000; -346.000
804.306;   93.700;  168.000;  128.000
804.561;  266.200;  451.000;  362.000
804.816;  290.600;  714.000;  861.000
805.071;   42.300; -185.000; -280.000
805.325;  304.400; -257.000; -427.000
805.580; -172.400; -841.000; -877.000
805.835;  -18.100; -204.000; -297.000
806.090; -160.700; -760.000; -676.000
806.345;   -1.800; -344.000; -264.000
806.600;  -53.000; -549.000; -632.000
806.854;  -64.200; -408.000; -538.000
807.109;  -10.900; -493.000; -577.000
807.364;    6.300; -407.000; -328.000
807.618;  -13.400; -415.000; -381.000
807.873;   71.100; -470.000; -494.000
808.128;  151.900; -257.000; -518.000
808.382;  183.000; -224.000; -332.000
808.637;  107.400; -440.000; -511.000
808.891;  281.400; -257.000; -180.000
809.146;  126.400; -902.000; -794.000
809.400;  342.600; -848.000; -923.000
809.654;  444.300; -779.000; -551.000
809.909;  733.300; -841.000; -927.000
810.163;11655.900; -813.000; -651.000
810.418;22873.200; -940.000; -861.000
810.672; 1378.300; -685.000; -690.000
810.926; 1041.700; -993.000; -973.000
811.180; 2224.100; -439.000; -372.000
811.434;48256.100;  240.000;  135.000
811.689;14401.000; -231.000; -365.000
811.943;  773.100; -936.000; -953.000
812.197;  437.000; -893.000; -671.000
812.451;  171.400; -379.000; -514.000
812.705;  -76.000; -809.000; -619.000
812.959;  -56.600; -263.000; -388.000
813.213;   20.900; -283.000; -209.000
813.467;  179.500;  470.000;  253.000
813.721; -161.700; -764.000; -792.000
813.975; -202.300; -826.000; -877.000
814.229;  121.000;  430.000;  353.000
814.482; -101.200; -517.000; -566.000
814.736; -194.300; -766.000; -744.000
814.990; -200.700; -779.000; -872.000
815.244;  -49.000; -228.000; -285.000
815.497; -142.400; -636.000; -601.000
815.751;   -4.200; -141.000;   82.000
816.005; -137.800; -470.000; -586.000
816.258;  -91.100; -510.000; -363.000
816.512; -188.300; -693.000; -610.000
816.766;   45.400;  121.000;  157.000
817.019;  128.100;  148.000;  149.000
817.273; -189.000;-1000.000; -802.000
817.526;   -1.500; -206.000; -173.000
817.779; -109.800;-1049.000; -960.000
818.033; -140.300; -693.000; -807.000
818.286; -213.800; -725.000; -792.000
818.540; -131.100; -403.000; -403.000
818.793; -100.400; -402.000; -489.000
819.046; -146.600; -582.000; -520.000
819.299;  -44.600; -157.000; -166.000
819.553; -166.300; -552.000; -592.000
819.806; -282.400;-1016.000; -838.000
820.059;  -59.800; -334.000; -354.000
820.312;   72.500;  152.000;  185.000
820.565;   42.200;  110.000;  -27.000
820.818;  -44.700;  -59.000; -173.000
821.071; -282.600;-1041.000; -957.000
821.324; -171.000; -536.000; -540.000
821.577; -158.500; -457.000; -483.000
821.830; -103.400; -270.000; -172.000
822.083; -204.000; -733.000; -288.000
822.336;  -44.500; -261.000; -167.000
822.589; -251.100; -805.000; -688.000
822.842; -277.200; -875.000; -770.000
823.094; -313.800;-1076.000;-1114.000
823.347; -188.800; -925.000; -729.000
823.600;  101.800;  402.000;  187.000
823.853;  -54.200; -311.000; -267.000
824.105;  -96.800; -331.000; -575.000
824.358; -198.000; -617.000; -716.000
824.611;   88.500;  234.000;   40.000
824.863; -101.000; -612.000; -591.000
825.116;  130.400;  -33.000;   27.000
825.368;  123.300; -366.000; -372.000
825.621;  223.100; -186.000; -240.000
825.873;   57.100; -704.000; -737.000
826.126; 1001.900; -669.000; -641.000
826.378;17474.200; -389.000; -505.000
826.630; 2931.800; -890.000; -898.000
826.883;   -0.900; -754.000; -693.000
827.135;   58.300; -279.000; -270.000
827.387; -196.300; -893.000; -839.000
827.639;  -13.100;  -86.000;   32.000
827.892; -184.100; -742.000; -582.000
828.144; -244.200; -848.000; -804.000
828.396;  -15.900;  104.000;  -80.000
828.648; -123.800; -440.000; -333.000
828.900; -240.200; -702.000; -795.000
829.152; -224.700; -684.000; -683.000
829.404;  -59.700; -215.000; -267.000
829.656;  -27.500;  321.000;  214.000
829.908;   11.300;  393.000;  229.000
830.160; -272.200;-1064.000;-1047.000
830.412; -106.700; -481.000; -430.000
830.664; -195.700; -557.000; -665.000
830.916; -137.100; -268.000; -206.000
831.167; -342.200;-1073.000; -951.000
831.419; -158.000; -623.000; -566.000
831.671; -262.300; -764.000; -809.000
831.923; -136.600; -311.000; -447.000
832.174;  -84.400; -273.000; -331.000
832.426; -202.300; -493.000; -582.000
832.678; -346.600;-1043.000;-1091.000
832.929; -265.200; -947.000; -935.000
833.181;  -85.900; -575.000; -677.000
833.432;  -65.100;  -59.000; -186.000
833.684;   43.000;  112.000;  -27.000
833.935; -191.100; -610.000; -566.000
834.187; -172.800; -829.000; -823.000
834.438;  -49.100;  -58.000;  -25.000
834.689;  -39.700; -255.000; -123.000
834.941;  -69.000; -343.000; -244.000
835.192; -149.800; -590.000; -533.000
835.443; -190.900; -419.000; -506.000
835.695;   26.600;  138.000;  -16.000
835.946; -146.900; -608.000; -378.000
836.197; -141.900; -599.000; -622.000
836.448; -151.000; -528.000; -395.000
836.699;  -78.000; -253.000; -341.000
836.950;   23.400;   72.000;    7.000
837.201; -266.300;-1003.000; -987.000
837.452;  -62.100; -356.000; -170.000
837.703; -171.500; -791.000; -737.000
837.954;  -63.900; -205.000; -365.000
838.205; -183.900;-1029.000;-1008.000
838.456;  261.700; -196.000; -282.000
838.707;   15.700; -423.000; -519.000
838.958;  -26.200; -634.000; -647.000
839.209;  470.900;   18.000;   40.000
839.460;  148.700; -439.000; -201.000
839.710;  235.800; -135.000; -297.000
839.961;  674.600;  730.000;  612.000
840.212;  456.300; -382.000; -497.000
840.462; 1861.500; -328.000; -277.000
840.713;27037.000; -571.000; -536.000
840.964; 8250.300;  -62.000; -143.000
841.214;  672.500; -384.000; -624.000
841.465;  837.400; -214.000; -141.000
841.715;  701.500; -417.000; -380.000
841.966;  915.500; -746.000; -685.000
842.216;16062.600; -330.000; -431.000
842.466;46220.200; -169.000; -313.000
842.717; 1790.800; -964.000; -952.000
842.967;  471.800; -635.000; -641.000
843.217;  382.600;   20.000;   28.000
843.468;  123.900; -104.000; -132.000
843.718;  -86.900; -718.000; -726.000
843.968; -195.500; -837.000; -765.000
844.218;   38.700; -315.000; -262.000
844.469; -104.400; -577.000; -561.000
844.719; -175.700; -537.000; -682.000
844.969; -141.900; -550.000; -580.000
845.219; -257.900; -814.000; -862.000
845.469;  -98.200; -392.000; -342.000
845.719; -250.700; -792.000; -884.000
845.969;    3.600;  119.000;  174.000
846.219; -201.100; -738.000; -720.000
846.469;  121.100;  464.000;  432.000
846.718;  -44.500; -115.000;   31.000
846.968; -208.500; -827.000; -827.000
847.218;  -56.700; -224.000; -371.000
847.468; -157.700; -586.000; -555.000
847.718; -239.300; -827.000; -798.000
847.967; -241.600; -826.000; -915.000
848.217; -122.400; -449.000; -569.000
848.467; -106.700; -405.000; -376.000
848.716; -177.900; -708.000; -725.000
848.966;   22.000; -372.000; -358.000
849.215;  -98.600; -428.000; -419.000
849.465; -159.600; -785.000; -615.000
849.714; -262.700;-1132.000;-1150.000
849.964;  -97.400; -551.000; -613.000
850.213;  -37.100; -393.000; -355.000
850.463;  162.300;  137.000;  340.000
850.712;  -12.400; -542.000; -567.000
850.961;   -7.200; -739.000; -678.000
851.211;  101.700; -513.000; -504.000
851.460;  197.400; -635.000; -650.000
851.709;  876.800;  -25.000;   18.000
851.958;16883.500; -912.000; -750.000
852.208;15509.200; -859.000; -879.000
852.457;  617.100; -181.000;  -13.000
852.706;   91.500; -791.000; -823.000
852.955;   12.700; -507.000; -528.000
853.204;  -70.700; -521.000; -461.000
853.453; -124.800; -418.000; -458.000
853.702; -224.800; -660.000; -750.000
853.951; -193.300; -532.000; -520.000
854.200; -193.800; -613.000; -562.000
854.449; -216.300; -695.000; -661.000
854.698; -127.400; -340.000; -279.000
854.946;  -75.800; -181.000; -284.000
855.195; -243.800; -843.000; -868.000
855.444; -153.900; -395.000; -420.000
855.693; -185.600; -345.000; -432.000
855.941; -179.500; -387.000; -516.000
856.190;  -76.300; -256.000; -382.000
856.439; -187.200; -652.000; -703.000
856.687;  -52.700;  -99.000;  -72.000
856.936; -206.500; -621.000; -323.000
857.184; -317.500;-1067.000;-1020.000
857.433; -137.100; -423.000; -512.000
857.681; -275.100; -989.000; -953.000
857.930;  -92.600; -282.000; -433.000
858.178; -294.700; -856.000; -929.000
858.427; -273.600; -802.000; -781.000
858.675; -152.300; -377.000; -544.000
858.923; -149.200; -527.000; -819.000
859.172; -321.600;-1094.000;-1070.000
859.420; -135.100; -339.000; -239.000
859.668; -212.300; -624.000; -628.000
859.916;   -8.200;  109.000;  115.000
860.164; -180.600; -699.000; -603.000
860.413;  448.500; -878.000; -696.000
860.661;  183.400; -709.000; -577.000
860.909; -134.000; -339.000; -325.000
861.157;  -95.500; -277.000; -444.000
861.405; -226.600; -534.000; -670.000
861.653;   48.500;  310.000;  310.000
861.901;  278.300; -543.000; -613.000
862.149;  -65.100; -801.000; -824.000
862.396; -108.900; -297.000; -187.000
862.644; -124.600; -368.000; -347.000
862.892;    1.700;   98.000;  138.000
863.140; -171.900; -549.000; -530.000
863.388; -292.400; -815.000; -759.000
863.635; -209.300; -642.000; -601.000
863.883;   17.200;  231.000;  190.000
864.131; -126.400; -288.000; -357.000
864.378; -220.400; -675.000; -540.000
864.626; -155.100; -347.000; -415.000
864.873; -204.100; -556.000; -505.000
865.121; -225.800; -714.000; -799.000
865.368;  -40.700; -173.000;   75.000
865.616;  -48.400;  -33.000;  -40.000
865.863; -136.700; -462.000; -506.000
866.111; -172.500; -795.000; -824.000
866.358;   62.300; -426.000; -420.000
866.605; 3816.100;  -64.000; -804.000
866.853; 2816.700; -621.000; -537.000
867.100; -127.400; -728.000; -775.000
867.347; -182.300; -672.000; -611.000
867.594; -135.400; -740.000; -714.000
867.841;  172.700;   97.000;   17.000
868.089; -241.400; -746.000; -698.000
868.336; -167.500; -477.000; -420.000
868.583; -230.500; -637.000; -741.000
868.830;  -93.100; -131.000; -170.000
869.077; -297.100; -859.000; -787.000
869.324; -192.000; -502.000; -458.000
869.571; -218.100; -398.000; -430.000
869.818; -201.400; -485.000; -439.000
870.065; -164.600; -439.000; -513.000
870.311; -168.800; -456.000; -542.000
870.558; -141.700; -332.000; -311.000
870.805; -137.900; -320.000; -384.000
871.052; -153.200; -494.000; -369.000
871.298;  -54.600; -204.000; -131.000
871.545;  -90.300; -151.000; -185.000
871.792; -136.200; -173.000; -222.000
872.038;  -67.900;   43.000; -126.000
872.285; -196.500; -496.000; -387.000
872.532; -124.000; -357.000; -387.000
872.778;   91.300;  556.000;  403.000
873.025; -136.200; -384.000; -359.000
873.271;  109.800;  501.000;  578.000
873.517;    1.000; -133.000; -209.000
873.764;  -44.800; -193.000;  -80.000
874.010;  -73.300; -143.000; -230.000
874.257;  -59.200;  123.000;   90.000
874.503; -235.100; -579.000; -479.000
874.749;  -70.000;   31.000;  275.000
874.995;  -66.300;  -80.000;  -20.000
875.242; -200.400; -540.000; -478.000
875.488; -171.300; -414.000; -439.000
875.734;  -62.200; -106.000; -234.000
875.980;  325.000; -872.000;-1032.000
876.226;  438.000; -157.000; -255.000
876.472;   41.900;  343.000;  237.000
876.718;  -17.800;  184.000;  158.000
876.964;  -12.100;   56.000;   55.000
877.210; -241.300; -547.000; -677.000
877.456; -196.600; -630.000; -557.000
877.702; -286.300; -821.000; -832.000
877.948; -166.500; -377.000; -497.000
878.193;   87.100;  361.000;  255.000
878.439; -140.600; -487.000; -472.000
878.685; -138.900; -272.000; -343.000
878.931; -204.400; -618.000; -676.000
879.176; -100.500; -201.000; -201.000
879.422; -290.800; -933.000; -820.000
879.668;  128.100;   10.000;   79.000
879.913;  216.400;   53.000;  137.000
880.159;  -69.600; -112.000;  -17.000
880.404;  -66.600; -152.000; -162.000
880.650;   17.400;   91.000;  141.000
880.895; -277.200; -670.000; -710.000
881.141; -212.000; -454.000; -428.000
881.386; -243.900; -503.000; -658.000
881.631; -122.000; -311.000; -166.000
881.877;    7.200;  112.000;  -13.000
882.122; -220.100; -684.000; -600.000
882.367; -141.200; -136.000; -186.000
882.612;  -96.500;  -80.000; -176.000
882.858; -311.100; -877.000; -823.000
883.103; -138.500; -297.000; -267.000
883.348; -262.500; -759.000; -852.000
883.593; -231.200; -677.000; -602.000
883.838;  -63.200; -311.000;  -24.000
884.083;   74.700;  353.000;  288.000
884.328; -124.400; -564.000; -545.000
884.573;  -80.800; -196.000; -143.000
884.818;  351.600; -694.000; -531.000
885.063;  193.600; -348.000; -315.000
885.308; -156.200; -475.000; -398.000
885.553;   55.300;  245.000;  325.000
885.797; -220.800; -545.000; -615.000
886.042;  -50.900;    8.000;   58.000
886.287; -130.100; -253.000; -211.000
886.532;  -31.700;   26.000;  204.000
886.776; -124.200; -407.000; -525.000
887.021; -259.700; -621.000; -574.000
887.265; -270.100; -685.000; -689.000
887.510; -221.100; -557.000; -496.000
887.755; -118.100; -194.000; -164.000
887.999; -210.800; -552.000; -575.000
888.244;  -47.300;  -58.000;  161.000
888.488;   96.600;  371.000;  393.000
888.732; -199.700; -368.000; -520.000
888.977; -201.400; -622.000; -567.000
889.221; -246.600; -683.000; -659.000
889.465; -181.500; -422.000; -566.000
889.710;  -82.300;  -56.000; -299.000
889.954;  100.300;  579.000;  467.000
890.198; -209.000; -584.000; -707.000
890.442; -240.900; -716.000; -712.000
890.687; -256.900; -800.000; -753.000
890.931; -114.000; -273.000; -210.000
891.175; -213.100; -502.000; -500.000
891.419;  -75.400; -105.000; -110.000
891.663;  -99.500; -239.000; -112.000
891.907; -281.000; -801.000; -545.000
892.151; -282.000; -920.000; -815.000
892.395; -167.100; -274.000; -387.000
892.638;   29.900;  408.000;  291.000
892.882; -304.800; -780.000; -867.000
893.126;  129.500;  758.000;  558.000
893.370; -109.600; -167.000; -168.000
893.614; -233.500; -714.000; -715.000
893.857; -162.200; -183.000; -197.000
894.101; -214.200; -527.000; -631.000
894.345;  -26.000;  300.000;  150.000
894.588;  100.300;  569.000;  380.000
894.832; -111.100; -178.000;  -84.000
895.075;  -59.000;   15.000;  -92.000
895.319; -217.400; -552.000; -420.000
895.563; -174.800; -413.000; -353.000
895.806; -259.500; -628.000; -741.000
896.049;  -57.100; -576.000; -368.000
896.293;  195.100;  527.000;  405.000
896.536;  -98.500; -465.000; -468.000
896.779;  -56.200; -149.000;   -1.000
897.023; -234.400; -751.000; -714.000
897.266;  -13.600;  325.000;  269.000
897.509; -296.100; -900.000; -901.000
897.752;  -11.100;  149.000;  171.000
897.996; -318.000; -972.000; -864.000
898.239;   -3.700;  168.000;  102.000
898.482; -176.100; -431.000; -453.000
898.725;  -12.200;  101.000;   53.000
898.968; -253.800; -609.000; -744.000
899.211; -161.400; -513.000; -361.000
899.454; -196.900; -633.000; -539.000
899.697;  -62.400;   90.000;  -43.000
899.940; -251.000; -761.000; -757.000
900.182; -168.800; -335.000; -405.000
900.425; -118.900; -150.000; -298.000
900.668;   34.800;  491.000;  350.000
900.911; -139.800; -292.000; -345.000
901.154;  -41.000;  141.000;   -3.000
901.396; -192.800; -407.000; -412.000
901.639; -224.000; -430.000; -496.000
901.882; -298.700; -790.000; -809.000
902.124; -115.800;  -29.000; -143.000
902.367; -150.800; -315.000; -361.000
902.609; -190.400; -476.000; -453.000
902.852; -122.000; -108.000; -260.000
903.094; -175.800; -458.000; -337.000
903.337;  -40.700;  -26.000;   53.000
903.579; -170.100; -228.000; -441.000
903.821; -277.500; -597.000; -744.000
904.064;  -30.100;   85.000;  127.000
904.306; -117.600; -126.000; -166.000
904.548; -158.600; -152.000; -366.000
904.790; -150.000; -195.000; -340.000
905.033; -211.100; -625.000; -577.000
905.275; -187.100; -513.000; -524.000
905.517;  121.200;  468.000;  256.000
905.759; -152.800; -667.000; -761.000
906.001; -161.300; -322.000; -369.000
906.243;  -85.500; -162.000; -224.000
906.485;  253.400; -265.000; -207.000
906.727;  113.900; -499.000; -542.000
906.969;  -11.300;  -30.000; -135.000
907.211;  226.200; -316.000; -382.000
907.453;  423.700; -188.000; -237.000
907.695;  -13.300; -158.000; -385.000
907.936;  194.600;  818.000;  706.000
908.178;  -48.500;   92.000; -135.000
908.420;  -78.900; -111.000; -162.000
908.662; -233.000; -633.000; -682.000
908.903; -147.800; -208.000; -123.000
909.145;  -76.800; -240.000; -305.000
909.386;  114.100;  315.000;  280.000
909.628;  135.200;  363.000;  397.000
909.870;   65.000;   29.000;  264.000
910.111; -178.600; -809.000; -949.000
910.353;   19.400; -123.000; -161.000
910.594;  -22.000; -574.000; -606.000
910.835;  118.300; -265.000; -326.000
911.077;  217.600; -503.000; -604.000
911.318;  427.300; -505.000; -471.000
911.559;  691.000; -577.000; -880.000
911.801; 2262.900; -284.000; -280.000
912.042;20032.300;  -50.000; -159.000
912.283;41120.300;  404.000;  371.000
912.524; 4732.300; -396.000; -457.000
912.765;  718.900; -193.000;   79.000
913.006;  379.700; -307.000; -338.000
913.247;   66.100; -270.000; -290.000
913.488;   -5.900;  -43.000;   30.000
913.729; -119.700; -373.000; -373.000
913.970;  -76.500;  -96.000; -292.000
914.211; -100.000; -160.000; -198.000
914.452;  -61.600; -118.000;  -11.000
914.693;   65.800;  510.000;  592.000
914.934;  116.700;  510.000;  440.000
915.175;  -81.500;   53.000;  -95.000
915.415; -110.400; -137.000;   27.000
915.656;  -70.700;  -28.000;  192.000
915.897; -121.900; -252.000;  -82.000
916.137;  -87.400;   74.000;   -9.000
916.378; -218.900; -573.000; -517.000
916.619;  -99.200; -159.000;  -63.000
916.859;   13.200;  303.000;  330.000
917.100;  341.000; 1655.000; 1070.000
917.340;  184.900;  930.000;  728.000
917.581;  203.800;  965.000;  789.000
917.821;  -16.500; -171.000;  143.000
918.061;    6.500; -199.000;  -72.000
918.302;  -82.100; -152.000; -211.000
918.542;  -16.700;  -22.000;    3.000
918.782;   89.700;  369.000;  377.000
919.023;  273.300;  360.000;  427.000
919.263; 2670.300; 8131.000;  202.000
919.503; 1557.800; -137.000;  -54.000
919.743; 1053.800;  390.000;  266.000
919.983;  325.000; -134.000;  -26.000
920.223;  150.000;  135.000;   14.000
920.463;  285.400;  631.000;  554.000
920.703;  221.300;   84.000;   39.000
920.943;  257.900; -110.000;   90.000
921.183;  317.500; -414.000; -405.000
921.423;  784.700;  307.000;  546.000
921.663; 1095.300; -174.000; -257.000
921.903; 2508.600;  237.000;  173.000
922.143;15432.100;  372.000;  389.000
922.383;52190.600;  158.000;  115.000
922.622;13103.400; -120.000;  -15.000
922.862; 1650.700;  796.000;  785.000
923.102;  657.000;  -51.000;   33.000
923.341;  293.700;   59.000;   74.000
923.581;  199.400;  450.000;  360.000
923.821;   59.100;  301.000;  398.000
924.060;   93.900;  351.000;  193.000
924.300;  -82.500;  -16.000; -128.000
924.539;   35.100;  584.000;  473.000
924.779;  120.600;  812.000;  597.000
925.018;  -37.200;  247.000;  353.000
925.257;   62.400;  595.000;  666.000
925.497;   11.700;  447.000;  412.000
925.736;  -95.900;  -35.000;  102.000
925.975;   69.200;  687.000;  669.000
926.214;  108.000;  907.000;  850.000
926.454;  137.400;  706.000;  757.000
926.693;   -5.300;  419.000;  543.000
926.932;  178.900; 1021.000;  825.000
927.171;  245.000; 1107.000; 1044.000
927.410;  212.900; 1144.000;  967.000
927.649;   94.600;  924.000;  742.000
927.888;   81.700;  590.000;  564.000
928.127;   71.900;  680.000;  678.000
928.366;   94.900;  842.000;  826.000
928.605;  129.200;  831.000;  737.000
928.844;  550.800; 1451.000; 1393.000
929.083; 1049.400;  770.000;  613.000
929.321;  547.100; 1335.000; 1359.000
929.560;  254.400; 1158.000; 1122.000
929.799;    7.100;  574.000;  475.000
930.038;  235.400; 1025.000; 1394.000
930.276;  -32.200;  334.000;  397.000
930.515;   99.800;  827.000;  681.000
930.753;   43.400;  614.000;  589.000
930.992;   34.400;  664.000;  717.000
931.230;  114.100;  847.000;  847.000
931.469;  444.200; 2162.000;  892.000
931.707;  210.200;  840.000;  751.000
931.946;  201.000; 1278.000; 1344.000
932.184;  177.000; 1437.000; 1175.000
932.423;  212.500; 1265.000;  963.000
932.661;  249.100; 1296.000; 1428.000
932.899;  120.600;  987.000;  821.000
933.137;   95.000;  754.000;  564.000
933.376;  332.700; 1664.000; 1335.000
933.614;  378.400; 1759.000; 1196.000
933.852;  186.400; 1357.000; 1171.000
934.090;  337.400; 1722.000; 1747.000
934.328;  222.000; 1252.000; 1457.000
934.566;  238.800; 1431.000; 1110.000
934.804;  343.700; 1263.000; 1309.000
935.042;  858.800; 1861.000; 1850.000
935.280; 3241.000; 2088.000; 2063.000
935.518; 2420.900; 2113.000; 2007.000
935.756;  599.600; 2481.000; 2316.000
935.994;  370.100; 1808.000; 1751.000
936.231;  755.500; 2890.000; 2950.000
936.469;  477.400; 2367.000; 2378.000
936.707;  420.700; 2220.000; 2167.000
936.945;  582.300; 2825.000; 2882.000
937.182;  513.600; 2679.000; 2741.000
937.420;  680.700; 3602.000; 3031.000
937.657;  914.800; 3365.000; 3478.000
937.895;  715.800; 3331.000; 3488.000
938.133;  681.900; 3540.000; 3528.000
938.370;  789.800; 3896.000; 4191.000
938.607;  888.100; 4488.000; 4205.000
938.845; 1218.500; 5587.000; 5549.000
939.082; 1033.500; 5387.000; 5177.000
939.320; 1169.800; 5799.000; 5728.000
939.557; 1402.100; 6549.000; 6491.000
939.794; 1580.100; 7285.000; 7097.000
940.031; 1931.000; 8421.000; 8368.000
940.269; 2258.700; 9552.000; 9107.000
940.506; 2355.100;10901.000;10507.000

