
Integration time [ms]: 100.000
Averaging Nr. [scans]: 40
Smoothing Nr. [pixels]: 0
Data measured with spectrometer [name]: 2101013U2
Wave   ;Sample   ;Dark     ;Reference
[nm]   ;[counts] ;[counts] ;[counts] 

394.013;   48.935; -450.257; -315.536
394.305;  200.108; -461.258; -419.536
394.596;  994.631; -676.269; -527.514
394.887; 2474.273; -796.268; -654.518
395.178;  968.903;  145.736;   11.476
395.470;   89.389; -210.263; -356.526
395.761;  177.212;  305.734;  394.479
396.052;  272.783; -545.284; -306.489
396.343;  278.477; -557.276; -454.503
396.634;  123.771; -200.279; -290.497
396.926;  126.595; -618.268; -565.517
397.217;  133.781;   11.725;  -17.504
397.508;   70.322; -366.273; -154.507
397.799;   50.046; -555.279; -571.497
398.090;   -2.184; -973.280; -902.495
398.381;  142.835;   11.708;  -11.473
398.672;    7.111; -585.292; -742.473
398.963;   61.977; -348.279; -373.498
399.254;  126.620;   54.709; -209.475
399.545;  -10.691;-1017.266; -883.520
399.836;   92.916; -407.277; -343.501
400.127;   66.761; -205.295; -209.468
400.418;   65.017; -423.274; -392.506
400.709;   83.753; -359.281; -333.493
401.000;   61.349; -268.291; -309.476
401.290;  117.999;  225.698;  115.545
401.581;   76.816; -166.286; -228.485
401.872;   36.309; -542.298; -486.462
402.163;   48.954; -313.296; -252.467
402.454;  108.870; -123.291; -163.475
402.744;   94.520; -844.297; -813.465
403.035;  509.126; -226.293;  -86.471
403.326;  673.839; -366.292; -384.474
403.617;  429.103;  204.701;  165.539
403.907;  267.989; -593.283; -679.490
404.198; 2195.729; -545.307; -599.446
404.489; 5806.719; -618.283; -588.491
404.779; 2058.102; -618.302; -660.456
405.070;  245.681;  -67.304; -174.451
405.360;  335.803; -259.293; -238.472
405.651;  372.814;  125.699;   98.542
405.942;  199.987;  209.714;  127.516
406.232;  305.701; -432.285; -413.487
406.523;  548.171;  641.706;  758.530
406.813;  119.939; -579.286; -644.484
407.104;  383.584;  261.708;  144.527
407.394;  211.255; -604.299; -591.462
407.685;  159.700;  336.715;  222.513
407.975;   65.242; -400.283; -382.490
408.265;  128.960; -134.289; -190.478
408.556;   76.017; -472.291; -459.475
408.846;  175.747;  474.706;  429.530
409.137;  100.343;   -1.288; -216.480
409.427;   72.326; -193.285; -271.487
409.717;   47.850; -776.273; -692.508
410.007;  150.370;    4.715; -170.486
410.298;   91.914; -360.295; -342.469
410.588;   78.748; -495.285; -510.486
410.878;   31.129; -792.287; -873.482
411.168;  122.286; -481.298; -478.463
411.459;  130.712; -295.283; -242.489
411.749;   78.991; -609.292; -507.474
412.039;   70.241; -755.289; -386.480
412.329;  211.334;   40.722;  132.501
412.619;  213.139;  -62.286; -148.485
412.909;  382.737;  639.711;  594.521
413.199;  362.716; -130.280; -251.495
413.490;  440.928;  521.710;  352.523
413.780;  159.595;-1013.279; -913.496
414.070;  344.303;  -46.276;  235.497
414.360;  368.706; -729.278; -666.498
414.650;  419.525; -726.288; -688.482
414.940;  516.644; -538.280; -441.496
415.230;  893.747;   50.712;   74.519
415.520; 5737.581;  155.730;   66.486
415.809;22456.453; -305.281; -125.493
416.099;17584.519; -388.277; -229.501
416.389; 4753.214;  435.726;  236.494
416.679; 2819.992;   91.738;   85.473
416.969;  504.258; -527.287; -503.483
417.259;  571.347;  341.721;  171.503
417.549;  688.102;  522.718;  318.508
417.838; 1537.972; -205.268; -147.518
418.128; 5003.883;  650.710;  492.522
418.418; 4257.906; -491.272; -579.509
418.708; 2864.040;    9.726;  -48.506
418.997;10503.361; -474.275; -480.505
419.287;11065.521; -733.273; -790.507
419.577;10246.536; -160.283; -123.489
419.866;34062.467; -588.277; -498.501
420.156;35665.077; -242.270;  -55.513
420.446; 6636.760; -112.263;  -26.526
420.735;  912.921; -376.271; -446.512
421.025;  879.230; 1830.722;  315.502
421.314;  750.619; -203.271; -226.512
421.604; 1683.090;   89.732;  233.484
421.893; 1000.590; -705.271; -602.511
422.183;  241.785; -487.263; -461.526
422.472;  390.617;  -36.271; -107.511
422.762;  460.165; -416.266; -379.521
423.051;  261.729; -916.276; -916.503
423.341;  328.048; -491.273; -439.507
423.630;  441.021; -121.265;   15.477
423.919;  386.635;   58.725;   49.495
424.209;  365.366;  -31.263;   56.473
424.498;  485.045;   68.732;  161.483
424.787; 1027.601; -535.267; -601.518
425.077; 3167.969;   34.735;   29.478
425.366; 4656.071; -734.262; -744.528
425.655; 9067.799;  639.727;  259.493
425.945;18508.923; -313.247; -268.554
426.234;10560.118;  117.741;  300.467
426.523; 4765.823;  -86.259; -350.534
426.812; 6589.236;  107.734;  159.480
427.101; 9366.612; -127.269; -323.515
427.390;12055.881;  -55.270;  -86.514
427.680; 3049.843; -624.257; -411.538
427.969;  517.078; -330.255; -301.540
428.258;  314.210; -385.257; -477.536
428.547;  567.186;  449.728;  397.490
428.836; 1351.794; -421.253; -398.543
429.125; 1970.525; -199.259;  -72.534
429.414;  862.267; -330.251; -294.548
429.703; 2927.467; -231.251; -213.548
429.992; 8616.870; -938.250; -828.549
430.281; 5727.203; -397.264; -331.524
430.570;  605.082;  -21.252;   32.454
430.859;  629.698;  279.741;  352.466
431.148;  495.744;  636.752;  631.446
431.437;  332.682;  391.748;  367.454
431.725;  160.586; -544.257; -481.536
432.014;  128.751; -845.253; -756.545
432.303;  398.018; -149.239; -105.569
432.592;  648.835; -460.263; -178.525
432.881; 1022.945; -601.248; -437.554
433.169; 5584.954; -343.255;  -61.540
433.458;11411.676;  445.765;  540.424
433.747; 4947.727; -397.261; -289.529
434.036;  954.219; -275.242; -280.564
434.324; 2017.932; -395.249; -379.551
434.613; 3381.963;   40.757;  159.437
434.902; 1230.333;  333.760;  439.433
435.190;  712.767;   75.761;  295.431
435.479;  413.095;  -52.245;   83.441
435.767;  146.428; -411.244; -427.561
436.056;  246.790; -340.242; -294.563
436.345;  380.236; -372.240; -223.568
436.633;  407.678;   60.750;  383.450
436.922;  311.138;  208.760;  414.432
437.210;  755.541; -194.236;    1.426
437.499; 2438.299; -583.235; -432.576
437.787; 2702.841; -339.236;  -10.574
438.075;  631.597;   56.761;  162.430
438.364;  859.525;  -44.238;  250.429
438.652;  537.103; -286.226; -138.592
438.941;  175.392;    3.770;  269.415
439.229;   14.304; -665.252; -466.545
439.517;   49.682; -160.234;  -85.577
439.806;    5.693; -501.225; -290.595
440.094;  203.865;  377.766;  650.421
440.382;  222.369; -653.233; -302.580
440.670;  252.124; -361.235; -285.576
440.959;   40.985; -347.223; -170.599
441.247;   83.753; -151.229; -109.587
441.535;  135.906; -266.235;   31.423
441.823;   53.962; -497.234; -305.578
442.111;  211.583;  173.771;  327.412
442.400;  618.169; -628.245; -335.559
442.688; 1732.265; -111.234; -620.579
442.976; 1284.846; -786.213; -450.617
443.264;  129.225; -324.224; -364.597
443.552;  112.954; -258.226;   51.408
443.840;  204.955;  602.765;  876.423
444.128;  120.393;  265.767;  269.420
444.416;   25.985; -694.228; -312.588
444.704;   48.139; -465.219;  -92.605
444.992;   88.806;   -0.226;  240.407
445.280;   59.218; -517.230;  -94.585
445.568;   39.050; -694.212; -396.618
445.856;  391.674; -174.221;  357.398
446.143;  891.085;  -54.220;   -7.604
446.431;  765.914;  -25.228;  625.411
446.719;  273.383;  489.783;  675.391
447.007;  189.262;  481.769;  705.416
447.295;  198.582;  597.777;  871.402
447.583;  109.901; -464.229;  -34.587
447.870;  163.795; -434.221; -202.601
448.158;  454.717; -104.230;  129.415
448.446;  372.711; -800.219; -338.604
448.733;  188.001;   13.776;  269.403
449.021;  280.449;   60.788;  341.382
449.309;  202.939; -296.210;  208.379
449.596;  247.279;  128.783;   59.392
449.884;  149.939; -571.222; -325.600
450.172;  154.919; -756.227; -406.590
450.459;  429.530;  645.786;  780.387
450.747; 2145.553; -411.218; -147.608
451.034; 6708.165;  493.772;  889.411
451.322; 5602.633; -413.214; -170.614
451.609;  510.502;  292.777;  508.403
451.897;  527.026; -550.203; -183.634
452.184; 1627.482; -622.223; -400.598
452.472; 1558.760;   97.792;  269.375
452.759;  338.987;  512.781;  864.395
453.047;  138.672; -407.212; -125.617
453.334;   93.920; -732.219; -216.606
453.621;   87.310; -438.214; -161.615
453.909;  143.243;   13.796;  384.368
454.196;  121.762; -299.199; -123.641
454.483;  233.639;  317.798;  540.364
454.771;  145.063; -215.208;  196.374
455.058;   45.966; -316.207;  102.374
455.345;  112.242;   71.807;  344.347
455.632;   93.194; -128.207;  235.373
455.919;   57.310;  -82.196;  182.354
456.207;  -38.358; -774.198; -450.642
456.494;    3.475; -475.200;  -66.639
456.781;   17.859; -399.202; -198.635
457.068;   79.376; -253.206;  -29.628
457.355;   13.952; -698.206; -401.629
457.642;   17.457; -552.205; -290.630
457.929;   11.758; -778.194; -417.651
458.216;   58.297; -575.212; -354.617
458.503;  206.687; -173.193;  -19.652
458.790;  188.461; -864.208; -630.625
459.077;  270.439;  -77.202;  110.364
459.364;  742.101; -350.195; -210.649
459.651; 1545.249;  -46.206;  220.372
459.938;  739.001; -864.209; -665.623
460.225;  184.192;  132.799;  276.363
460.512;  -29.193; -836.197; -688.645
460.799;  117.127;  -32.218;  320.392
461.086;   87.655; -370.200; -251.640
461.372;   79.592; -509.198; -279.642
461.659;  139.111; -165.196;  108.354
461.946;   85.136; -445.193;  -54.651
462.233;  246.603;  842.800;  888.361
462.519;  329.099; -814.201; -464.639
462.806;  941.207; -768.197; -497.645
463.093;  812.281; -445.191;  -66.656
463.380;  -18.378; -920.186; -824.664
463.666;   68.059; -259.197;  -18.646
463.953;   84.971; -406.195; -243.648
464.239;  180.921; -173.195;  -77.648
464.526;  409.506;  413.806;  743.350
464.813;  349.768; -565.190; -304.658
465.099;  380.587;  606.807;  607.348
465.386;  358.666;  903.807;  921.348
465.672;   43.857; -694.197; -522.645
465.959;   41.235; -598.188; -520.662
466.245;   13.091; -468.193; -359.652
466.532;  130.394; -109.195;   63.352
466.818;   89.146; -357.186; -216.664
467.104;   17.711; -488.182; -415.672
467.391;  -24.855; -628.189; -459.658
467.677;   33.675; -289.186;    9.335
467.964;   24.551; -682.189; -471.660
468.250;   83.053; -331.186; -160.665
468.536;   85.421;   90.811;  180.341
468.822;  -21.136; -821.184; -574.668
469.109;  168.790;  351.827;  471.311
469.395;  213.475;  729.808;  787.346
469.681;  202.199;   46.811;  156.341
469.967; 1147.003; -699.188; -382.660
470.254; 2450.936; -494.188; -306.662
470.540; 1601.709; -601.196; -476.646
470.826;  225.247; -488.181; -397.675
471.112;  278.893;  288.816;  113.331
471.398;  101.047; -253.183;  -58.670
471.684;   54.099; -626.177; -447.680
471.970;   -4.525; -918.180; -981.675
472.256;   27.824; -521.192; -441.654
472.542;   26.176; -499.171; -434.691
472.828;   26.932; -743.182; -607.672
473.114;   45.193; -380.166; -283.700
473.400;   26.041; -504.175; -293.684
473.686;   49.650; -452.166; -400.701
473.972;   56.705; -230.174; -131.687
474.258;  -42.260; -925.173; -843.689
474.544;  181.266; -183.178;   -2.679
474.830;  254.642;  -65.175;   45.316
475.116;  414.769; -123.190; -196.658
475.401;  554.253; -558.180; -467.676
475.687;  188.052; -725.180; -718.676
475.973;   19.840; -673.181; -770.673
476.259;  276.770;  736.825;  764.315
476.544;  352.682; -539.176; -437.682
476.830;  687.522; -398.172; -322.690
477.116;  592.281; -430.177; -336.682
477.401;  143.702;  346.820;  358.324
477.687;  -18.409; -289.175; -405.684
477.973;   54.843;   21.819;   28.326
478.258;    5.870; -448.163; -348.706
478.544;   63.133;   21.815;   61.334
478.829;  -52.569; -818.171; -738.692
479.115;  -29.328; -749.172; -651.690
479.401;   13.926; -444.174; -449.686
479.686;   43.976; -253.180;  -74.676
479.972;  -47.329; -886.178; -776.680
480.257;   36.870; -258.166;  -65.700
480.542;   -0.515; -614.170; -469.693
480.828;  254.439; 1288.824; 1392.317
481.113;  -40.238; -464.176; -426.683
481.399;   -6.682; -236.161; -202.711
481.684;  -60.956; -620.166; -462.700
481.969;   38.156; -158.159;  -73.713
482.255;   -5.330; -439.169; -285.695
482.540;    6.222; -569.178; -441.680
482.825;    3.817; -395.187; -404.663
483.110;   96.174;  -85.169; -105.696
483.396;  159.502; -840.157; -652.718
483.681;  437.030;  543.826;  730.313
483.966;  126.000; -696.160; -700.712
484.251;   13.679; -404.174; -310.687
484.536;    2.830; -356.165; -378.703
484.822;   15.607; -205.173; -218.687
485.107;  -23.285; -599.152; -502.726
485.392;  143.885;  662.836;  541.296
485.677;   64.633;  354.832;  163.302
485.962;  117.500;  160.843;  270.283
486.247;  102.427;  -14.162;   -8.707
486.532;   49.821; -178.166; -325.701
486.817;  153.112;  381.839;  431.291
487.102;  119.598; -453.154; -514.722
487.387;  579.554; -637.156; -652.718
487.672; 1000.966; -154.164;  -38.705
487.957;  648.569; -394.160; -286.711
488.241;  178.831; -290.150; -314.729
488.526;  626.791; -280.152; -148.726
488.811; 1019.274; -881.177; -818.680
489.096;  786.801; -666.154; -702.723
489.381;  447.962;    3.847;  162.275
489.666;  324.993; -428.161; -510.710
489.950;  169.554;  558.846;  627.277
490.235;  -24.374; -480.151; -458.728
490.520;  -34.233; -756.161; -723.710
490.804;  -52.744; -827.156; -736.719
491.089;   -0.878; -469.149; -299.732
491.374;   32.864; -132.164;  -75.704
491.658;   -2.892; -817.147; -717.735
491.943;  164.895; -657.152; -609.727
492.227;  255.519; -178.155;  -38.721
492.512;   57.649; -294.157; -341.717
492.797;  -57.784; -713.149; -716.731
493.081;  -58.989; -588.147; -598.735
493.366;  -33.807; -751.161; -635.711
493.650;  215.713;  831.859;  917.254
493.935;   29.682; -648.147; -447.734
494.219;  -48.325; -778.142; -687.743
494.503;  -49.689; -585.150; -487.730
494.788;   42.191;   46.842;   74.285
495.072;  113.682;  184.850;  434.271
495.356;  166.300; -463.148; -343.733
495.641;  410.442; -812.146; -736.736
495.925;  422.611; -976.156; -903.719
496.209;   48.296; -599.149; -451.732
496.494;  -41.449; -763.142; -544.744
496.778;   13.773; -364.154; -360.722
497.062;  -44.790; -819.156; -627.719
497.346;  -41.329; -869.160; -640.711
497.631;  133.278;  580.852;  560.266
497.915;   69.602;  -64.145;  175.261
498.199;   41.927; -341.157; -277.718
498.483;   42.239; -562.152; -508.725
498.767;  181.909;  301.850;  300.271
499.051;  161.094; -126.149; -100.732
499.335;   14.017; -693.149; -739.731
499.619;  -35.763; -381.129; -423.767
499.903;   20.568; -272.155;  -65.721
500.187;   40.530; -588.153; -316.724
500.471;   25.845; -796.152; -595.727
500.755;  121.967;   62.839;  -96.710
501.039;   25.843; -270.155; -357.721
501.323;   93.739;  -21.141;  264.254
501.607;   17.545; -447.163; -503.706
501.891;    9.679; -607.156; -512.718
502.174;  -35.637; -726.144; -585.741
502.458;   76.573;   89.849;  370.273
502.742;   37.613; -180.138; -191.751
503.026;   84.257; -412.147; -254.734
503.310;  142.130; -437.159; -375.713
503.593;   99.833; -464.147; -325.735
503.877;  127.327; -232.133; -156.760
504.161;  167.608;    2.847;  -50.724
504.444;  123.193; -841.158; -710.716
504.728;  392.963; -487.164; -522.704
505.012;  644.830; -257.150;  -76.729
505.295;  498.293; -417.161; -212.711
505.579;  469.885; -256.156; -496.719
505.862;  644.674; -555.145; -333.738
506.146;  640.932; -681.159; -758.714
506.429;  371.058;  568.841;  461.286
506.713;   46.078; -732.151; -667.728
506.996;  298.248;   90.846;  295.278
507.280;  294.034; -633.165; -474.703
507.563;  215.191; -469.155; -261.721
507.847;   91.306; -423.153; -112.724
508.130;   73.244; -665.161; -456.711
508.413;   90.041; -758.167; -577.700
508.697;  212.716; -151.167;   12.300
508.980;  118.432; -422.153; -312.724
509.263;   -3.387; -466.155; -450.720
509.547;   36.605; -124.150;   82.271
509.830;   59.696; -172.160;  140.289
510.113;   82.735;  128.844;  298.281
510.396;   34.938; -530.152; -300.725
510.680;  211.325; -818.145; -812.738
510.963;  798.602;  184.846;  180.277
511.246;  708.888; -493.150; -357.730
511.529;  279.755; -482.145;  -83.739
511.812;  308.874; -250.134;   10.241
512.095;  221.625; -740.151; -396.728
512.378;   54.437; -317.147; -245.736
512.661;   18.995; -703.137; -623.753
512.944;   13.602; -750.142; -637.744
513.227;   61.867; -170.137; -171.752
513.510;   20.313; -479.144; -671.741
513.793;   27.018; -485.140; -435.747
514.076;  128.432;  -43.127;  -39.771
514.359;  104.622; -294.149; -135.732
514.642;   65.805; -442.142; -567.744
514.925;  676.642;  581.860;  561.253
515.208;  829.995; -498.134; -443.758
515.491;  543.609; -276.133; -182.761
515.773;  325.492; -410.143; -337.742
516.056; 1778.376;  249.864;  409.246
516.339; 2460.330; -754.136; -652.755
516.622; 1942.185; -518.150; -488.730
516.904; 1463.199;  882.857;  975.257
517.187;  671.891; -730.138; -523.752
517.470;  383.773; -568.143; -510.743
517.752;  380.083; -624.136; -470.756
518.035;  283.129; -708.139; -725.749
518.318;  298.805; -799.136; -744.755
518.600; 2061.837; -300.132; -325.762
518.883; 2815.404;  310.858;   88.256
519.165; 1394.034; -585.138; -426.751
519.448;  374.937;  -61.132;  -19.762
519.730;  197.314; -573.126; -415.773
520.013;  338.330;  588.867;  664.240
520.295;  997.700;  -94.134;  -15.759
520.578; 2195.850; -335.131; -305.764
520.860; 2433.337; -254.132;   56.238
521.143; 1243.385; -763.135; -584.756
521.425;  470.302; -251.125; -279.775
521.707;  611.707; -622.127; -380.771
521.990; 1551.758; -199.127;  167.229
522.272; 1760.320; -116.140;   -4.748
522.554;  876.442; -237.143; -157.742
522.836;  409.473;  -24.134;   99.241
523.119;  219.481; -496.148; -189.734
523.401;  156.081; -448.130; -314.766
523.683;   67.221; -865.137; -693.753
523.965;  249.914;  408.862;  260.248
524.247;  235.823;   54.878;  170.220
524.529;  183.700; -451.134; -367.759
524.812;  328.133;   -3.130;  191.234
525.094;  696.939; -773.138; -631.751
525.376; 1171.861; -143.124;   78.223
525.658;  698.403; -441.136; -339.754
525.940;   19.671; -805.131; -671.764
526.222;   40.906; -188.136;  -88.755
526.504;  132.519; -190.131;   32.237
526.786;  220.053; -960.133; -647.760
527.068;  372.866; -124.123;  -67.778
527.349;  162.999; -865.137; -774.754
527.631;  126.037; -137.132;   22.238
527.913;  116.907; -664.127; -450.771
528.195;  144.895; -761.125; -639.774
528.477;  215.870;  -93.134;  -30.758
528.759;   88.633; -648.130; -522.766
529.040;   33.890; -569.123; -293.778
529.322;   42.673; -235.125;  -10.774
529.604;  160.635;  -47.130;   93.233
529.886;  147.964; -546.126; -302.773
530.167;  141.552;  232.870;  192.235
530.449;   44.537;    1.853;   63.265
530.731;   15.822; -572.122; -459.779
531.012;   43.592; -513.120; -216.784
531.294;   54.781; -118.116;  -43.792
531.575;  132.927;  290.875;  538.225
531.857;   43.590; -548.135; -266.757
532.138;   90.038; -113.141;   40.254
532.420;  186.312;  294.865;  403.244
532.701;  231.305; -722.133; -751.760
532.983;  383.433;  232.867;  182.239
533.264;  146.737; -243.126;  175.228
533.546;  -22.669; -491.136; -508.755
533.827;   55.502;  173.867;   -1.759
534.109;   50.240; -352.135;  -80.757
534.390;  108.641; -725.132; -582.762
534.671;  243.161; -270.135;  -82.756
534.953;  143.018; -751.123; -611.779
535.234;   10.541; -426.117; -255.789
535.515;  -77.624; -891.119; -735.785
535.796;   -6.822; -431.128; -193.770
536.078; -117.939;-1050.124; -904.777
536.359;   10.344;  -22.123;    3.221
536.640;  -15.503; -480.125; -197.774
536.921;  169.141;  225.871;  143.232
537.202;  331.035;  -87.138;  -16.751
537.483;  410.724;  251.869;  377.236
537.764;  172.027;   17.870;   98.235
538.045;  -40.905; -543.134; -371.758
538.326;  -42.158; -596.129; -447.768
538.607;    2.858; -686.127; -476.771
538.888;  152.034;   98.879;    5.218
539.169;  157.453; -704.122; -535.781
539.450;  316.014;  236.871;   16.233
539.731;  234.537; -361.121; -182.783
540.012;  119.617;  199.880;  412.216
540.293;   87.030;   82.876;  158.224
540.574;   22.726; -895.113; -717.796
540.855;  442.811;  435.879;  377.218
541.136;  499.901;   47.878;  139.220
541.416;  254.834; -161.130; -220.766
541.697;  177.020; -274.131; -170.763
541.978;  896.214; -270.135; -315.757
542.259; 1146.108; -211.127; -236.771
542.539;  562.475; -191.116; -186.790
542.820;  186.152;  461.875;  480.225
543.101;  130.952;  -52.145;  -77.738
543.381;   38.758; -638.127; -591.771
543.662;  250.756;  159.873; -254.771
543.942;  490.129; -751.127; -830.770
544.223;  923.702;  193.878;  161.219
544.504;  583.360; -275.124; -182.777
544.784;  531.489; -592.126; -408.773
545.065; 1478.803;  104.884; -254.791
545.345; 1743.301;  227.881;   14.215
545.626; 1143.875;  -14.113; -108.796
545.906;  769.502;   77.869;   98.235
546.186;  330.194;   92.874;  -95.773
546.467;  183.188;   99.877;  -95.778
546.747;  294.149;  264.884;  327.210
547.027;  350.259;   91.876;  111.223
547.308;  286.178; -376.127; -530.770
547.588;  357.618;  299.871;  371.232
547.868;  195.603;  458.870;  588.235
548.149;  195.461;  609.885;  593.207
548.429;  121.831; -347.127; -299.771
548.709;  153.667; -645.120; -461.784
548.989;  405.160;   84.882;   88.213
549.269; 1848.585;   10.868;  139.239
549.550; 4158.992;  215.877;  117.222
549.830; 3705.593; -758.111; -556.799
550.110;  746.450; -468.110; -320.801
550.390;  725.472; -128.122;  -56.779
550.670;  991.721; -868.114; -783.795
550.950;  705.236; -509.121; -471.782
551.230;  181.782;  549.879;  460.218
551.510;   -6.666; -381.121; -326.782
551.790;   30.858; -173.109; -127.803
552.070;  256.088;  940.877; 1181.223
552.350;  322.305; -492.119; -377.786
552.630;  498.430;   -2.121;   77.219
552.909;  284.454;  181.884;   73.209
553.189;  200.042;  -49.132;   33.237
553.469;  156.179; -703.119; -514.786
553.749;  149.309; -469.127; -357.772
554.029;  131.870;   33.883;  -24.790
554.308;  111.765; -154.115;  -37.794
554.588;   51.077; -196.128; -204.770
554.868;   52.361; -366.121;  -47.782
555.147;  111.112; -114.115;  -46.793
555.427;  518.831; -260.116; -250.792
555.707; 3297.285; -284.115; -200.793
555.986; 4005.496; -719.111; -538.800
556.266; 2116.948;   23.884;   72.210
556.546;   85.160; -888.121; -675.782
556.825;  207.694; -657.114; -556.794
557.105; 1529.500; -125.128;   17.230
557.384; 1780.278;  122.884;  187.209
557.664;  669.955; -717.116; -508.792
557.943;  101.711; -557.121; -411.782
558.222;  131.688; -345.118; -344.788
558.502;  231.988; -116.115;  -76.793
558.781;  439.109;  194.885;  499.208
559.061;  342.813; -232.118; -227.788
559.340;  268.868;  302.883;  353.211
559.619;  592.948;   93.884;  148.210
559.899;  832.020; -239.117; -266.789
560.178;  784.888; -778.115; -593.793
560.457; 2684.171; -623.117; -562.790
560.736; 3698.797; -472.111; -482.800
561.015; 2486.648; -500.128; -502.769
561.295;  346.252;  180.893;  215.193
561.574;  313.785;  119.885;  116.207
561.853;  444.962;  274.891;  303.197
562.132;  415.340;  -45.114;  182.206
562.411;  404.205;  396.879;  553.219
562.690;   98.159; -592.115; -458.792
562.969;  140.632;  472.888;  630.203
563.248;  502.978; 2966.878; 2487.219
563.527;  221.747; -290.111; -408.800
563.806;  304.806; -650.127; -521.771
564.085;  335.367; -297.105; -206.810
564.364;  203.098; -594.117; -405.790
564.643;  428.906; -276.121; -223.781
564.922; 1584.531;  221.890;  397.198
565.201; 1559.060; -640.109; -700.803
565.479;  685.332; -297.115; -219.792
565.758;  268.075; -810.128; -712.770
566.037;  413.586; -155.109; -100.803
566.316;  199.878; -286.116;  -28.791
566.595;   44.360;  -17.115;  -12.793
566.873;   92.948; -166.111;  -79.801
567.152;  -59.968; -490.113; -590.797
567.431;   10.724; -113.116;    6.210
567.709;   -5.473; -344.107; -212.807
567.988;  199.094; -810.114; -769.794
568.266;  460.285; -160.115;  -68.793
568.545;  332.388; -644.100; -514.819
568.824;  502.732;  160.885;  356.208
569.102;  442.618; -351.114; -235.794
569.381;  168.856; -492.116; -407.792
569.659;  -45.147; -553.113; -553.796
569.938;    8.926; -743.122; -465.780
570.216;   77.788; -225.109; -225.804
570.494;  -29.803; -632.114; -572.795
570.773;   36.984;  202.879;  114.218
571.051;    9.916; -373.123; -357.778
571.330;   31.601; -221.113; -174.796
571.608;   25.256; -181.098; -173.823
571.886;  -71.034; -671.111; -581.799
572.164;  -86.839; -739.121; -621.782
572.443;  -46.879; -562.105; -512.811
572.721;  -25.554; -399.117; -289.790
572.999;  -29.810; -280.117; -168.788
573.277;   84.289;  379.894;  620.191
573.555;  250.041;   94.894;   37.190
573.834; 1110.465;  -86.117; -114.788
574.112; 1301.380;  880.893;  811.193
574.390;  396.273; -143.111;  -96.801
574.668;   -5.392;  -91.112;  -61.797
574.946;  -12.283; -165.106; -187.810
575.224;    8.959;   71.891;  -16.803
575.502;  -13.474; -200.116; -204.791
575.780;  -89.691; -767.112; -829.798
576.058;  201.597; 1589.889; 1004.200
576.336;  -16.848; -210.110; -129.801
576.614;  -55.091; -511.112; -340.798
576.891;   17.439; -711.115; -823.794
577.169;  417.546; -158.108; -285.805
577.447;  485.904;  169.893;  202.193
577.725;  246.538;  629.888;  854.201
578.003;   -2.789;  -71.112; -371.798
578.280;   96.754; -208.104; -242.812
578.558;   43.213; -450.115; -422.793
578.836;  131.821; -210.114; -145.795
579.114;   52.707; -630.112; -670.797
579.391;   84.991;   -6.117;  -18.789
579.669;  -79.260; -595.114; -704.794
579.947;  143.576; -326.107; -127.806
580.224;  266.451; -692.107; -524.806
580.502;  267.580;  127.893;   76.193
580.779;   11.172;  -42.117;   75.210
581.057;  -67.136; -584.109; -470.804
581.334; -106.831; -726.102; -695.815
581.612;   36.167;   54.895;  511.190
581.889;  -32.043;  -83.101; -129.818
582.167;  -39.279; -298.099; -190.821
582.444; -108.273; -845.102; -814.817
582.721;   78.052;  657.899;  715.183
582.999;   40.693; -326.100; -167.821
583.276;  422.395; -812.123; -713.779
583.553;  574.047; -364.102; -294.816
583.831;  173.951; -607.104; -631.812
584.108;   42.544;  349.892;  174.195
584.385;   -1.082; -122.102;  -98.815
584.662;  -77.776; -651.111; -828.801
584.940;   37.098;  204.889;  204.199
585.217;  -39.072;  -73.113; -303.796
585.494;   29.382;   71.890;  118.198
585.771;  181.064; -250.109; -354.804
586.048;  434.678; -196.113;  -76.796
586.325;  261.451; -721.110; -773.801
586.602;   88.105;  230.896;  213.188
586.879;  -27.410; -499.100; -580.820
587.156;   26.643; -156.105; -331.810
587.433;  -37.150; -701.102; -667.817
587.710;   69.460;  152.888;  234.202
587.987;  263.248; -264.105; -236.811
588.264;  723.386;  315.888;  387.202
588.541; 1229.857;  -61.104;   26.187
588.818; 2407.741;   72.892;  171.196
589.095; 2063.053; -163.104; -174.812
589.371;  334.387; -459.109; -414.804
589.648;    7.605; -581.107; -437.807
589.925;    5.197; -517.114; -621.795
590.202;  -10.466; -741.112; -607.798
590.478;   69.000; -166.105;  -73.811
590.755;  217.622; -241.108; -132.806
591.032; 2113.603; -741.110; -699.802
591.308; 2886.570; -732.094; -790.831
591.585; 1512.978; -573.110; -560.802
591.862;   90.201;-1056.102; -950.817
592.138;   50.295; -475.108; -474.805
592.415;  127.356; -486.104; -495.813
592.691; 1316.828;  460.896;  518.188
592.968; 1654.632; -208.098; -123.824
593.244;  798.724; -695.116; -595.790
593.521;   67.177; -105.102;  -42.817
593.797;  -31.501; -810.122; -720.780
594.074;  271.795; -611.096; -588.826
594.350;  601.231;  828.905;  729.172
594.626;  255.899; -303.111; -283.801
594.903;   71.877; -643.101; -645.817
595.179;  152.784;  243.896;  418.187
595.455;   -3.169; -136.107; -150.807
595.731;   -1.114;  -19.103;  -38.814
596.008;  -36.507; -464.111; -434.800
596.284;   43.292; -187.100; -242.820
596.560;   46.851; -501.093; -493.833
596.836;  172.345; -173.105;  -70.810
597.112;  279.346; -582.108; -437.805
597.388;  247.218;  -49.097;  -48.826
597.665;  104.930;  437.887;  530.203
597.941;  -69.020; -572.089; -658.839
598.217;   -5.969; -323.110; -293.802
598.493;  217.866;   61.891; -204.804
598.769;  422.012; -175.100;  -50.819
599.045;  253.649; -490.108; -562.806
599.321;   36.941; -193.100; -261.820
599.597;   97.415; -355.109; -476.804
599.872;  424.657;  409.896;  429.187
600.148;  303.644;  -61.097; -172.826
600.424;  262.153;   91.893;  202.193
600.700;  196.156; -170.107; -280.807
600.976;   85.764; -442.097; -464.825
601.252;  184.012; -226.109; -272.803
601.527;  157.933; -833.104; -840.813
601.803;  112.851; -453.105; -404.812
602.079;  157.437; -124.100; -118.819
602.354;  478.186; -620.092; -531.835
602.630;  705.278; -140.113; -482.796
602.906; 2023.457; -910.101; -863.818
603.181; 5716.129; -627.119; -534.786
603.457; 4885.942;   98.903; -278.826
603.733;  714.238; -605.120; -626.783
604.008;  839.892; -245.106; -164.810
604.284; 2681.178; -636.101; -580.817
604.559; 2314.613;   -3.112;  -42.799
604.835;  418.695; -163.105; -225.810
605.110;  340.271; -732.099; -892.821
605.385;  614.929;  224.907;  267.167
605.661;  527.383; -625.095; -729.829
605.936;  962.524; -664.108; -737.806
606.211;  833.017;  -17.103; -170.815
606.487;  178.917; -329.114; -376.794
606.762;  -17.970; -791.119; -745.786
607.037;  -36.605; -501.105; -433.810
607.313;  -60.573; -589.096; -574.828
607.588;  -14.583; -375.106; -137.810
607.863;   33.107;  -28.101; -143.818
608.138;  153.130;  513.890;  516.198
608.413;   -7.025; -576.099; -592.822
608.688;   22.795; -203.108; -267.805
608.964;  157.086; -509.106; -218.809
609.239;  200.792; -107.105; -212.810
609.514;  232.550;  281.895;  240.188
609.789;  566.279; -187.104; -716.812
610.064;  738.351; -435.096; -609.827
610.339;  744.062; -855.109; -799.804
610.614;  955.767; -131.100; -315.820
610.889;  551.675;  215.895;  107.188
611.163;   10.801; -407.104; -591.812
611.438;   75.743;   81.886; -167.794
611.713;  -15.497; -467.101; -499.817
611.988;   44.081; -144.101; -328.818
612.263;  -55.031; -771.102; -717.815
612.538;  183.052;  385.887;  251.204
612.812;  133.068; -832.100; -911.820
613.087;   90.730; -358.098; -338.823
613.362;  -58.144; -497.107; -557.807
613.637;   47.113;  261.897;  138.186
613.911;  -28.189; -256.092; -345.835
614.186;   72.179; -249.107; -292.807
614.460;  531.828; -842.081; -758.854
614.735;  659.928;  -55.087;  -17.843
615.010;  134.893;   43.912;  -82.841
615.284;  226.620;  360.892;  246.195
615.559;  302.710; -792.092; -955.835
615.833;  266.798;  -76.099;  -87.822
616.108;  -13.428; -225.090; -390.837
616.382;  131.079;  274.913;  402.156
616.656;  134.497; -241.090; -232.837
616.931;  425.124; -785.099; -700.822
617.205;  895.134; -973.104; -979.813
617.480;  846.800;  -91.125;    6.225
617.754;  126.348; -396.125; -128.774
618.028;   -0.231; -369.129; -382.768
618.302;   49.968;   73.892;  -25.805
618.577;  -65.760; -371.103; -518.815
618.851;  -65.241; -399.109; -600.803
619.125;  -46.000; -335.134; -378.759
619.399;  -31.216; -244.104; -374.813
619.673;  -52.843; -330.115; -515.792
619.947;  -55.929; -333.114; -448.795
620.222;  -28.300; -198.110; -204.801
620.496;  -11.439;  -47.121;  -96.782
620.770;   11.253; -187.122;  -93.781
621.044;  186.518;  323.895;  346.190
621.318;  624.414; -653.120; -614.783
621.592;  556.012; -430.121; -409.783
621.866;  274.914; -476.112; -572.799
622.140;   20.376; -207.116; -356.791
622.413;   44.293;  138.889;  112.200
622.687;  -48.871; -746.101; -492.817
622.961;    9.718; -130.108; -143.805
623.235;  -74.381; -633.111; -661.800
623.509; -112.625; -816.105; -848.811
623.783;    9.252;  -12.107;   48.193
624.056;  -21.360; -254.120; -280.783
624.330;   33.883;   63.888;   -3.797
624.604;   38.873; -271.116; -355.790
624.877;   60.004;  180.890;   26.198
625.151;   21.241; -249.114; -238.794
625.425;  -39.514; -150.103; -283.814
625.698;  -73.901; -367.119; -374.785
625.972; -104.268; -799.110; -765.802
626.245;   59.599;  685.884;  484.210
626.519;  -48.656; -426.120; -340.784
626.792;  -30.995; -192.107; -380.807
627.066; -102.804; -485.122; -662.779
627.339; -112.222; -736.110; -663.802
627.613;   34.443;  351.880;  148.216
627.886;  -68.417;  187.891; -612.803
628.160;  -31.286;  312.880; -161.783
628.433; -104.397; -695.125; -703.775
628.706;  -90.831; -517.120; -615.784
628.979;   12.734;  296.876;  117.223
629.253;  -96.921; -785.119; -833.786
629.526;  294.813; -334.126; -253.772
629.799;  263.291; -641.123; -479.778
630.072;  128.770; -497.128; -516.769
630.346;  -78.601;-1115.116;-1080.790
630.619;  383.456; -467.107; -545.808
630.892;  535.095;  709.889;  593.200
631.165;  301.659;  790.896;  679.187
631.438; -103.239;-1092.112;-1055.798
631.711;   54.344;  453.877;  257.221
631.984;  -67.930; -523.117; -624.789
632.257;  -74.959; -636.117; -681.789
632.530;  -53.651; -412.119; -433.785
632.803;   28.039; -109.115;    7.207
633.076;  -79.687; -360.123; -422.777
633.349;   -0.626;  173.872;  121.231
633.622;  -38.152; -187.119; -240.785
633.895; -121.935; -903.120; -823.783
634.167;  -70.385; -496.126; -525.773
634.440;  -12.869;  -19.116; -137.792
634.713;  -17.172;  -22.119; -120.786
634.986;   77.364;  593.871;  453.233
635.258;  -95.138; -507.115; -597.793
635.531;  107.262;  742.882; -343.788
635.804;  -28.881; -303.117; -318.789
636.077;  -92.848; -830.116; -852.791
636.349;  -32.264; -586.115; -474.793
636.622;  374.512; 1695.874; 1392.228
636.894;  183.419; -474.120; -909.784
637.167;   97.681; -836.127; -789.771
637.439;   10.227; -278.128; -213.770
637.712;  -61.162; -312.126; -293.772
637.984;  -82.898; -635.116; -707.791
638.257;  353.488;  515.877;  488.222
638.529;  509.529; -881.125; -924.776
638.802;  217.120; -508.128; -449.769
639.074; -133.448; -927.122; -952.781
639.346; -130.183; -942.135; -930.757
639.619;    2.903;  -79.142; -319.744
639.891;  -12.604;  -83.122; -168.779
640.163;  -77.702; -689.122; -756.780
640.435;   31.875;  273.878;  103.220
640.708;   -1.874;  -72.122; -132.780
640.980;  -40.647; -366.122; -362.781
641.252;  180.455;  -25.121;  -71.781
641.524; 1658.607;  580.879;  573.219
641.796; 1658.334;-1094.121; -907.782
642.068;  282.685; -191.121; -300.782
642.340;  -78.213; -486.121; -566.783
642.613;   35.164;  294.880;  323.217
642.885; -100.759; -787.120; -878.783
643.157;  -55.357; -810.120; -658.784
643.428;   48.169;  170.880;  218.216
643.700;  -79.829; -498.120; -425.784
643.972;  -39.027;  -16.119; -133.785
644.244;  -86.975; -474.119; -559.785
644.516;  -54.374; -250.119; -114.786
644.788;   49.978;  662.881;  548.214
645.060;  -21.095;  -12.119; -124.786
645.332; -107.418; -525.118; -535.787
645.603;   38.709;  479.882;  342.213
645.875;  -75.540; -334.118; -369.787
646.147;  166.937; 1487.882; 1242.212
646.418;  -95.736; -931.117; -918.788
646.690;   86.091; -714.117; -715.789
646.962;   36.418; -413.117; -451.789
647.233;   -6.356;   15.883;   11.211
647.505;  -93.554; -595.117; -475.790
647.776;   30.598;  328.884;  229.210
648.048;  -19.850; -248.116; -418.790
648.320;  -82.998; -752.116; -679.791
648.591; -145.447;-1055.116; -958.791
648.862;  -93.670; -505.116; -577.792
649.134;   11.532;  115.885;  198.208
649.405;  -67.666; -661.115; -618.792
649.677;  -64.290; -475.115; -598.793
649.948;   -8.488; -181.115; -296.793
650.219;   -6.411;  -37.115; -147.793
650.491;  -87.009; -431.114; -520.794
650.762; -137.007; -705.114; -731.794
651.033;  -91.231; -437.114; -424.795
651.304;  -96.754; -743.114; -728.795
651.576;  -80.877; -680.114; -645.795
651.847;  -35.100; -250.113; -140.796
652.118;  -29.398;  -32.113; -189.796
652.389; -106.097; -639.113; -722.796
652.660;  -38.270; -147.113;  -89.797
652.931; -128.818; -897.112; -871.797
653.202;  -85.316; -382.112; -541.798
653.473;  -69.089; -633.112; -533.798
653.744;  120.437; -595.112; -590.798
654.015;  123.414; -356.112; -303.799
654.286;  -82.384; -642.111; -663.799
654.557;  -74.682; -586.111; -521.799
654.828; -158.506;-1114.111;-1088.800
655.099;  -84.004; -404.111; -291.800
655.370;  -99.452; -427.111; -543.801
655.641; -135.600; -656.110; -714.801
655.911; -116.598; -618.110; -638.801
656.182;   58.428;  437.890;  387.198
656.453;   84.455;  830.890;  746.198
656.724;  -71.243; -466.110; -426.802
656.994;  -89.491; -553.109; -568.803
657.265; -113.464; -862.109; -873.803
657.536;  -90.338; -500.109; -377.804
657.806; -108.486; -561.109; -593.804
658.077; -139.509; -866.109; -950.804
658.347;  -93.082; -523.108; -598.805
658.618; -115.480; -646.108; -694.805
658.888;  -28.879;  -41.108;  112.195
659.159;  -90.677; -432.108; -548.806
659.429;  -32.475; -292.108; -349.806
659.700;   -2.298; -435.107; -390.807
659.970;  -27.672; -370.107; -359.807
660.241;   -9.445; -754.107; -921.807
660.511;  425.432; -147.107; -174.808
660.781;   50.134; -793.106; -748.808
661.052;  -49.864; -222.106; -381.808
661.322;  -33.513;   21.894;   -9.809
661.592;    9.714;  257.894;  148.191
661.862;  -70.934; -369.106; -382.810
662.133;  -96.207; -551.105; -502.810
662.403; -137.380; -770.105; -676.810
662.673;  -59.779; -256.105; -213.811
662.943; -109.402; -612.105; -551.811
663.213;  -11.600;  -85.105;  -81.811
663.483;  -81.623; -593.104; -568.812
663.753;  -48.821; -194.104; -152.812
664.023;    1.630;   68.896;  -32.813
664.293;  -71.018; -319.104; -126.813
664.563; -125.516; -694.104; -648.813
664.833; -119.439; -743.103; -608.814
665.103; -135.013; -730.103; -793.814
665.373; -130.311; -766.103; -806.814
665.643; -104.334; -863.103; -918.815
665.913;   14.243; -534.103; -714.815
666.182;  113.620; -685.102; -719.816
666.452;  212.871;  -22.102;  -89.816
666.722;  -35.202; -724.102; -784.816
666.992; -135.325; -948.102; -921.817
667.261;  -95.348; -824.102; -808.817
667.531;  201.379;  134.899;   45.183
667.801;  538.730; -440.101; -412.818
668.070;  255.107;  714.899;  697.182
668.340; -116.091; -883.101; -840.819
668.609;   88.511;  588.900;  301.181
668.879;  -84.537; -490.100; -558.819
669.149;  -79.211; -539.100; -516.820
669.418; -113.784; -698.100; -726.820
669.688;  -26.557; -482.100; -666.820
669.957;   49.995; -423.099; -546.821
670.226;  -22.629; -268.099; -331.821
670.496; -101.477; -431.099; -635.822
670.765; -101.250; -418.099; -501.822
671.034; -145.223; -872.099; -828.822
671.304;  -12.221;   55.902; -111.823
671.573; -163.920;-1085.098; -957.823
671.842;   57.132; -380.098; -294.823
672.112;   -0.891; -692.098; -586.824
672.381;  -23.764; -239.098; -214.824
672.650; -146.112;-1005.097;-1021.825
672.919;  -97.211; -631.097; -507.825
673.188;  -99.934; -681.097; -878.825
673.457; -153.432;-1101.097;-1143.826
673.726;  -89.855; -579.096; -646.826
673.995;  -43.703; -533.096; -479.826
674.265;  -25.277; -263.096; -333.827
674.534;   -7.425; -183.096; -235.827
674.802;  -14.098; -618.096; -703.828
675.071;  879.079; -886.095; -801.828
675.340; 3345.055; -464.095; -339.828
675.609; 1109.182;  103.905;   82.171
675.878;   38.959; -949.095; -893.829
676.147;   20.261;  -26.095;   -8.829
676.416;   65.638; -210.094; -294.830
676.685;  650.814; 1000.906; -622.830
676.953;   73.416; -603.094; -452.831
677.222;  -34.082; -193.094; -273.831
677.491;  -32.855;  -24.094; -127.831
677.759;  -10.878;   11.907;  172.168
678.028;  -20.002; -279.093; -222.832
678.297;  -24.625;   71.907;  197.168
678.565; -148.123; -898.093; -944.833
678.834;  -57.396; -311.093; -268.833
679.102;  -88.194; -411.092; -391.834
679.371; -144.893; -898.092; -727.834
679.639; -141.816; -797.092; -786.834
679.908; -121.439; -794.092; -724.835
680.176; -156.562; -895.091; -941.835
680.445;  -68.686; -346.091; -352.835
680.713;  -29.809;  -58.091;  -23.836
680.982;  -94.907; -523.091; -525.836
681.250; -107.330; -578.091; -507.837
681.518; -103.378; -534.090; -751.837
681.787;  -35.627; -204.090; -167.837
682.055;  -77.100; -490.090; -422.838
682.323; -145.898; -993.090; -992.838
682.591;   33.104; -216.090; -538.838
682.859;   51.506;    9.911;  -35.839
683.128;   15.232;  232.911;  497.161
683.396; -169.366;-1102.089;-1122.840
683.664;  -48.689; -241.089;   21.160
683.932;   -3.062;  144.911;  -76.840
684.200;  -86.310; -576.088; -320.841
684.468;  -33.284;  -73.088; -124.841
684.736;  -30.432; -214.088; -175.841
685.004; -138.255;-1024.088; -982.842
685.272;  -74.653; -880.088; -774.842
685.540;  -71.052; -499.087; -557.843
685.808;  -95.475; -651.087; -682.843
686.076; -117.548; -894.087; -969.843
686.343;  -77.996; -601.087; -815.844
686.611;   26.956; -195.087; -224.844
686.879;  412.332; -530.086; -553.844
687.147; 2864.084; -483.086; -480.845
687.414;  783.061;  -12.086; -169.845
687.682;   -2.137; -658.086; -757.846
687.950;  263.115;  259.915;  263.154
688.217;  -12.734; -792.085; -760.846
688.485;  -22.032; -632.085; -636.847
688.753;  441.245;  -11.085; -102.847
689.020;  104.072; -820.085; -851.847
689.288; -107.226; -853.084; -787.848
689.555;  -29.250; -195.084; -148.848
689.823;  -40.498; -241.084; -345.849
690.090;  -95.746; -546.084; -651.849
690.358; -163.744; -877.084; -897.849
690.625;   -6.318;  120.917;   45.150
690.892;  -90.041; -403.083; -369.850
691.160;  -27.914;   72.917;  -35.850
691.427;    1.888;  141.917;  130.149
691.694; -125.210; -855.083; -929.851
691.962; -153.784;-1177.082;-1060.852
692.229;   12.668;  127.918;   56.148
692.496;   67.545;  130.918;  -49.852
692.763;    2.347; -164.082; -201.853
693.031;  -80.651; -739.082; -716.853
693.298;  -53.725; -509.081; -368.853
693.565;  276.152; -155.081; -163.854
693.832; 1077.704;   -5.081;   -9.854
694.099;  109.731; -643.081; -642.855
694.366;  -75.917; -882.081; -896.855
694.633;  -78.191; -920.080; -633.855
694.900;  751.086; 4367.920; -114.856
695.167;  380.838; -214.080; -380.856
695.434;   87.290; -646.080; -623.856
695.701;  188.066;  121.921;  -61.857
695.968;  422.568; -365.079; -361.857
696.234;  979.795; -415.079; -646.858
696.501;10303.972; -776.079; -614.858
696.768; 5095.949; -554.079; -617.858
697.035;  311.125; -632.078; -667.859
697.302;   29.152; -448.078; -552.859
697.568;   11.479; -458.078; -497.859
697.835;  -49.669; -683.078; -624.860
698.102;  -32.667; -498.078; -407.860
698.368;   83.459;  384.923;  396.139
698.635;  -35.864;  -47.077; -424.861
698.901;  -20.862; -240.077; -348.861
699.168;   55.640; -534.077; -456.862
699.435;   44.317;  -72.077;  -13.862
699.701; -106.682; -868.076; -764.862
699.968;  -43.980;  144.924; -441.863
700.234; -101.803; -783.076; -822.863
700.500;  -61.976; -448.076; -539.864
700.767;   -6.975;   -1.075;   26.136
701.033; -122.373;-1015.075; -963.864
701.299;  -47.146; -450.075; -483.865
701.566;  129.506;  950.925;  763.135
701.832;   15.458;  -31.075;  -76.865
702.098; -108.766;-1054.074;-1034.866
702.365; -104.514;-1098.074;-1030.866
702.631;  -36.037;-1038.074;-1063.867
702.897; 1294.565; -765.074; -676.867
703.163; 2033.767;  348.926;  254.133
703.429;  154.618; -256.073; -273.868
703.695;  -32.805; -796.073; -792.868
703.961;   34.222; -214.073; -210.868
704.227;  -62.226; -630.073; -725.869
704.493;  125.601;  613.927;  510.131
704.759;  -48.048; -565.072; -540.870
705.025;   25.479; -203.072; -194.870
705.291;  -19.019; -666.072; -562.870
705.557;  187.633;  719.928;   34.129
705.823;   25.184; -742.072; -694.871
706.089;  138.336; -307.071; -326.871
706.355;  406.263; -315.071; -244.872
706.620; 6006.115; -776.071; -729.872
706.886; 7821.692; -309.071; -362.873
707.152;  702.343; -818.070; -973.873
707.418;  -21.005;-1153.070;-1186.873
707.683;   -6.153; -550.070; -530.874
707.949;  -46.251; -547.070; -578.874
708.215;   -0.449; -129.070; -207.874
708.480;  -29.473; -520.069; -420.875
708.746;   94.404;   68.931;   28.125
709.011;  -54.944; -578.069; -612.876
709.277;  -92.967; -538.069; -543.876
709.542;  -46.590; -428.069; -387.876
709.808;  -24.164;  -59.068;   89.123
710.073;  -98.662; -577.068; -695.877
710.339;  -28.610; -242.068; -228.877
710.604;   71.417; -780.068; -845.878
710.869;  285.843; -277.068; -366.878
711.135;  -66.980; -715.067; -628.879
711.400;  -99.278; -507.067; -608.879
711.665;  -69.051; -404.067; -479.879
711.931; -104.799; -661.067; -677.880
712.196; -125.173; -876.067; -954.880
712.461;   81.029; -402.066; -490.880
712.726;   89.706; -727.066; -771.881
712.991;  -86.217; -647.066; -664.881
713.256;  -44.915; -350.066; -332.882
713.521;  -59.739; -417.065; -381.882
713.787;  -75.087; -454.065; -472.882
714.052;  -23.035; -214.065; -400.883
714.317;  -92.658;-1045.065; -981.883
714.581; 1128.869; -374.065; -268.883
714.846; 1433.170; -822.064; -888.884
715.111;  133.122;  261.936;  257.116
715.376;  -30.626;  -86.064; -223.885
715.641;  -24.249; -365.064; -367.885
715.906;  256.877;   15.936; -551.885
716.171;  125.754;  221.937;  209.114
716.436;   24.056;  -78.063; -104.886
716.700; -107.267; -818.063; -692.886
716.965; -127.190; -794.063; -807.887
717.230;  -76.814; -339.063; -392.887
717.494;  -30.662;  -40.062; -134.888
717.759;  -91.185; -784.062; -640.888
718.024;   -0.308;  269.938;  250.112
718.288;   59.069;  685.938;  395.111
718.553; -150.055; -803.062; -977.889
718.817; -151.203; -883.061; -899.889
719.082;  -25.751; -115.061; -125.890
719.346; -156.349;-1000.061; -947.890
719.611;  -56.772; -300.061; -255.891
719.875;  -96.871; -568.060; -537.891
720.140;  -67.669; -453.060; -603.891
720.404;   25.858; -136.060; -249.892
720.668;  734.560; -475.060; -411.892
720.933;  283.836;  146.940;  137.108
721.197;  -99.337; -667.059; -600.893
721.461; -149.510; -851.059; -826.893
721.725;   -1.233;  -21.059; -250.894
721.990;  -48.656; -284.059; -204.894
722.254;  -22.430;  -26.059; -108.894
722.518;  -66.928; -286.058; -442.895
722.782;  -97.426; -743.058; -594.895
723.046;  128.351;  614.942;  570.105
723.310;   19.028;  374.942;  210.104
723.574;  -95.621; -654.058; -614.896
723.838; -106.469; -576.057; -642.897
724.102;  -39.292; -226.057; -239.897
724.366; -149.690;-1032.057; -978.897
724.630;  -93.363; -749.057; -571.898
724.894;  -93.787; -722.057; -514.898
725.158;  -10.410;   38.944; -295.898
725.422;  -63.233; -394.056; -327.899
725.685;  -70.531; -441.056; -349.899
725.949;  -74.030; -566.056; -519.900
726.213;  -85.078; -732.056; -811.900
726.477;  130.724;-1020.055; -933.900
726.740;  123.551; -274.055; -104.901
727.004;  322.653; -384.055; -510.901
727.268; 3377.829; -442.055; -400.901
727.531;  904.231; -961.055; -775.902
727.795;  -50.767; -713.054; -673.902
728.059;  -62.565; -552.054; -557.903
728.322;  -85.238; -841.054; -669.903
728.586;    2.988; -692.054; -701.903
728.849;  -94.160; -695.053; -756.904
729.112; -113.633; -812.053; -912.904
729.376; -141.481; -959.053; -905.904
729.639;  -86.054; -536.053; -536.905
729.903; -119.503; -733.053; -699.905
730.166;  -44.501; -437.052; -399.906
730.429;  -30.024; -317.052; -468.906
730.693;  -71.172; -355.052; -894.906
730.956;  205.354;  810.948;  651.093
731.219;  628.956; -310.052; -103.907
731.482;   97.983;-1003.051; -894.907
731.745;   50.710; -794.051; -935.908
732.009;   10.937;  -30.051;   50.092
732.272;  -99.312; -904.051; -771.909
732.535;  -48.785; -300.051; -310.909
732.798; -165.233;-1083.050;-1166.909
733.061;  -66.056; -430.050; -456.910
733.324;   -7.429;   31.950; -180.910
733.587;   56.322;  290.950;  365.090
733.850;  -80.351; -973.049;-1050.911
734.113;   20.426;   33.951;   32.089
734.376;   -7.397; -328.049; -447.912
734.639;  205.405; 1188.951; 1011.088
734.901;   66.856; -180.049; -402.912
735.164;  470.783; -883.048; -837.913
735.427; 1139.110; -166.048; -355.913
735.690;  117.987; -205.048; -234.913
735.952;  -52.412; -923.048; -925.914
736.215;  -31.460;-1113.048;-1009.914
736.478;   22.992; -771.047; -774.915
736.740;  192.219;   33.953;  129.085
737.003;  642.646; -658.047; -672.915
737.266; 3602.172;  -94.047;   46.084
737.528;  375.274; -682.047; -660.916
737.791;  300.701; -316.046; -327.916
738.053;  814.928;  465.954;  649.083
738.316;10998.830; -162.046; -136.917
738.578; 7247.306; -770.046; -736.918
738.841;  421.633; -382.046; -446.918
739.103;  156.635; -875.045; -777.918
739.365;  471.237;   79.955;  -69.919
739.628;  -11.162; -884.045; -805.919
739.890;  -29.260; -758.045; -710.919
740.152;  -45.233; -692.044; -754.920
740.414;  -11.006; -408.044; -359.920
740.677;  -57.479; -785.044; -634.921
740.939;  -44.128; -587.044; -487.921
741.201;  218.249; -432.044; -572.921
741.463;   27.176; -689.043; -745.922
741.725;    7.253;  -21.043; -199.922
741.987;   53.780;  220.957;  116.078
742.249;  -15.044; -751.043; -859.923
742.511;  172.633; -703.043; -794.923
742.773;    6.160; -546.042; -546.924
743.035;  130.787;  796.958;  533.076
743.297;  -52.236; -963.042;-1013.924
743.559;  681.815; -278.042; -262.925
743.821;   24.617; -735.042; -744.925
744.083;    4.819;  -44.041; -149.925
744.345;  -95.729; -869.041; -892.926
744.607;   33.422;   75.959;  122.074
744.868;  -51.676; -490.041; -554.927
745.130; -115.849; -994.041;-1008.927
745.392;   50.478;   -1.040;  -44.927
745.653;  -22.170; -411.040; -378.928
745.915;  148.656;  896.960;  631.072
746.177;   45.333;   35.960;  -43.928
746.438;  -11.090; -428.040; -543.929
746.700;  -62.913; -947.039; -988.929
746.961;   -0.311; -659.039; -740.930
747.223;  126.390; -190.039;  -74.930
747.484;   68.817; -391.039; -471.930
747.746;  138.319;  -23.038; -106.931
748.007;   82.021; -647.038; -689.931
748.269;  292.123; -468.038; -440.931
748.530;  402.524; -852.038; -638.932
748.791;  237.026; -354.038; -420.932
749.053;  403.678;  286.963;  163.067
749.314;  424.205; -236.037; -169.933
749.575;  448.781; -945.037; -905.933
749.836;  795.208; -217.037;   86.066
750.098; 2451.410;  -60.037;  -21.934
750.359;34877.362;  414.964;  555.066
750.620; 8253.114; -121.036; -220.935
750.881;  995.790; -585.036; -513.935
751.142; 1274.617; -950.036; -938.936
751.403;16745.969; -789.036; -705.936
751.664; 6794.021;-1034.035; -999.936
751.925;  446.873; -175.035; -262.937
752.186;  260.199; -298.035; -278.937
752.447;  127.851; -590.035; -445.937
752.708;   43.928; -532.035; -648.938
752.969;   11.505; -566.034; -576.938
753.230;  -24.993; -777.034; -672.939
753.491;  -16.342; -650.034; -631.939
753.751;   68.160;  109.966;   19.061
754.012;   75.287;  258.967;  181.060
754.273;   53.539; -174.033;  -71.940
754.534;   -9.160; -487.033; -580.940
754.794; -101.008; -926.033; -911.941
755.055;  141.469; 1051.967;  881.059
755.316;  -46.404; -700.032; -566.942
755.576;  -40.327; -606.032; -576.942
755.837;  -50.851; -527.032; -695.942
756.097;  -44.174; -530.032; -564.943
756.358;  -71.647; -725.032; -770.943
756.618;  -60.970; -705.031; -641.943
756.879;   -8.743; -254.031; -349.944
757.139; -125.892;-1098.031;-1116.944
757.400;  -54.665; -538.031; -553.945
757.660;  -34.288; -365.031; -401.945
757.920;   -0.711; -266.030; -228.945
758.181;  -23.709; -468.030; -351.946
758.441; -114.683; -870.030; -809.946
758.701;  -47.131; -308.030; -215.946
758.961;  -16.079; -220.030; -278.947
759.222;  -61.202; -574.029; -502.947
759.482;  -80.626; -683.029; -723.948
759.742;  -72.499; -706.029; -547.948
760.002;    5.253;  -83.029; -143.948
760.262;   21.405;   50.972;  182.051
760.522;  -51.968; -498.028; -574.949
760.782;  -63.692; -738.028; -612.949
761.042;  -41.715; -618.028; -573.950
761.302;   45.412;   55.972;  -18.950
761.562;   37.814; -164.027; -154.951
761.822;   60.816; -710.027; -551.951
762.082;  -31.233;-1104.027;-1093.951
762.342;   44.019; -328.027; -403.952
762.601;   68.871; -567.027; -506.952
762.861;  326.748; -281.026; -207.952
763.121;  411.000; -406.026; -411.953
763.381; 7533.351; -499.026; -485.953
763.640; 7620.128; -139.026; -307.954
763.900;  347.055; -242.026; -203.954
764.160;   93.007; -458.025; -491.954
764.419;  -36.767; -726.025; -782.955
764.679;  -69.715; -795.025; -726.955
764.939;  -14.163; -124.025; -210.955
765.198;  -80.086; -608.025; -563.956
765.458;  -95.459; -710.024; -612.956
765.717;  -97.883; -454.024; -590.957
765.976;  -65.706; -428.024; -411.957
766.236;  -89.054; -475.024; -610.957
766.495;   20.723;  260.977;   73.042
766.755; -119.350;-1090.023; -987.958
767.014;   -8.849; -594.023; -665.958
767.273;  -50.522; -373.023; -397.959
767.533;  -52.295; -228.023; -307.959
767.792;  -36.618; -151.022; -188.960
768.051;  -62.766; -228.022; -276.960
768.310; -107.815; -546.022; -650.960
768.569;  -14.488; -161.022;    4.039
768.828;  -45.186; -285.022; -363.961
769.088; -119.784;-1050.021; -942.961
769.347;  -82.133; -755.021; -599.962
769.606; -100.606; -876.021; -857.962
769.865; -113.854;-1016.021;-1033.963
770.124;   -3.702; -411.021; -336.963
770.383;  -39.225; -778.020; -910.963
770.641;    0.376; -398.020; -400.964
770.900;  -81.572; -953.020; -846.964
771.159;  -38.095; -851.020; -951.964
771.418;  -11.468; -917.020; -779.965
771.677;  138.384; -224.019; -293.965
771.936;  146.960; -794.019; -865.966
772.194; 2523.712; -465.019; -437.966
772.453;11107.964; -213.019; -391.966
772.712;  738.816;  416.982;  329.033
772.970;  129.518;   32.982;   63.033
773.229;   93.969;  -22.018;  102.033
773.488;  -87.204; -814.018; -770.968
773.746;   57.023;  296.982;  335.032
774.005;    6.400;  190.983;  -22.969
774.263;    8.851;  243.983;  177.031
774.522;  -94.597; -422.017; -548.969
774.780;  -87.695; -484.017; -417.970
775.039;  -75.068; -551.017; -531.970
775.297;  -44.391; -135.016; -351.970
775.555; -103.040; -489.016; -612.971
775.814; -122.988; -618.016; -570.971
776.072; -127.736; -749.016; -740.971
776.330;  -82.634; -630.016; -520.972
776.589; -124.632; -703.015; -721.972
776.847; -131.181; -645.015; -624.973
777.105; -181.354;-1016.015;-1032.973
777.363;  -69.252; -459.015; -454.973
777.621; -127.950; -660.015; -717.974
777.879;  -31.223;  -42.014;   32.026
778.138; -101.072; -554.014; -717.974
778.396; -111.295; -585.014; -526.975
778.654; -173.193;-1015.014; -970.975
778.912;  -67.641; -269.014; -371.976
779.170; -135.465; -880.013; -803.976
779.427; -154.088; -922.013; -897.976
779.685; -148.111; -880.013; -832.977
779.943;  -94.984; -654.013; -593.977
780.201; -164.557; -964.012; -883.978
780.459; -115.431; -651.012; -610.978
780.717;  -96.404; -440.012; -390.978
780.974;  -95.827; -449.012; -490.979
781.232;  -76.725; -358.012; -338.979
781.490;  -87.098; -551.011; -472.979
781.747;  -95.972; -555.011; -476.980
782.005;   16.630;  462.989;  254.020
782.263; -164.418; -542.011;-1004.981
782.520;  -82.866; -326.011; -501.981
782.778; -175.439;-1013.010;-1051.981
783.035; -185.038; -962.010; -938.982
783.293;  -63.536; -248.010; -206.982
783.550;  -60.934; -134.010; -198.982
783.808; -147.982; -764.010; -776.983
784.065; -157.956; -745.009; -874.983
784.322;  -59.929;   25.991;  -86.984
784.580; -135.527; -915.009; -771.984
784.837; -102.175; -392.009; -466.984
785.094; -136.148; -783.009; -762.985
785.352;  -73.672; -304.008; -404.985
785.609; -114.420; -934.008; -839.985
785.866;  -63.568; -345.008; -401.986
786.123;  -77.766; -639.008; -583.986
786.380; -107.164; -665.008; -604.987
786.637;  -45.063; -225.007; -380.987
786.895;  -29.536; -456.007; -543.987
787.152;  -42.084; -135.007; -267.988
787.409;  -35.832; -123.007; -225.988
787.666;  -93.980; -299.006; -378.988
787.923; -117.304; -616.006; -695.989
788.179; -109.227; -551.006; -584.989
788.436; -111.550; -585.006; -585.990
788.693;  -37.998;  -92.006;  -87.990
788.950;  125.153; -125.005; -112.990
789.207;  152.880; -381.005; -372.991
789.464;  -58.418; -161.005; -301.991
789.720;  -11.241;  150.995;  110.009
789.977; -173.614;-1003.005; -671.992
790.234;  -27.513;   44.996;  -66.992
790.490; -155.086; -884.004;-1031.993
790.747;  -28.284;  -85.004;   22.007
791.004;  -33.007; -426.004; -348.993
791.260;  -84.255; -430.004; -560.994
791.517;  -96.079; -843.003; -788.994
791.773;  -59.202; -379.003; -342.994
792.030; -115.500; -596.003; -660.995
792.286; -101.648; -686.003; -636.995
792.543;  -17.571;  -74.002; -159.995
792.799;  -65.070; -584.002; -382.996
793.055; -158.318;-1179.002;-1210.996
793.312;  -90.791; -827.002; -816.997
793.568;  -76.314; -746.002; -599.997
793.824;   12.112; -226.001; -284.997
794.081;   14.039; -447.001; -508.998
794.337;   61.666; -664.001; -561.998
794.593; 1384.193; -319.001; -271.999
794.849; 6183.245; -746.001; -772.999
795.105;  276.196; -270.000; -261.999
795.361;    2.173; -490.000; -457.000
795.617;  -71.775; -875.000; -945.000
795.873;  -61.475; -360.000; -407.000
796.129;  -47.725; -368.000; -306.000
796.385;  -20.950; -124.000; -156.000
796.641;   79.825;  412.000;  550.000
796.897;  -89.300; -666.000; -635.000
797.153;   61.425;  453.000;  357.000
797.409; -102.975; -785.000; -868.000
797.665;  -79.975; -625.000; -732.000
797.921;  -74.350; -775.000; -762.000
798.176;  -63.300; -744.000; -747.000
798.432;  -62.100; -824.000; -596.000
798.688;  -79.850;-1174.000;-1078.000
798.943;   84.000; -165.000; -147.000
799.199;    1.375;-1005.000; -959.000
799.455;  231.200;  369.000;  316.000
799.710;  123.250; -813.000; -380.000
799.966;  300.400; -162.000; -160.000
800.221;  485.500; -638.000; -721.000
800.477;10974.125; -743.000; -710.000
800.732; 8816.500; -773.000; -800.000
800.988;  634.700;  205.000;  -19.000
801.243; 2123.700; -454.000; -344.000
801.498; 8326.950; -814.000; -739.000
801.754;  453.825; -289.000; -163.000
802.009;   89.400; -257.000; -335.000
802.264;  -42.375; -967.000;-1033.000
802.520;   31.900;  222.000;   -3.000
802.775;  -57.400; -524.000; -359.000
803.030;   56.825;  395.000;  356.000
803.285; -115.800; -840.000; -903.000
803.540;  -69.050; -686.000; -699.000
803.795;  -70.600; -648.000; -583.000
804.051;  -47.550; -279.000; -346.000
804.306;   19.225;  168.000;  128.000
804.561;  136.225;  451.000;  362.000
804.816;  126.550;  714.000;  861.000
805.071;   -5.625; -185.000; -280.000
805.325;  181.125; -257.000; -427.000
805.580; -108.450; -841.000; -877.000
805.835;  -24.875; -204.000; -297.000
806.090;  -79.700; -760.000; -676.000
806.345;  -12.625; -344.000; -264.000
806.600;  -24.575; -549.000; -632.000
806.854;  -43.850; -408.000; -538.000
807.109;  -14.075; -493.000; -577.000
807.364;  -10.750; -407.000; -328.000
807.618;    1.175; -415.000; -381.000
807.873;   26.750; -470.000; -494.000
808.128;   87.350; -257.000; -518.000
808.382;   88.075; -224.000; -332.000
808.637;   63.125; -440.000; -511.000
808.891;  182.625; -257.000; -180.000
809.146;   87.625; -902.000; -794.000
809.400;  243.450; -848.000; -923.000
809.654;  303.075; -779.000; -551.000
809.909;  448.000; -841.000; -927.000
810.163; 6586.950; -813.000; -651.000
810.418;15378.475; -940.000; -861.000
810.672;  938.575; -685.000; -690.000
810.926;  709.375; -993.000; -973.000
811.180; 1441.425; -439.000; -372.000
811.434;32695.875;  240.000;  135.000
811.689;11739.750; -231.000; -365.000
811.943;  577.050; -936.000; -953.000
812.197;  293.875; -893.000; -671.000
812.451;  102.925; -379.000; -514.000
812.705;  -10.925; -809.000; -619.000
812.959;   -3.000; -263.000; -388.000
813.213;   -3.750; -283.000; -209.000
813.467;   68.950;  470.000;  253.000
813.721; -103.675; -764.000; -792.000
813.975; -120.275; -826.000; -877.000
814.229;   48.800;  430.000;  353.000
814.482;  -84.850; -517.000; -566.000
814.736; -116.875; -766.000; -744.000
814.990; -136.850; -779.000; -872.000
815.244;  -40.475; -228.000; -285.000
815.497;  -90.000; -636.000; -601.000
815.751;   -9.475; -141.000;   82.000
816.005;  -85.975; -470.000; -586.000
816.258;  -70.900; -510.000; -363.000
816.512; -113.550; -693.000; -610.000
816.766;   13.375;  121.000;  157.000
817.019;   25.025;  148.000;  149.000
817.273; -129.850;-1000.000; -802.000
817.526;  -39.000; -206.000; -173.000
817.779;  -58.075;-1049.000; -960.000
818.033;  -94.200; -693.000; -807.000
818.286; -122.850; -725.000; -792.000
818.540;  -97.450; -403.000; -403.000
818.793;  -82.100; -402.000; -489.000
819.046; -110.650; -582.000; -520.000
819.299;  -34.950; -157.000; -166.000
819.553; -100.450; -552.000; -592.000
819.806; -151.925;-1016.000; -838.000
820.059;  -60.750; -334.000; -354.000
820.312;    8.125;  152.000;  185.000
820.565;  -30.225;  110.000;  -27.000
820.818;  -46.350;  -59.000; -173.000
821.071; -167.450;-1041.000; -957.000
821.324; -109.050; -536.000; -540.000
821.577; -100.375; -457.000; -483.000
821.830;  -61.675; -270.000; -172.000
822.083; -139.100; -733.000; -288.000
822.336;  -53.475; -261.000; -167.000
822.589; -137.800; -805.000; -688.000
822.842; -139.175; -875.000; -770.000
823.094; -190.300;-1076.000;-1114.000
823.347; -137.475; -925.000; -729.000
823.600;    8.325;  402.000;  187.000
823.853;  -54.125; -311.000; -267.000
824.105;  -79.150; -331.000; -575.000
824.358; -108.775; -617.000; -716.000
824.611;   38.775;  234.000;   40.000
824.863;  -44.775; -612.000; -591.000
825.116;   38.175;  -33.000;   27.000
825.368;   62.500; -366.000; -372.000
825.621;  146.025; -186.000; -240.000
825.873;   69.850; -704.000; -737.000
826.126;  606.675; -669.000; -641.000
826.378;11711.375; -389.000; -505.000
826.630; 2497.350; -890.000; -898.000
826.883;   31.150; -754.000; -693.000
827.135;   37.850; -279.000; -270.000
827.387; -124.650; -893.000; -839.000
827.639;  -33.925;  -86.000;   32.000
827.892; -130.625; -742.000; -582.000
828.144; -141.600; -848.000; -804.000
828.396;  -39.200;  104.000;  -80.000
828.648; -112.550; -440.000; -333.000
828.900; -154.300; -702.000; -795.000
829.152; -128.125; -684.000; -683.000
829.404;  -83.650; -215.000; -267.000
829.656;  -58.300;  321.000;  214.000
829.908;  -17.125;  393.000;  229.000
830.160; -161.825;-1064.000;-1047.000
830.412; -111.850; -481.000; -430.000
830.664; -129.775; -557.000; -665.000
830.916;  -96.850; -268.000; -206.000
831.167; -182.875;-1073.000; -951.000
831.419; -111.250; -623.000; -566.000
831.671; -153.650; -764.000; -809.000
831.923;  -94.275; -311.000; -447.000
832.174;  -85.325; -273.000; -331.000
832.426; -121.300; -493.000; -582.000
832.678; -191.600;-1043.000;-1091.000
832.929; -164.175; -947.000; -935.000
833.181;  -96.550; -575.000; -677.000
833.432;  -58.400;  -59.000; -186.000
833.684;  -17.825;  112.000;  -27.000
833.935; -118.700; -610.000; -566.000
834.187; -123.850; -829.000; -823.000
834.438;  -42.575;  -58.000;  -25.000
834.689;  -58.150; -255.000; -123.000
834.941;  -59.875; -343.000; -244.000
835.192; -103.525; -590.000; -533.000
835.443;  -95.875; -419.000; -506.000
835.695;  -13.700;  138.000;  -16.000
835.946; -103.775; -608.000; -378.000
836.197; -118.525; -599.000; -622.000
836.448;  -97.000; -528.000; -395.000
836.699;  -65.450; -253.000; -341.000
836.950;   -3.300;   72.000;    7.000
837.201; -164.375;-1003.000; -987.000
837.452;  -67.375; -356.000; -170.000
837.703; -126.900; -791.000; -737.000
837.954;  -34.725; -205.000; -365.000
838.205;  -93.700;-1029.000;-1008.000
838.456;  143.325; -196.000; -282.000
838.707;   -2.425; -423.000; -519.000
838.958;   -6.825; -634.000; -647.000
839.209;  251.525;   18.000;   40.000
839.460;  109.775; -439.000; -201.000
839.710;  148.425; -135.000; -297.000
839.961;  414.825;  730.000;  612.000
840.212;  317.975; -382.000; -497.000
840.462; 1174.700; -328.000; -277.000
840.713;18279.975; -571.000; -536.000
840.964; 6544.900;  -62.000; -143.000
841.214;  453.500; -384.000; -624.000
841.465;  533.475; -214.000; -141.000
841.715;  449.025; -417.000; -380.000
841.966;  606.725; -746.000; -685.000
842.216; 8875.400; -330.000; -431.000
842.466;30601.550; -169.000; -313.000
842.717; 1481.750; -964.000; -952.000
842.967;  280.900; -635.000; -641.000
843.217;  225.975;   20.000;   28.000
843.468;   43.525; -104.000; -132.000
843.718;  -48.800; -718.000; -726.000
843.968; -100.100; -837.000; -765.000
844.218;   11.875; -315.000; -262.000
844.469;  -57.250; -577.000; -561.000
844.719; -107.725; -537.000; -682.000
844.969;  -97.225; -550.000; -580.000
845.219; -136.825; -814.000; -862.000
845.469;  -84.075; -392.000; -342.000
845.719; -152.425; -792.000; -884.000
845.969;  -25.900;  119.000;  174.000
846.219; -124.925; -738.000; -720.000
846.469;   23.950;  464.000;  432.000
846.718;  -34.825; -115.000;   31.000
846.968; -147.225; -827.000; -827.000
847.218;  -57.100; -224.000; -371.000
847.468;    1.200; -586.000; -555.000
847.718; -148.450; -827.000; -798.000
847.967; -138.250; -826.000; -915.000
848.217;  -84.150; -449.000; -569.000
848.467;  -82.625; -405.000; -376.000
848.716; -119.900; -708.000; -725.000
848.966;    1.050; -372.000; -358.000
849.215;  -68.025; -428.000; -419.000
849.465; -109.700; -785.000; -615.000
849.714; -160.025;-1132.000;-1150.000
849.964;  -70.925; -551.000; -613.000
850.213;  -43.250; -393.000; -355.000
850.463;   70.825;  137.000;  340.000
850.712;   -0.400; -542.000; -567.000
850.961;   -2.225; -739.000; -678.000
851.211;   88.925; -513.000; -504.000
851.460;  164.550; -635.000; -650.000
851.709;  580.375;  -25.000;   18.000
851.958;10819.950; -912.000; -750.000
852.208;11928.600; -859.000; -879.000
852.457;  442.075; -181.000;  -13.000
852.706;   62.425; -791.000; -823.000
852.955;    6.650; -507.000; -528.000
853.204;  -82.450; -521.000; -461.000
853.453;  -89.525; -418.000; -458.000
853.702; -131.925; -660.000; -750.000
853.951; -110.750; -532.000; -520.000
854.200; -119.125; -613.000; -562.000
854.449; -142.375; -695.000; -661.000
854.698;  -97.825; -340.000; -279.000
854.946;  -73.825; -181.000; -284.000
855.195; -160.650; -843.000; -868.000
855.444;  -94.475; -395.000; -420.000
855.693; -135.325; -345.000; -432.000
855.941; -103.525; -387.000; -516.000
856.190;  -64.150; -256.000; -382.000
856.439; -124.800; -652.000; -703.000
856.687;  -65.275;  -99.000;  -72.000
856.936; -118.825; -621.000; -323.000
857.184; -195.625;-1067.000;-1020.000
857.433; -112.650; -423.000; -512.000
857.681; -165.775; -989.000; -953.000
857.930;  -71.775; -282.000; -433.000
858.178; -172.550; -856.000; -929.000
858.427; -152.325; -802.000; -781.000
858.675; -130.500; -377.000; -544.000
858.923; -114.325; -527.000; -819.000
859.172; -193.500;-1094.000;-1070.000
859.420;  -89.325; -339.000; -239.000
859.668; -139.825; -624.000; -628.000
859.916;  -25.525;  109.000;  115.000
860.164; -127.450; -699.000; -603.000
860.413;  245.125; -878.000; -696.000
860.661;  143.000; -709.000; -577.000
860.909;  -80.825; -339.000; -325.000
861.157;  -91.025; -277.000; -444.000
861.405; -129.000; -534.000; -670.000
861.653;   16.650;  310.000;  310.000
861.901;  149.800; -543.000; -613.000
862.149;  -46.175; -801.000; -824.000
862.396;  -91.450; -297.000; -187.000
862.644; -114.950; -368.000; -347.000
862.892;  -35.200;   98.000;  138.000
863.140; -122.125; -549.000; -530.000
863.388; -159.525; -815.000; -759.000
863.635; -144.475; -642.000; -601.000
863.883;  -13.625;  231.000;  190.000
864.131;  -96.400; -288.000; -357.000
864.378; -125.100; -675.000; -540.000
864.626; -105.200; -347.000; -415.000
864.873; -113.950; -556.000; -505.000
865.121; -139.175; -714.000; -799.000
865.368;  -46.800; -173.000;   75.000
865.616;  -35.050;  -33.000;  -40.000
865.863;  -62.625; -462.000; -506.000
866.111; -104.050; -795.000; -824.000
866.358;   57.300; -426.000; -420.000
866.605; 2696.225;  -64.000; -804.000
866.853; 2466.125; -621.000; -537.000
867.100;  -40.500; -728.000; -775.000
867.347;  -97.050; -672.000; -611.000
867.594;  -90.250; -740.000; -714.000
867.841;   57.575;   97.000;   17.000
868.089; -157.175; -746.000; -698.000
868.336; -109.300; -477.000; -420.000
868.583; -157.050; -637.000; -741.000
868.830;  -50.250; -131.000; -170.000
869.077; -168.500; -859.000; -787.000
869.324; -135.325; -502.000; -458.000
869.571; -138.300; -398.000; -430.000
869.818; -137.550; -485.000; -439.000
870.065; -120.050; -439.000; -513.000
870.311; -119.225; -456.000; -542.000
870.558; -110.350; -332.000; -311.000
870.805;  -90.575; -320.000; -384.000
871.052; -119.425; -494.000; -369.000
871.298;  -57.125; -204.000; -131.000
871.545;  -74.075; -151.000; -185.000
871.792;  -87.075; -173.000; -222.000
872.038;  -72.625;   43.000; -126.000
872.285; -136.650; -496.000; -387.000
872.532; -103.975; -357.000; -387.000
872.778;    6.850;  556.000;  403.000
873.025; -100.850; -384.000; -359.000
873.271;   11.950;  501.000;  578.000
873.517;  -28.250; -133.000; -209.000
873.764;  -61.375; -193.000;  -80.000
874.010;  -85.600; -143.000; -230.000
874.257;  -43.100;  123.000;   90.000
874.503; -137.825; -579.000; -479.000
874.749;  -72.400;   31.000;  275.000
874.995;  -67.325;  -80.000;  -20.000
875.242; -130.025; -540.000; -478.000
875.488; -116.000; -414.000; -439.000
875.734;  -60.300; -106.000; -234.000
875.980;  147.975; -872.000;-1032.000
876.226;  277.000; -157.000; -255.000
876.472;  -12.525;  343.000;  237.000
876.718;  -42.300;  184.000;  158.000
876.964;  -46.025;   56.000;   55.000
877.210; -179.325; -547.000; -677.000
877.456; -143.825; -630.000; -557.000
877.702; -174.250; -821.000; -832.000
877.948; -121.225; -377.000; -497.000
878.193;    8.550;  361.000;  255.000
878.439;  -96.925; -487.000; -472.000
878.685; -101.050; -272.000; -343.000
878.931; -145.375; -618.000; -676.000
879.176;  -91.850; -201.000; -201.000
879.422; -192.125; -933.000; -820.000
879.668;   27.725;   10.000;   79.000
879.913;   94.725;   53.000;  137.000
880.159;  -63.375; -112.000;  -17.000
880.404;  -70.900; -152.000; -162.000
880.650;  -49.075;   91.000;  141.000
880.895; -178.475; -670.000; -710.000
881.141; -124.050; -454.000; -428.000
881.386; -145.325; -503.000; -658.000
881.631;  -82.625; -311.000; -166.000
881.877;  -40.750;  112.000;  -13.000
882.122; -144.200; -684.000; -600.000
882.367; -102.300; -136.000; -186.000
882.612;  -81.925;  -80.000; -176.000
882.858; -171.250; -877.000; -823.000
883.103; -112.050; -297.000; -267.000
883.348; -155.475; -759.000; -852.000
883.593; -154.750; -677.000; -602.000
883.838;  -71.000; -311.000;  -24.000
884.083;   30.100;  353.000;  288.000
884.328;  -92.850; -564.000; -545.000
884.573;  -59.600; -196.000; -143.000
884.818;  170.400; -694.000; -531.000
885.063;  137.175; -348.000; -315.000
885.308; -100.950; -475.000; -398.000
885.553;  -23.775;  245.000;  325.000
885.797; -136.350; -545.000; -615.000
886.042;  -49.825;    8.000;   58.000
886.287; -101.525; -253.000; -211.000
886.532;  -58.575;   26.000;  204.000
886.776; -112.275; -407.000; -525.000
887.021; -143.775; -621.000; -574.000
887.265; -151.275; -685.000; -689.000
887.510; -129.550; -557.000; -496.000
887.755;  -92.550; -194.000; -164.000
887.999; -133.800; -552.000; -575.000
888.244;  -62.225;  -58.000;  161.000
888.488;  -10.375;  371.000;  393.000
888.732; -134.225; -368.000; -520.000
888.977; -130.125; -622.000; -567.000
889.221; -160.375; -683.000; -659.000
889.465; -137.050; -422.000; -566.000
889.710;  -88.175;  -56.000; -299.000
889.954;   -0.825;  579.000;  467.000
890.198; -142.325; -584.000; -707.000
890.442; -152.850; -716.000; -712.000
890.687; -167.525; -800.000; -753.000
890.931;  -83.300; -273.000; -210.000
891.175; -146.150; -502.000; -500.000
891.419;  -64.050; -105.000; -110.000
891.663;  -91.175; -239.000; -112.000
891.907; -167.850; -801.000; -545.000
892.151; -194.675; -920.000; -815.000
892.395; -105.475; -274.000; -387.000
892.638;  -22.825;  408.000;  291.000
892.882; -188.200; -780.000; -867.000
893.126;   10.200;  758.000;  558.000
893.370; -104.650; -167.000; -168.000
893.614; -145.650; -714.000; -715.000
893.857;  -89.000; -183.000; -197.000
894.101; -139.500; -527.000; -631.000
894.345;  -54.425;  300.000;  150.000
894.588;   27.575;  569.000;  380.000
894.832;  -90.400; -178.000;  -84.000
895.075;  -81.375;   15.000;  -92.000
895.319; -130.125; -552.000; -420.000
895.563; -131.000; -413.000; -353.000
895.806; -157.750; -628.000; -741.000
896.049;  -81.225; -576.000; -368.000
896.293;   63.100;  527.000;  405.000
896.536;  -98.775; -465.000; -468.000
896.779;  -62.950; -149.000;   -1.000
897.023; -137.800; -751.000; -714.000
897.266;  -36.775;  325.000;  269.000
897.509; -189.600; -900.000; -901.000
897.752;  -45.775;  149.000;  171.000
897.996; -195.050; -972.000; -864.000
898.239;  -37.300;  168.000;  102.000
898.482; -144.700; -431.000; -453.000
898.725;  -36.300;  101.000;   53.000
898.968; -168.925; -609.000; -744.000
899.211; -118.925; -513.000; -361.000
899.454; -135.175; -633.000; -539.000
899.697;  -70.200;   90.000;  -43.000
899.940; -164.200; -761.000; -757.000
900.182; -118.025; -335.000; -405.000
900.425;  -94.625; -150.000; -298.000
900.668;  -25.275;  491.000;  350.000
900.911; -107.475; -292.000; -345.000
901.154;  -53.900;  141.000;   -3.000
901.396; -145.125; -407.000; -412.000
901.639; -137.625; -430.000; -496.000
901.882; -186.550; -790.000; -809.000
902.124;  -85.250;  -29.000; -143.000
902.367; -104.875; -315.000; -361.000
902.609; -138.375; -476.000; -453.000
902.852;  -93.225; -108.000; -260.000
903.094; -137.450; -458.000; -337.000
903.337;  -81.600;  -26.000;   53.000
903.579;  -95.325; -228.000; -441.000
903.821; -164.300; -597.000; -744.000
904.064;  -50.675;   85.000;  127.000
904.306;  -93.550; -126.000; -166.000
904.548; -111.250; -152.000; -366.000
904.790;  -99.650; -195.000; -340.000
905.033; -145.050; -625.000; -577.000
905.275; -136.900; -513.000; -524.000
905.517;   42.125;  468.000;  256.000
905.759;  -82.100; -667.000; -761.000
906.001;  -85.850; -322.000; -369.000
906.243;  -63.475; -162.000; -224.000
906.485;   98.750; -265.000; -207.000
906.727;   58.125; -499.000; -542.000
906.969;  -44.025;  -30.000; -135.000
907.211;   86.525; -316.000; -382.000
907.453;  206.600; -188.000; -237.000
907.695;  -19.225; -158.000; -385.000
907.936;   44.900;  818.000;  706.000
908.178;  -58.850;   92.000; -135.000
908.420;  -86.100; -111.000; -162.000
908.662; -146.750; -633.000; -682.000
908.903;  -86.875; -208.000; -123.000
909.145;  -80.025; -240.000; -305.000
909.386;  -14.700;  315.000;  280.000
909.628;   30.600;  363.000;  397.000
909.870;   -3.725;   29.000;  264.000
910.111; -110.350; -809.000; -949.000
910.353;   20.625; -123.000; -161.000
910.594;   -3.275; -574.000; -606.000
910.835;   70.000; -265.000; -326.000
911.077;  126.575; -503.000; -604.000
911.318;  274.775; -505.000; -471.000
911.559;  444.775; -577.000; -880.000
911.801; 1354.825; -284.000; -280.000
912.042;10853.850;  -50.000; -159.000
912.283;25973.625;  404.000;  371.000
912.524; 3542.000; -396.000; -457.000
912.765;  435.500; -193.000;   79.000
913.006;  207.625; -307.000; -338.000
913.247;   31.600; -270.000; -290.000
913.488;  -15.775;  -43.000;   30.000
913.729;  -80.200; -373.000; -373.000
913.970;  -70.175;  -96.000; -292.000
914.211;  -75.850; -160.000; -198.000
914.452;  -65.400; -118.000;  -11.000
914.693;   15.925;  510.000;  592.000
914.934;    5.400;  510.000;  440.000
915.175;  -74.925;   53.000;  -95.000
915.415;  -84.825; -137.000;   27.000
915.656;  -69.850;  -28.000;  192.000
915.897;  -96.325; -252.000;  -82.000
916.137;  -91.575;   74.000;   -9.000
916.378; -146.075; -573.000; -517.000
916.619;  -93.075; -159.000;  -63.000
916.859;  -16.500;  303.000;  330.000
917.100;  133.075; 1655.000; 1070.000
917.340;   52.800;  930.000;  728.000
917.581;   43.425;  965.000;  789.000
917.821;  -35.050; -171.000;  143.000
918.061;   -3.325; -199.000;  -72.000
918.302;  -73.675; -152.000; -211.000
918.542;  -23.875;  -22.000;    3.000
918.782;   35.100;  369.000;  377.000
919.023;  121.000;  360.000;  427.000
919.263; 1343.200; 8131.000;  202.000
919.503; 1004.650; -137.000;  -54.000
919.743;  541.725;  390.000;  266.000
919.983;  206.675; -134.000;  -26.000
920.223;   93.325;  135.000;   14.000
920.463;  145.950;  631.000;  554.000
920.703;  145.775;   84.000;   39.000
920.943;  165.725; -110.000;   90.000
921.183;  258.575; -414.000; -405.000
921.423;  517.375;  307.000;  546.000
921.663;  764.950; -174.000; -257.000
921.903; 1655.025;  237.000;  173.000
922.143; 9457.550;  372.000;  389.000
922.383;34873.125;  158.000;  115.000
922.622;10604.800; -120.000;  -15.000
922.862; 1172.900;  796.000;  785.000
923.102;  444.350;  -51.000;   33.000
923.341;  183.600;   59.000;   74.000
923.581;   78.125;  450.000;  360.000
923.821;   27.800;  301.000;  398.000
924.060;   -3.450;  351.000;  193.000
924.300;  -61.250;  -16.000; -128.000
924.539;  -19.150;  584.000;  473.000
924.779;   16.625;  812.000;  597.000
925.018;  -44.600;  247.000;  353.000
925.257;   -7.100;  595.000;  666.000
925.497;  -49.800;  447.000;  412.000
925.736;  -80.550;  -35.000;  102.000
925.975;   -8.225;  687.000;  669.000
926.214;   42.425;  907.000;  850.000
926.454;   10.100;  706.000;  757.000
926.693;  -38.975;  419.000;  543.000
926.932;   34.450; 1021.000;  825.000
927.171;   88.725; 1107.000; 1044.000
927.410;   60.800; 1144.000;  967.000
927.649;   30.650;  924.000;  742.000
927.888;  -18.700;  590.000;  564.000
928.127;   -4.275;  680.000;  678.000
928.366;   19.750;  842.000;  826.000
928.605;   17.475;  831.000;  737.000
928.844;  237.800; 1451.000; 1393.000
929.083;  580.025;  770.000;  613.000
929.321;  305.125; 1335.000; 1359.000
929.560;   90.050; 1158.000; 1122.000
929.799;  -31.875;  574.000;  475.000
930.038;   79.100; 1025.000; 1394.000
930.276;  -57.075;  334.000;  397.000
930.515;   -6.675;  827.000;  681.000
930.753;  -16.000;  614.000;  589.000
930.992;  -11.275;  664.000;  717.000
931.230;   -5.100;  847.000;  847.000
931.469;  182.350; 2162.000;  892.000
931.707;   75.975;  840.000;  751.000
931.946;   76.625; 1278.000; 1344.000
932.184;   57.650; 1437.000; 1175.000
932.423;   39.950; 1265.000;  963.000
932.661;   86.000; 1296.000; 1428.000
932.899;   21.375;  987.000;  821.000
933.137;   -7.750;  754.000;  564.000
933.376;  124.900; 1664.000; 1335.000
933.614;  167.375; 1759.000; 1196.000
933.852;   50.550; 1357.000; 1171.000
934.090;  138.250; 1722.000; 1747.000
934.328;  108.150; 1252.000; 1457.000
934.566;  103.175; 1431.000; 1110.000
934.804;  148.575; 1263.000; 1309.000
935.042;  517.625; 1861.000; 1850.000
935.280; 2157.500; 2088.000; 2063.000
935.518; 1841.050; 2113.000; 2007.000
935.756;  384.625; 2481.000; 2316.000
935.994;  169.375; 1808.000; 1751.000
936.231;  338.925; 2890.000; 2950.000
936.469;  184.800; 2367.000; 2378.000
936.707;  175.625; 2220.000; 2167.000
936.945;  244.925; 2825.000; 2882.000
937.182;  199.200; 2679.000; 2741.000
937.420;  303.825; 3602.000; 3031.000
937.657;  411.100; 3365.000; 3478.000
937.895;  343.750; 3331.000; 3488.000
938.133;  322.450; 3540.000; 3528.000
938.370;  348.375; 3896.000; 4191.000
938.607;  407.675; 4488.000; 4205.000
938.845;  555.275; 5587.000; 5549.000
939.082;  501.575; 5387.000; 5177.000
939.320;  552.225; 5799.000; 5728.000
939.557;  638.050; 6549.000; 6491.000
939.794;  726.800; 7285.000; 7097.000
940.031;  923.350; 8421.000; 8368.000
940.269; 1100.300; 9552.000; 9107.000
940.506; 1115.050;10901.000;10507.000

