
Integration time [ms]: 100.000
Averaging Nr. [scans]: 40
Smoothing Nr. [pixels]: 0
Data measured with spectrometer [name]: 2101013U2
Wave   ;Sample   ;Dark     ;Reference
[nm]   ;[counts] ;[counts] ;[counts] 

394.013;   71.511; -450.257; -315.536
394.305;  250.459; -461.258; -419.536
394.596; 1171.052; -676.269; -527.514
394.887; 2811.794; -796.268; -654.518
395.178; 1051.076;  145.736;   11.476
395.470;   94.412; -210.263; -356.526
395.761;  225.634;  305.734;  394.479
396.052;  379.247; -545.284; -306.489
396.343;  395.944; -557.276; -454.503
396.634;  109.137; -200.279; -290.497
396.926;  133.266; -618.268; -565.517
397.217;  113.524;   11.725;  -17.504
397.508;   58.890; -366.273; -154.507
397.799;   55.187; -555.279; -571.497
398.090;   11.706; -973.280; -902.495
398.381;  114.969;   11.708;  -11.473
398.672;    8.245; -585.292; -742.473
398.963;   60.243; -348.279; -373.498
399.254;  104.755;   54.709; -209.475
399.545;  -23.544;-1017.266; -883.520
399.836;   66.608; -407.277; -343.501
400.127;   54.194; -205.295; -209.468
400.418;   69.010; -423.274; -392.506
400.709;   67.168; -359.281; -333.493
401.000;   68.759; -268.291; -309.476
401.290;  105.779;  225.698;  115.545
401.581;   65.054; -166.286; -228.485
401.872;   32.540; -542.298; -486.462
402.163;   51.562; -313.296; -252.467
402.454;   99.655; -123.291; -163.475
402.744;   98.278; -844.297; -813.465
403.035;  454.310; -226.293;  -86.471
403.326;  590.898; -366.292; -384.474
403.617;  382.560;  204.701;  165.539
403.907;  272.253; -593.283; -679.490
404.198; 2450.681; -545.307; -599.446
404.489; 6380.783; -618.283; -588.491
404.779; 2105.207; -618.302; -660.456
405.070;  237.435;  -67.304; -174.451
405.360;  348.662; -259.293; -238.472
405.651;  371.519;  125.699;   98.542
405.942;  173.974;  209.714;  127.516
406.232;  297.589; -432.285; -413.487
406.523;  489.205;  641.706;  758.530
406.813;  115.951; -579.286; -644.484
407.104;  370.743;  261.708;  144.527
407.394;  204.736; -604.299; -591.462
407.685;  157.688;  336.715;  222.513
407.975;   75.431; -400.283; -382.490
408.265;  114.170; -134.289; -190.478
408.556;   87.102; -472.291; -459.475
408.846;  160.780;  474.706;  429.530
409.137;   91.829;   -1.288; -216.480
409.427;   57.939; -193.285; -271.487
409.717;   57.044; -776.273; -692.508
410.007;  143.857;    4.715; -170.486
410.298;   83.797; -360.295; -342.469
410.588;   76.236; -495.285; -510.486
410.878;   34.840; -792.287; -873.482
411.168;  115.468; -481.298; -478.463
411.459;  118.126; -295.283; -242.489
411.749;   75.726; -609.292; -507.474
412.039;   77.702; -755.289; -386.480
412.329;  218.251;   40.722;  132.501
412.619;  211.727;  -62.286; -148.485
412.909;  368.498;  639.711;  594.521
413.199;  359.906; -130.280; -251.495
413.490;  419.338;  521.710;  352.523
413.780;  177.410;-1013.279; -913.496
414.070;  354.520;  -46.276;  235.497
414.360;  390.447; -729.278; -666.498
414.650;  436.186; -726.288; -688.482
414.940;  571.860; -538.280; -441.496
415.230;  956.633;   50.712;   74.519
415.520; 6254.826;  155.730;   66.486
415.809;24863.317; -305.281; -125.493
416.099;18749.485; -388.277; -229.501
416.389; 5274.057;  435.726;  236.494
416.679; 3049.591;   91.738;   85.473
416.969;  535.645; -527.287; -503.483
417.259;  476.887;  341.721;  171.503
417.549;  702.491;  522.718;  318.508
417.838; 1691.918; -205.268; -147.518
418.128; 5647.794;  650.710;  492.522
418.418; 4610.350; -491.272; -579.509
418.708; 3144.283;    9.726;  -48.506
418.997;11918.128; -474.275; -480.505
419.287;12211.115; -733.273; -790.507
419.577;11562.675; -160.283; -123.489
419.866;38741.983; -588.277; -498.501
420.156;39518.847; -242.270;  -55.513
420.446; 6939.483; -112.263;  -26.526
420.735;  886.565; -376.271; -446.512
421.025;  831.321; 1830.722;  315.502
421.314;  709.438; -203.271; -226.512
421.604; 1491.386;   89.732;  233.484
421.893;  849.085; -705.271; -602.511
422.183;  241.083; -487.263; -461.526
422.472;  400.761;  -36.271; -107.511
422.762;  475.162; -416.266; -379.521
423.051;  267.321; -916.276; -916.503
423.341;  317.367; -491.273; -439.507
423.630;  442.593; -121.265;   15.477
423.919;  398.577;   58.725;   49.495
424.209;  394.839;  -31.263;   56.473
424.498;  500.916;   68.732;  161.483
424.787; 1129.722; -535.267; -601.518
425.077; 3472.817;   34.735;   29.478
425.366; 4848.745; -734.262; -744.528
425.655; 9936.392;  639.727;  259.493
425.945;21834.804; -313.247; -268.554
426.234;11813.369;  117.741;  300.467
426.523; 5254.074;  -86.259; -350.534
426.812; 7092.058;  107.734;  159.480
427.101;10500.957; -127.269; -323.515
427.390;13015.951;  -55.270;  -86.514
427.680; 2924.669; -624.257; -411.538
427.969;  504.481; -330.255; -301.540
428.258;  334.986; -385.257; -477.536
428.547;  570.855;  449.728;  397.490
428.836; 1299.322; -421.253; -398.543
429.125; 1871.676; -199.259;  -72.534
429.414;  850.746; -330.251; -294.548
429.703; 3201.146; -231.251; -213.548
429.992; 9654.624; -938.250; -828.549
430.281; 6111.501; -397.264; -331.524
430.570;  605.161;  -21.252;   32.454
430.859;  594.048;  279.741;  352.466
431.148;  448.399;  636.752;  631.446
431.437;  309.810;  391.748;  367.454
431.725;  170.912; -544.257; -481.536
432.014;  140.830; -845.253; -756.545
432.303;  396.878; -149.239; -105.569
432.592;  662.108; -460.263; -178.525
432.881; 1087.676; -601.248; -437.554
433.169; 6309.206; -343.255;  -61.540
433.458;12821.763;  445.765;  540.424
433.747; 5247.601; -397.261; -289.529
434.036;  909.153; -275.242; -280.564
434.324; 2147.087; -395.249; -379.551
434.613; 3712.046;   40.757;  159.437
434.902; 1214.793;  333.760;  439.433
435.190;  587.527;   75.761;  295.431
435.479;  332.477;  -52.245;   83.441
435.767;  126.661; -411.244; -427.561
436.056;  223.148; -340.242; -294.563
436.345;  376.570; -372.240; -223.568
436.633;  396.557;   60.750;  383.450
436.922;  271.472;  208.760;  414.432
437.210;  609.053; -194.236;    1.426
437.499; 1991.236; -583.235; -432.576
437.787; 2146.302; -339.236;  -10.574
438.075;  556.807;   56.761;  162.430
438.364;  768.760;  -44.238;  250.429
438.652;  463.269; -286.226; -138.592
438.941;  128.806;    3.770;  269.415
439.229;    3.883; -665.252; -466.545
439.517;   39.445; -160.234;  -85.577
439.806;   -0.265; -501.225; -290.595
440.094;  187.178;  377.766;  650.421
440.382;  205.032; -653.233; -302.580
440.670;  223.561; -361.235; -285.576
440.959;   28.128; -347.223; -170.599
441.247;   80.093; -151.229; -109.587
441.535;  122.293; -266.235;   31.423
441.823;   54.075; -497.234; -305.578
442.111;  195.898;  173.771;  327.412
442.400;  534.627; -628.245; -335.559
442.688; 1425.002; -111.234; -620.579
442.976; 1004.719; -786.213; -450.617
443.264;  110.492; -324.224; -364.597
443.552;   99.845; -258.226;   51.408
443.840;  172.042;  602.765;  876.423
444.128;  108.931;  265.767;  269.420
444.416;   12.625; -694.228; -312.588
444.704;   39.559; -465.219;  -92.605
444.992;   76.898;   -0.226;  240.407
445.280;   50.282; -517.230;  -94.585
445.568;   50.398; -694.212; -396.618
445.856;  357.992; -174.221;  357.398
446.143;  814.305;  -54.220;   -7.604
446.431;  631.854;  -25.228;  625.411
446.719;  259.029;  489.783;  675.391
447.007;  177.076;  481.769;  705.416
447.295;  188.150;  597.777;  871.402
447.583;   98.241; -464.229;  -34.587
447.870;  153.789; -434.221; -202.601
448.158;  417.906; -104.230;  129.415
448.446;  339.481; -800.219; -338.604
448.733;  171.993;   13.776;  269.403
449.021;  260.772;   60.788;  341.382
449.309;  180.663; -296.210;  208.379
449.596;  231.125;  128.783;   59.392
449.884;  159.907; -571.222; -325.600
450.172;  157.185; -756.227; -406.590
450.459;  430.777;  645.786;  780.387
450.747; 2404.198; -411.218; -147.608
451.034; 7806.205;  493.772;  889.411
451.322; 6268.030; -413.214; -170.614
451.609;  503.895;  292.777;  508.403
451.897;  604.453; -550.203; -183.634
452.184; 1876.775; -622.223; -400.598
452.472; 1721.010;   97.792;  269.375
452.759;  345.007;  512.781;  864.395
453.047;  124.895; -407.212; -125.617
453.334;   95.690; -732.219; -216.606
453.621;   95.232; -438.214; -161.615
453.909;  120.720;   13.796;  384.368
454.196;  108.142; -299.199; -123.641
454.483;  203.441;  317.798;  540.364
454.771;  137.238; -215.208;  196.374
455.058;   44.291; -316.207;  102.374
455.345;  128.074;   71.807;  344.347
455.632;   82.370; -128.207;  235.373
455.919;   48.465;  -82.196;  182.354
456.207;  -56.979; -774.198; -450.642
456.494;   -9.971; -475.200;  -66.639
456.781;   21.187; -399.202; -198.635
457.068;   63.102; -253.206;  -29.628
457.355;   -1.947; -698.206; -401.629
457.642;   22.558; -552.205; -290.630
457.929;   19.189; -778.194; -417.651
458.216;   69.520; -575.212; -354.617
458.503;  222.219; -173.193;  -19.652
458.790;  253.361; -864.208; -630.625
459.077;  255.567;  -77.202;  110.364
459.364;  790.732; -350.195; -210.649
459.651; 1738.049;  -46.206;  220.372
459.938;  768.651; -864.209; -665.623
460.225;  147.120;  132.799;  276.363
460.512;  -33.988; -836.197; -688.645
460.799;  108.522;  -32.218;  320.392
461.086;   76.009; -370.200; -251.640
461.372;   53.672; -509.198; -279.642
461.659;  128.741; -165.196;  108.354
461.946;   81.068; -445.193;  -54.651
462.233;  230.581;  842.800;  888.361
462.519;  361.028; -814.201; -464.639
462.806; 1058.537; -768.197; -497.645
463.093;  891.389; -445.191;  -66.656
463.380;  -14.818; -920.186; -824.664
463.666;   57.489; -259.197;  -18.646
463.953;   93.102; -406.195; -243.648
464.239;  200.102; -173.195;  -77.648
464.526;  402.388;  413.806;  743.350
464.813;  353.876; -565.190; -304.658
465.099;  358.119;  606.807;  607.348
465.386;  338.748;  903.807;  921.348
465.672;   50.713; -694.197; -522.645
465.959;   33.970; -598.188; -520.662
466.245;   25.023; -468.193; -359.652
466.532;   99.725; -109.195;   63.352
466.818;   77.557; -357.186; -216.664
467.104;   -0.302; -488.182; -415.672
467.391;  -31.122; -628.189; -459.658
467.677;   31.736; -289.186;    9.335
467.964;   17.985; -682.189; -471.660
468.250;   90.213; -331.186; -160.665
468.536;   76.130;   90.811;  180.341
468.822;  -13.999; -821.184; -574.668
469.109;  144.757;  351.827;  471.311
469.395;  194.433;  729.808;  787.346
469.681;  201.283;   46.811;  156.341
469.967; 1261.887; -699.188; -382.660
470.254; 2765.971; -494.188; -306.662
470.540; 1723.065; -601.196; -476.646
470.826;  260.910; -488.181; -397.675
471.112;  299.204;  288.816;  113.331
471.398;   93.909; -253.183;  -58.670
471.684;   53.639; -626.177; -447.680
471.970;    9.339; -918.180; -981.675
472.256;   28.457; -521.192; -441.654
472.542;   10.093; -499.171; -434.691
472.828;   15.244; -743.182; -607.672
473.114;   50.688; -380.166; -283.700
473.400;   25.181; -504.175; -293.684
473.686;   49.070; -452.166; -400.701
473.972;   50.746; -230.174; -131.687
474.258;  -20.443; -925.173; -843.689
474.544;  209.931; -183.178;   -2.679
474.830;  289.408;  -65.175;   45.316
475.116;  482.103; -123.190; -196.658
475.401;  666.766; -558.180; -467.676
475.687;  195.840; -725.180; -718.676
475.973;    7.002; -673.181; -770.673
476.259;  247.035;  736.825;  764.315
476.544;  381.372; -539.176; -437.682
476.830;  823.689; -398.172; -322.690
477.116;  692.171; -430.177; -336.682
477.401;  122.716;  346.820;  358.324
477.687;  -11.194; -289.175; -405.684
477.973;   45.156;   21.819;   28.326
478.258;   -3.409; -448.163; -348.706
478.544;   57.744;   21.815;   61.334
478.829;  -50.676; -818.171; -738.692
479.115;  -32.636; -749.172; -651.690
479.401;   -4.008; -444.174; -449.686
479.686;   36.589; -253.180;  -74.676
479.972;  -20.864; -886.178; -776.680
480.257;   51.515; -258.166;  -65.700
480.542;   -1.172; -614.170; -469.693
480.828;  224.930; 1288.824; 1392.317
481.113;  -30.198; -464.176; -426.683
481.399;  -17.159; -236.161; -202.711
481.684;  -43.086; -620.166; -462.700
481.969;   10.980; -158.159;  -73.713
482.255;    4.514; -439.169; -285.695
482.540;    2.211; -569.178; -441.680
482.825;    0.127; -395.187; -404.663
483.110;   93.217;  -85.169; -105.696
483.396;  189.202; -840.157; -652.718
483.681;  472.747;  543.826;  730.313
483.966;  162.923; -696.160; -700.712
484.251;    2.045; -404.174; -310.687
484.536;   14.050; -356.165; -378.703
484.822;   32.699; -205.173; -218.687
485.107;  -22.134; -599.152; -502.726
485.392;  111.506;  662.836;  541.296
485.677;   81.153;  354.832;  163.302
485.962;   90.074;  160.843;  270.283
486.247;   92.024;  -14.162;   -8.707
486.532;   50.641; -178.166; -325.701
486.817;  168.210;  381.839;  431.291
487.102;  120.474; -453.154; -514.722
487.387;  667.629; -637.156; -652.718
487.672; 1174.637; -154.164;  -38.705
487.957;  716.567; -394.160; -286.711
488.241;  215.559; -290.150; -314.729
488.526;  756.593; -280.152; -148.726
488.811; 1204.588; -881.177; -818.680
489.096;  881.677; -666.154; -702.723
489.381;  507.764;    3.847;  162.275
489.666;  379.865; -428.161; -510.710
489.950;  165.955;  558.846;  627.277
490.235;  -26.121; -480.151; -458.728
490.520;  -37.111; -756.161; -723.710
490.804;  -58.669; -827.156; -736.719
491.089;    9.250; -469.149; -299.732
491.374;   34.160; -132.164;  -75.704
491.658;   -6.988; -817.147; -717.735
491.943;  187.197; -657.152; -609.727
492.227;  273.395; -178.155;  -38.721
492.512;   64.949; -294.157; -341.717
492.797;  -72.031; -713.149; -716.731
493.081;  -50.535; -588.147; -598.735
493.366;  -31.684; -751.161; -635.711
493.650;  202.095;  831.859;  917.254
493.935;   29.561; -648.147; -447.734
494.219;  -24.418; -778.142; -687.743
494.503;  -39.886; -585.150; -487.730
494.788;   60.190;   46.842;   74.285
495.072;   84.960;  184.850;  434.271
495.356;  184.278; -463.148; -343.733
495.641;  475.047; -812.146; -736.736
495.925;  449.586; -976.156; -903.719
496.209;   41.574; -599.149; -451.732
496.494;  -32.918; -763.142; -544.744
496.778;   14.024; -364.154; -360.722
497.062;  -57.039; -819.156; -627.719
497.346;  -34.006; -869.160; -640.711
497.631;  141.732;  580.852;  560.266
497.915;   53.832;  -64.145;  175.261
498.199;   59.177; -341.157; -277.718
498.483;   39.466; -562.152; -508.725
498.767;  189.186;  301.850;  300.271
499.051;  181.847; -126.149; -100.732
499.335;   39.620; -693.149; -739.731
499.619;  -49.526; -381.129; -423.767
499.903;   30.918; -272.155;  -65.721
500.187;   33.756; -588.153; -316.724
500.471;   30.047; -796.152; -595.727
500.755;  108.290;   62.839;  -96.710
501.039;   19.944; -270.155; -357.721
501.323;   82.572;  -21.141;  264.254
501.607;   43.341; -447.163; -503.706
501.891;   12.628; -607.156; -512.718
502.174;  -40.306; -726.144; -585.741
502.458;   68.026;   89.849;  370.273
502.742;   37.371; -180.138; -191.751
503.026;  103.536; -412.147; -254.734
503.310;  181.778; -437.159; -375.713
503.593;  108.688; -464.147; -325.735
503.877;  124.563; -232.133; -156.760
504.161;  196.184;    2.847;  -50.724
504.444;  148.593; -841.158; -710.716
504.728;  449.434; -487.164; -522.704
505.012;  718.458; -257.150;  -76.729
505.295;  544.541; -417.161; -212.711
505.579;  553.135; -256.156; -496.719
505.862;  769.579; -555.145; -333.738
506.146;  741.206; -681.159; -758.714
506.429;  387.081;  568.841;  461.286
506.713;   84.180; -732.151; -667.728
506.996;  308.123;   90.846;  295.278
507.280;  360.879; -633.165; -474.703
507.563;  250.317; -469.155; -261.721
507.847;  109.257; -423.153; -112.724
508.130;   81.842; -665.161; -456.711
508.413;  126.910; -758.167; -577.700
508.697;  258.311; -151.167;   12.300
508.980;  136.959; -422.153; -312.724
509.263;   -0.587; -466.155; -450.720
509.547;   46.633; -124.150;   82.271
509.830;   54.444; -172.160;  140.289
510.113;   82.910;  128.844;  298.281
510.396;   41.214; -530.152; -300.725
510.680;  170.805; -818.145; -812.738
510.963;  634.903;  184.846;  180.277
511.246;  536.116; -493.150; -357.730
511.529;  255.310; -482.145;  -83.739
511.812;  368.034; -250.134;   10.241
512.095;  262.452; -740.151; -396.728
512.378;   73.592; -317.147; -245.736
512.661;   53.029; -703.137; -623.753
512.944;   39.434; -750.142; -637.744
513.227;   67.876; -170.137; -171.752
513.510;   46.819; -479.144; -671.741
513.793;   40.551; -485.140; -435.747
514.076;  151.046;  -43.127;  -39.771
514.359;  110.125; -294.149; -135.732
514.642;   90.687; -442.142; -567.744
514.925;  755.949;  581.860;  561.253
515.208; 1008.456; -498.134; -443.758
515.491;  656.745; -276.133; -182.761
515.773;  379.748; -410.143; -337.742
516.056; 2090.761;  249.864;  409.246
516.339; 2833.490; -754.136; -652.755
516.622; 1928.438; -518.150; -488.730
516.904; 1269.105;  882.857;  975.257
517.187;  598.375; -730.138; -523.752
517.470;  404.504; -568.143; -510.743
517.752;  442.568; -624.136; -470.756
518.035;  339.312; -708.139; -725.749
518.318;  361.015; -799.136; -744.755
518.600; 2408.574; -300.132; -325.762
518.883; 3334.786;  310.858;   88.256
519.165; 1592.667; -585.138; -426.751
519.448;  396.598;  -61.132;  -19.762
519.730;  222.179; -573.126; -415.773
520.013;  316.791;  588.867;  664.240
520.295;  866.636;  -94.134;  -15.759
520.578; 1959.162; -335.131; -305.764
520.860; 2189.023; -254.132;   56.238
521.143; 1132.595; -763.135; -584.756
521.425;  473.392; -251.125; -279.775
521.707;  669.871; -622.127; -380.771
521.990; 1792.547; -199.127;  167.229
522.272; 2052.103; -116.140;   -4.748
522.554;  934.999; -237.143; -157.742
522.836;  358.884;  -24.134;   99.241
523.119;  226.835; -496.148; -189.734
523.401;  160.769; -448.130; -314.766
523.683;   98.380; -865.137; -693.753
523.965;  275.198;  408.862;  260.248
524.247;  300.714;   54.878;  170.220
524.529;  206.536; -451.134; -367.759
524.812;  342.071;   -3.130;  191.234
525.094;  862.697; -773.138; -631.751
525.376; 1331.526; -143.124;   78.223
525.658;  809.387; -441.136; -339.754
525.940;   26.433; -805.131; -671.764
526.222;   39.341; -188.136;  -88.755
526.504;  123.381; -190.131;   32.237
526.786;  197.164; -960.133; -647.760
527.068;  337.232; -124.123;  -67.778
527.349;  144.083; -865.137; -774.754
527.631;  140.548; -137.132;   22.238
527.913;  137.646; -664.127; -450.771
528.195;  157.210; -761.125; -639.774
528.477;  228.731;  -93.134;  -30.758
528.759;  145.571; -648.130; -522.766
529.040;   55.681; -569.123; -293.778
529.322;   65.338; -235.125;  -10.774
529.604;  142.473;  -47.130;   93.233
529.886;  132.453; -546.126; -302.773
530.167;  132.489;  232.870;  192.235
530.449;   55.116;    1.853;   63.265
530.731;   31.313; -572.122; -459.779
531.012;   83.835; -513.120; -216.784
531.294;   75.225; -118.116;  -43.792
531.575;  156.092;  290.875;  538.225
531.857;   49.901; -548.135; -266.757
532.138;   87.920; -113.141;   40.254
532.420;  175.897;  294.865;  403.244
532.701;  239.716; -722.133; -751.760
532.983;  354.594;  232.867;  182.239
533.264;  125.551; -243.126;  175.228
533.546;  -33.485; -491.136; -508.755
533.827;   46.437;  173.867;   -1.759
534.109;   44.675; -352.135;  -80.757
534.390;   98.352; -725.132; -582.762
534.671;  257.521; -270.135;  -82.756
534.953;  161.609; -751.123; -611.779
535.234;   34.935; -426.117; -255.789
535.515;  -66.532; -891.119; -735.785
535.796;  -21.859; -431.128; -193.770
536.078; -110.399;-1050.124; -904.777
536.359;    0.484;  -22.123;    3.221
536.640;  -13.464; -480.125; -197.774
536.921;  158.753;  225.871;  143.232
537.202;  383.269;  -87.138;  -16.751
537.483;  458.686;  251.869;  377.236
537.764;  174.239;   17.870;   98.235
538.045;  -25.820; -543.134; -371.758
538.326;  -27.120; -596.129; -447.768
538.607;   20.997; -686.127; -476.771
538.888;  174.525;   98.879;    5.218
539.169;  197.895; -704.122; -535.781
539.450;  330.327;  236.871;   16.233
539.731;  216.879; -361.121; -182.783
540.012;  144.335;  199.880;  412.216
540.293;   89.671;   82.876;  158.224
540.574;   16.446; -895.113; -717.796
540.855;  446.453;  435.879;  377.218
541.136;  528.842;   47.878;  139.220
541.416;  283.621; -161.130; -220.766
541.697;  197.532; -274.131; -170.763
541.978; 1045.549; -270.135; -315.757
542.259; 1320.197; -211.127; -236.771
542.539;  615.444; -191.116; -186.790
542.820;  193.217;  461.875;  480.225
543.101;  134.032;  -52.145;  -77.738
543.381;   50.647; -638.127; -591.771
543.662;  259.394;  159.873; -254.771
543.942;  596.117; -751.127; -830.770
544.223; 1063.869;  193.878;  161.219
544.504;  704.226; -275.124; -182.777
544.784;  587.378; -592.126; -408.773
545.065; 1665.047;  104.884; -254.791
545.345; 1974.368;  227.881;   14.215
545.626; 1250.596;  -14.113; -108.796
545.906;  883.664;   77.869;   98.235
546.186;  365.958;   92.874;  -95.773
546.467;  186.679;   99.877;  -95.778
546.747;  332.868;  264.884;  327.210
547.027;  360.999;   91.876;  111.223
547.308;  319.467; -376.127; -530.770
547.588;  388.006;  299.871;  371.232
547.868;  196.265;  458.870;  588.235
548.149;  190.530;  609.885;  593.207
548.429;  125.970; -347.127; -299.771
548.709;  201.634; -645.120; -461.784
548.989;  462.778;   84.882;   88.213
549.269; 2065.697;   10.868;  139.239
549.550; 4862.008;  215.877;  117.222
549.830; 4315.989; -758.111; -556.799
550.110;  841.347; -468.110; -320.801
550.390;  804.563; -128.122;  -56.779
550.670; 1157.191; -868.114; -783.795
550.950;  789.502; -509.121; -471.782
551.230;  171.799;  549.879;  460.218
551.510;    0.351; -381.121; -326.782
551.790;   33.830; -173.109; -127.803
552.070;  243.078;  940.877; 1181.223
552.350;  395.347; -492.119; -377.786
552.630;  580.521;   -2.121;   77.219
552.909;  375.048;  181.884;   73.209
553.189;  223.778;  -49.132;   33.237
553.469;  213.172; -703.119; -514.786
553.749;  193.498; -469.127; -357.772
554.029;  159.839;   33.883;  -24.790
554.308;  149.360; -154.115;  -37.794
554.588;   64.715; -196.128; -204.770
554.868;   72.328; -366.121;  -47.782
555.147;  153.307; -114.115;  -46.793
555.427;  575.725; -260.116; -250.792
555.707; 3891.179; -284.115; -200.793
555.986; 4764.443; -719.111; -538.800
556.266; 2443.317;   23.884;   72.210
556.546;  116.351; -888.121; -675.782
556.825;  260.464; -657.114; -556.794
557.105; 1777.288; -125.128;   17.230
557.384; 2102.597;  122.884;  187.209
557.664;  773.025; -717.116; -508.792
557.943;  117.203; -557.121; -411.782
558.222;  174.282; -345.118; -344.788
558.502;  275.708; -116.115;  -76.793
558.781;  493.203;  194.885;  499.208
559.061;  414.706; -232.118; -227.788
559.340;  281.886;  302.883;  353.211
559.619;  701.692;   93.884;  148.210
559.899; 1004.738; -239.117; -266.789
560.178;  909.008; -778.115; -593.793
560.457; 3123.840; -623.117; -562.790
560.736; 4441.644; -472.111; -482.800
561.015; 2941.811; -500.128; -502.769
561.295;  381.001;  180.893;  215.193
561.574;  348.255;  119.885;  116.207
561.853;  505.684;  274.891;  303.197
562.132;  471.260;  -45.114;  182.206
562.411;  411.172;  396.879;  553.219
562.690;  140.028; -592.115; -458.792
562.969;  137.803;  472.888;  630.203
563.248;  472.519; 2966.878; 2487.219
563.527;  273.618; -290.111; -408.800
563.806;  393.520; -650.127; -521.771
564.085;  415.866; -297.105; -206.810
564.364;  246.491; -594.117; -405.790
564.643;  491.047; -276.121; -223.781
564.922; 1858.353;  221.890;  397.198
565.201; 1889.457; -640.109; -700.803
565.479;  793.902; -297.115; -219.792
565.758;  326.213; -810.128; -712.770
566.037;  485.933; -155.109; -100.803
566.316;  232.672; -286.116;  -28.791
566.595;   42.955;  -17.115;  -12.793
566.873;   89.220; -166.111;  -79.801
567.152;  -56.498; -490.113; -590.797
567.431;   15.793; -113.116;    6.210
567.709;   17.276; -344.107; -212.807
567.988;  248.639; -810.114; -769.794
568.266;  517.680; -160.115;  -68.793
568.545;  381.590; -644.100; -514.819
568.824;  580.301;  160.885;  356.208
569.102;  550.063; -351.114; -235.794
569.381;  215.150; -492.116; -407.792
569.659;  -30.551; -553.113; -553.796
569.938;   41.342; -743.122; -465.780
570.216;  111.836; -225.109; -225.804
570.494;  -20.558; -632.114; -572.795
570.773;   43.451;  202.879;  114.218
571.051;    0.156; -373.123; -357.778
571.330;   69.946; -221.113; -174.796
571.608;   40.058; -181.098; -173.823
571.886;  -54.213; -671.111; -581.799
572.164;  -69.772; -739.121; -621.782
572.443;  -37.005; -562.105; -512.811
572.721;  -28.685; -399.117; -289.790
572.999;  -22.492; -280.117; -168.788
573.277;   85.088;  379.894;  620.191
573.555;  291.866;   94.894;   37.190
573.834; 1345.658;  -86.117; -114.788
574.112; 1549.753;  880.893;  811.193
574.390;  459.919; -143.111;  -96.801
574.668;    6.454;  -91.112;  -61.797
574.946;   -6.784; -165.106; -187.810
575.224;   16.207;   71.891;  -16.803
575.502;  -11.255; -200.116; -204.791
575.780;  -65.770; -767.112; -829.798
576.058;  214.893; 1589.889; 1004.200
576.336;  -11.801; -210.110; -129.801
576.614;  -50.870; -511.112; -340.798
576.891;   56.084; -711.115; -823.794
577.169;  485.569; -158.108; -285.805
577.447;  582.103;  169.893;  202.193
577.725;  254.935;  629.888;  854.201
578.003;   21.033;  -71.112; -371.798
578.280;  100.704; -208.104; -242.812
578.558;   63.483; -450.115; -422.793
578.836;  117.542; -210.114; -145.795
579.114;   57.053; -630.112; -670.797
579.391;   64.685;   -6.117;  -18.789
579.669;  -63.315; -595.114; -704.794
579.947;  160.774; -326.107; -127.806
580.224;  344.324; -692.107; -524.806
580.502;  311.928;  127.893;   76.193
580.779;   33.566;  -42.117;   75.210
581.057;  -68.689; -584.109; -470.804
581.334; -103.630; -726.102; -695.815
581.612;   37.617;   54.895;  511.190
581.889;  -25.317;  -83.101; -129.818
582.167;  -37.402; -298.099; -190.821
582.444;  -93.797; -845.102; -814.817
582.721;   91.578;  657.899;  715.183
582.999;   50.395; -326.100; -167.821
583.276;  517.886; -812.123; -713.779
583.553;  705.423; -364.102; -294.816
583.831;  231.976; -607.104; -631.812
584.108;   48.442;  349.892;  174.195
584.385;    6.344; -122.102;  -98.815
584.662;  -51.654; -651.111; -828.801
584.940;   21.270;  204.889;  204.199
585.217;  -23.827;  -73.113; -303.796
585.494;   32.229;   71.890;  118.198
585.771;  210.537; -250.109; -354.804
586.048;  497.548; -196.113;  -76.796
586.325;  319.223; -721.110; -773.801
586.602;   86.280;  230.896;  213.188
586.879;  -13.458; -499.100; -580.820
587.156;   47.142; -156.105; -331.810
587.433;  -40.149; -701.102; -667.817
587.710;   86.331;  152.888;  234.202
587.987;  311.173; -264.105; -236.811
588.264;  800.532;  315.888;  387.202
588.541; 1310.182;  -61.104;   26.187
588.818; 2714.864;   72.892;  171.196
589.095; 2314.928; -163.104; -174.812
589.371;  382.385; -459.109; -414.804
589.648;    8.253; -581.107; -437.807
589.925;   25.793; -517.114; -621.795
590.202;   21.580; -741.112; -607.798
590.478;   92.925; -166.105;  -73.811
590.755;  245.120; -241.108; -132.806
591.032; 2426.250; -741.110; -699.802
591.308; 3453.950; -732.094; -790.831
591.585; 1776.175; -573.110; -560.802
591.862;  151.952;-1056.102; -950.817
592.138;   55.243; -475.108; -474.805
592.415;  145.681; -486.104; -495.813
592.691; 1449.303;  460.896;  518.188
592.968; 1911.360; -208.098; -123.824
593.244;  882.618; -695.116; -595.790
593.521;   70.753; -105.102;  -42.817
593.797;   -7.410; -810.122; -720.780
594.074;  345.573; -611.096; -588.826
594.350;  643.210;  828.905;  729.172
594.626;  280.046; -303.111; -283.801
594.903;  109.903; -643.101; -645.817
595.179;  182.609;  243.896;  418.187
595.455;    6.880; -136.107; -150.807
595.731;   15.261;  -19.103;  -38.814
596.008;  -47.460; -464.111; -434.800
596.284;   29.294; -187.100; -242.820
596.560;   52.906; -501.093; -493.833
596.836;  199.745; -173.105;  -70.810
597.112;  334.969; -582.108; -437.805
597.388;  278.171;  -49.097;  -48.826
597.665;  109.851;  437.887;  530.203
597.941;  -54.363; -572.089; -658.839
598.217;   12.529; -323.110; -293.802
598.493;  258.639;   61.891; -204.804
598.769;  494.863; -175.100;  -50.819
599.045;  303.272; -490.108; -562.806
599.321;   52.393; -193.100; -261.820
599.597;  135.113; -355.109; -476.804
599.872;  461.057;  409.896;  429.187
600.148;  360.973;  -61.097; -172.826
600.424;  283.477;   91.893;  202.193
600.700;  225.354; -170.107; -280.807
600.976;  110.792; -442.097; -464.825
601.252;  252.009; -226.109; -272.803
601.527;  213.008; -833.104; -840.813
601.803;  152.000; -453.105; -404.812
602.079;  171.438; -124.100; -118.819
602.354;  562.742; -620.092; -531.835
602.630;  819.723; -140.113; -482.796
602.906; 2209.858; -910.101; -863.818
603.181; 6716.572; -627.119; -534.786
603.457; 5685.295;   98.903; -278.826
603.733;  836.580; -605.120; -626.783
604.008;  927.166; -245.106; -164.810
604.284; 3066.505; -636.101; -580.817
604.559; 2677.660;   -3.112;  -42.799
604.835;  468.369; -163.105; -225.810
605.110;  405.999; -732.099; -892.821
605.385;  673.284;  224.907;  267.167
605.661;  623.538; -625.095; -729.829
605.936; 1161.322; -664.108; -737.806
606.211;  959.893;  -17.103; -170.815
606.487;  178.062; -329.114; -376.794
606.762;   17.423; -791.119; -745.786
607.037;  -23.430; -501.105; -433.810
607.313;  -36.544; -589.096; -574.828
607.588;    1.116; -375.106; -137.810
607.863;   35.983;  -28.101; -143.818
608.138;  167.652;  513.890;  516.198
608.413;   37.853; -576.099; -592.822
608.688;   53.968; -203.108; -267.805
608.964;  188.085; -509.106; -218.809
609.239;  237.667; -107.105; -212.810
609.514;  250.800;  281.895;  240.188
609.789;  661.254; -187.104; -716.812
610.064;  870.829; -435.096; -609.827
610.339;  850.460; -855.109; -799.804
610.614; 1181.769; -131.100; -315.820
610.889;  647.650;  215.895;  107.188
611.163;   36.201; -407.104; -591.812
611.438;   74.813;   81.886; -167.794
611.713;    5.230; -467.101; -499.817
611.988;   49.232; -144.101; -328.818
612.263;  -24.305; -771.102; -717.815
612.538;  201.223;  385.887;  251.204
612.812;  182.070; -832.100; -911.820
613.087;  124.258; -358.098; -338.823
613.362;  -43.171; -497.107; -557.807
613.637;   43.039;  261.897;  138.186
613.911;   -1.033; -256.092; -345.835
614.186;  107.903; -249.107; -292.807
614.460;  666.614; -842.081; -758.854
614.735;  763.111;  -55.087;  -17.843
615.010;  160.225;   43.912;  -82.841
615.284;  256.393;  360.892;  246.195
615.559;  373.291; -792.092; -955.835
615.833;  276.051;  -76.099;  -87.822
616.108;   -0.622; -225.090; -390.837
616.382;  136.262;  274.913;  402.156
616.656;  157.529; -241.090; -232.837
616.931;  480.001; -785.099; -700.822
617.205; 1054.134; -973.104; -979.813
617.480;  958.490;  -91.125;    6.225
617.754;  144.587; -396.125; -128.774
618.028;    8.882; -369.129; -382.768
618.302;   57.016;   73.892;  -25.805
618.577;  -46.985; -371.103; -518.815
618.851;  -56.144; -399.109; -600.803
619.125;  -62.389; -335.134; -378.759
619.399;  -35.666; -244.104; -374.813
619.673;  -51.349; -330.115; -515.792
619.947;  -43.159; -333.114; -448.795
620.222;  -20.428; -198.110; -204.801
620.496;    6.853;  -47.121;  -96.782
620.770;   14.444; -187.122;  -93.781
621.044;  203.067;  323.895;  346.190
621.318;  741.981; -653.120; -614.783
621.592;  644.054; -430.121; -409.783
621.866;  366.661; -476.112; -572.799
622.140;   16.795; -207.116; -356.791
622.413;   50.015;  138.889;  112.200
622.687;  -36.495; -746.101; -492.817
622.961;    3.266; -130.108; -143.805
623.235;  -54.509; -633.111; -661.800
623.509; -103.825; -816.105; -848.811
623.783;   15.625;  -12.107;   48.193
624.056;  -37.818; -254.120; -280.783
624.330;   41.079;   63.888;   -3.797
624.604;   34.016; -271.116; -355.790
624.877;   56.426;  180.890;   26.198
625.151;   28.736; -249.114; -238.794
625.425;  -39.539; -150.103; -283.814
625.698;  -63.833; -367.119; -374.785
625.972;  -70.771; -799.110; -765.802
626.245;   66.743;  685.884;  484.210
626.519;  -33.014; -426.120; -340.784
626.792;  -34.496; -192.107; -380.807
627.066;  -88.488; -485.122; -662.779
627.339; -103.375; -736.110; -663.802
627.613;   42.535;  351.880;  148.216
627.886;   52.256;  187.891; -612.803
628.160;  -11.344;  312.880; -161.783
628.433; -100.207; -695.125; -703.775
628.706;  -80.514; -517.120; -615.784
628.979;   27.324;  296.876;  117.223
629.253;  -67.978; -785.119; -833.786
629.526;  341.502; -334.126; -253.772
629.799;  342.157; -641.123; -479.778
630.072;  155.658; -497.128; -516.769
630.346;  -73.657;-1115.116;-1080.790
630.619;  443.805; -467.107; -545.808
630.892;  610.766;  709.889;  593.200
631.165;  330.534;  790.896;  679.187
631.438;  -81.768;-1092.112;-1055.798
631.711;   46.110;  453.877;  257.221
631.984;  -59.686; -523.117; -624.789
632.257;  -70.565; -636.117; -681.789
632.530;  -49.233; -412.119; -433.785
632.803;   14.709; -109.115;    7.207
633.076;  -72.222; -360.123; -422.777
633.349;   -0.162;  173.872;  121.231
633.622;  -41.209; -187.119; -240.785
633.895; -123.818; -903.120; -823.783
634.167;  -68.296; -496.126; -525.773
634.440;   -9.450;  -19.116; -137.792
634.713;    2.870;  -22.119; -120.786
634.986;   68.177;  593.871;  453.233
635.258;  -75.293; -507.115; -597.793
635.531;   93.756;  742.882; -343.788
635.804;  -34.213; -303.117; -318.789
636.077;  -87.229; -830.116; -852.791
636.349;   -3.020; -586.115; -474.793
636.622;  380.801; 1695.874; 1392.228
636.894;  251.137; -474.120; -909.784
637.167;  174.370; -836.127; -789.771
637.439;   30.541; -278.128; -213.770
637.712;  -49.747; -312.126; -293.772
637.984;  -80.828; -635.116; -707.791
638.257;  352.979;  515.877;  488.222
638.529;  594.419; -881.125; -924.776
638.802;  237.508; -508.128; -449.769
639.074; -106.832; -927.122; -952.781
639.346; -105.823; -942.135; -930.757
639.619;   -9.190;  -79.142; -319.744
639.891;  -15.188;  -83.122; -168.779
640.163;  -74.336; -689.122; -756.780
640.435;   13.566;  273.878;  103.220
640.708;   -1.207;  -72.122; -132.780
640.980;  -30.155; -366.122; -362.781
641.252;  178.572;  -25.121;  -71.781
641.524; 1797.223;  580.879;  573.219
641.796; 1837.375;-1094.121; -907.782
642.068;  316.577; -191.121; -300.782
642.340;  -44.421; -486.121; -566.783
642.613;   28.556;  294.880;  323.217
642.885;  -91.117; -787.120; -878.783
643.157;  -53.790; -810.120; -658.784
643.428;   57.687;  170.880;  218.216
643.700;  -78.261; -498.120; -425.784
643.972;  -34.360;  -16.119; -133.785
644.244;  -82.633; -474.119; -559.785
644.516;  -42.706; -250.119; -114.786
644.788;   57.971;  662.881;  548.214
645.060;  -23.177;  -12.119; -124.786
645.332;  -97.925; -525.118; -535.787
645.603;   19.677;  479.882;  342.213
645.875;  -75.321; -334.118; -369.787
646.147;  146.431; 1487.882; 1242.212
646.418;  -75.093; -931.117; -918.788
646.690;  142.984; -714.117; -715.789
646.962;   25.561; -413.117; -451.789
647.233;  -12.237;   15.883;   11.211
647.505;  -95.335; -595.117; -475.790
647.776;   23.092;  328.884;  229.210
648.048;   -7.006; -248.116; -418.790
648.320;  -69.079; -752.116; -679.791
648.591; -143.777;-1055.116; -958.791
648.862;  -97.726; -505.116; -577.792
649.134;    8.176;  115.885;  198.208
649.405;  -32.847; -661.115; -618.792
649.677;  -50.695; -475.115; -598.793
649.948;   -5.543; -181.115; -296.793
650.219;   -6.516;  -37.115; -147.793
650.491;  -77.814; -431.114; -520.794
650.762; -124.112; -705.114; -731.794
651.033;  -93.460; -437.114; -424.795
651.304;  -88.709; -743.114; -728.795
651.576;  -65.307; -680.114; -645.795
651.847;  -43.480; -250.113; -140.796
652.118;   -7.253;  -32.113; -189.796
652.389; -115.301; -639.113; -722.796
652.660;  -41.849; -147.113;  -89.797
652.931; -133.797; -897.112; -871.797
653.202;  -84.795; -382.112; -541.798
653.473;  -60.993; -633.112; -533.798
653.744;  151.283; -595.112; -590.798
654.015;  131.460; -356.112; -303.799
654.286;  -65.238; -642.111; -663.799
654.557;  -42.386; -586.111; -521.799
654.828; -147.109;-1114.111;-1088.800
655.099;  -78.607; -404.111; -291.800
655.370;  -88.555; -427.111; -543.801
655.641; -114.828; -656.110; -714.801
655.911;  -98.751; -618.110; -638.801
656.182;   38.975;  437.890;  387.198
656.453;   90.952;  830.890;  746.198
656.724;  -78.621; -466.110; -426.802
656.994;  -90.869; -553.109; -568.803
657.265; -106.542; -862.109; -873.803
657.536;  -81.815; -500.109; -377.804
657.806; -109.263; -561.109; -593.804
658.077; -117.811; -866.109; -950.804
658.347;  -90.084; -523.108; -598.805
658.618; -112.583; -646.108; -694.805
658.888;  -26.931;  -41.108;  112.195
659.159;  -72.904; -432.108; -548.806
659.429;  -19.677; -292.108; -349.806
659.700;   23.075; -435.107; -390.807
659.970;   -3.423; -370.107; -359.807
660.241;   23.554; -754.107; -921.807
660.511;  496.456; -147.107; -174.808
660.781;   94.483; -793.106; -748.808
661.052;  -51.491; -222.106; -381.808
661.322;  -15.164;   21.894;   -9.809
661.592;    4.313;  257.894;  148.191
661.862;  -63.885; -369.106; -382.810
662.133;  -99.483; -551.105; -502.810
662.403; -109.756; -770.105; -676.810
662.673;  -49.529; -256.105; -213.811
662.943;  -92.727; -612.105; -551.811
663.213;  -13.750;  -85.105;  -81.811
663.483;  -75.574; -593.104; -568.812
663.753;  -52.247; -194.104; -152.812
664.023;  -13.345;   68.896;  -32.813
664.293;  -61.668; -319.104; -126.813
664.563; -123.641; -694.104; -648.813
664.833; -129.514; -743.103; -608.814
665.103; -123.137; -730.103; -793.814
665.373; -119.035; -766.103; -806.814
665.643;  -74.858; -863.103; -918.815
665.913;   23.943; -534.103; -714.815
666.182;  158.620; -685.102; -719.816
666.452;  261.847;  -22.102;  -89.816
666.722;  -19.301; -724.102; -784.816
666.992; -141.824; -948.102; -921.817
667.261;  -83.922; -824.102; -808.817
667.531;  176.255;  134.899;   45.183
667.801;  565.057; -440.101; -412.818
668.070;  232.909;  714.899;  697.182
668.340; -100.215; -883.101; -840.819
668.609;   72.787;  588.900;  301.181
668.879;  -80.386; -490.100; -558.819
669.149;  -68.909; -539.100; -516.820
669.418; -116.732; -698.100; -726.820
669.688;  -36.080; -482.100; -666.820
669.957;   80.072; -423.099; -546.821
670.226;  -34.201; -268.099; -331.821
670.496;  -87.624; -431.099; -635.822
670.765;  -72.623; -418.099; -501.822
671.034; -136.296; -872.099; -828.822
671.304;  -18.344;   55.902; -111.823
671.573; -137.167;-1085.098; -957.823
671.842;   67.885; -380.098; -294.823
672.112;   33.187; -692.098; -586.824
672.381;   -5.936; -239.098; -214.824
672.650; -125.059;-1005.097;-1021.825
672.919;  -85.832; -631.097; -507.825
673.188;  -85.780; -681.097; -878.825
673.457; -161.029;-1101.097;-1143.826
673.726;  -75.727; -579.096; -646.826
673.995;  -40.150; -533.096; -479.826
674.265;  -12.873; -263.096; -333.827
674.534;   -0.746; -183.096; -235.827
674.802;   -0.194; -618.096; -703.828
675.071;  890.633; -886.095; -801.828
675.340; 3894.935; -464.095; -339.828
675.609; 1289.387;  103.905;   82.171
675.878;   64.788; -949.095; -893.829
676.147;   21.315;  -26.095;   -8.829
676.416;   76.767; -210.094; -294.830
676.685;  725.894; 1000.906; -622.830
676.953;  107.871; -603.094; -452.831
677.222;  -42.327; -193.094; -273.831
677.491;  -27.125;  -24.094; -127.831
677.759;  -16.973;   11.907;  172.168
678.028;  -22.146; -279.093; -222.832
678.297;  -12.120;   71.907;  197.168
678.565; -133.218; -898.093; -944.833
678.834;  -55.916; -311.093; -268.833
679.102;  -82.414; -411.092; -391.834
679.371; -133.962; -898.092; -727.834
679.639; -123.560; -797.092; -786.834
679.908; -125.858; -794.092; -724.835
680.176; -141.756; -895.091; -941.835
680.445;  -76.404; -346.091; -352.835
680.713;  -26.103;  -58.091;  -23.836
680.982; -106.576; -523.091; -525.836
681.250; -113.024; -578.091; -507.837
681.518;  -91.447; -534.090; -751.837
681.787;  -30.545; -204.090; -167.837
682.055;  -66.693; -490.090; -422.838
682.323; -145.016; -993.090; -992.838
682.591;   11.586; -216.090; -538.838
682.859;   79.363;    9.911;  -35.839
683.128;   13.389;  232.911;  497.161
683.396; -155.559;-1102.089;-1122.840
683.664;  -43.057; -241.089;   21.160
683.932;   -2.655;  144.911;  -76.840
684.200;  -79.053; -576.088; -320.841
684.468;  -38.276;  -73.088; -124.841
684.736;  -28.874; -214.088; -175.841
685.004; -125.122;-1024.088; -982.842
685.272;  -46.245; -880.088; -774.842
685.540;  -47.869; -499.087; -557.843
685.808;  -79.542; -651.087; -682.843
686.076;  -94.565; -894.087; -969.843
686.343;  -71.488; -601.087; -815.844
686.611;   45.939; -195.087; -224.844
686.879;  403.491; -530.086; -553.844
687.147; 3287.368; -483.086; -480.845
687.414;  932.970;  -12.086; -169.845
687.682;    6.772; -658.086; -757.846
687.950;  281.698;  259.915;  263.154
688.217;   17.675; -792.085; -760.846
688.485;  -16.398; -632.085; -636.847
688.753;  498.304;  -11.085; -102.847
689.020;  164.731; -820.085; -851.847
689.288; -115.592; -853.084; -787.848
689.555;  -41.490; -195.084; -148.848
689.823;  -52.138; -241.084; -345.849
690.090;  -82.311; -546.084; -651.849
690.358; -130.510; -877.084; -897.849
690.625;  -12.033;  120.917;   45.150
690.892;  -56.456; -403.083; -369.850
691.160;  -24.279;   72.917;  -35.850
691.427;   -6.627;  141.917;  130.149
691.694; -136.375; -855.083; -929.851
691.962; -139.698;-1177.082;-1060.852
692.229;   10.629;  127.918;   56.148
692.496;   79.006;  130.918;  -49.852
692.763;    1.807; -164.082; -201.853
693.031;  -58.216; -739.082; -716.853
693.298;  -51.064; -509.081; -368.853
693.565;  286.263; -155.081; -163.854
693.832; 1289.340;   -5.081;   -9.854
694.099;  146.842; -643.081; -642.855
694.366;  -58.856; -882.081; -896.855
694.633;  -56.254; -920.080; -633.855
694.900;  726.873; 4367.920; -114.856
695.167;  429.999; -214.080; -380.856
695.434;  109.126; -646.080; -623.856
695.701;  190.278;  121.921;  -61.857
695.968;  469.255; -365.079; -361.857
696.234;  949.082; -415.079; -646.858
696.501;10605.984; -776.079; -614.858
696.768; 5723.211; -554.079; -617.858
697.035;  345.513; -632.078; -667.859
697.302;   52.915; -448.078; -552.859
697.568;    1.116; -458.078; -497.859
697.835;  -29.607; -683.078; -624.860
698.102;  -34.705; -498.078; -407.860
698.368;   65.747;  384.923;  396.139
698.635;  -40.151;  -47.077; -424.861
698.901;  -26.074; -240.077; -348.861
699.168;   70.728; -534.077; -456.862
699.435;   69.580;  -72.077;  -13.862
699.701; -100.393; -868.076; -764.862
699.968;   -5.967;  144.924; -441.863
700.234;  -89.965; -783.076; -822.863
700.500;  -51.413; -448.076; -539.864
700.767;  -21.461;   -1.075;   26.136
701.033; -125.159;-1015.075; -963.864
701.299;  -53.657; -450.075; -483.865
701.566;  108.145;  950.925;  763.135
701.832;   25.422;  -31.075;  -76.865
702.098;  -92.001;-1054.074;-1034.866
702.365;  -89.075;-1098.074;-1030.866
702.631;  -37.998;-1038.074;-1063.867
702.897; 1290.854; -765.074; -676.867
703.163; 2349.081;  348.926;  254.133
703.429;  161.883; -256.073; -273.868
703.695;  -23.465; -796.073; -792.868
703.961;   18.012; -214.073; -210.868
704.227;  -42.011; -630.073; -725.869
704.493;  126.691;  613.927;  510.131
704.759;  -14.508; -565.072; -540.870
705.025;   27.519; -203.072; -194.870
705.291;   -3.504; -666.072; -562.870
705.557;  185.073;  719.928;   34.129
705.823;   48.425; -742.072; -694.871
706.089;  145.802; -307.071; -326.871
706.355;  360.504; -315.071; -244.872
706.620; 5541.606; -776.071; -729.872
706.886; 8401.433; -309.071; -362.873
707.152;  779.109; -818.070; -973.873
707.418;    4.886;-1153.070;-1186.873
707.683;   11.438; -550.070; -530.874
707.949;  -39.710; -547.070; -578.874
708.215;    0.942; -129.070; -207.874
708.480;  -22.831; -520.069; -420.875
708.746;   97.271;   68.931;   28.125
709.011;  -49.952; -578.069; -612.876
709.277;  -81.250; -538.069; -543.876
709.542;  -51.824; -428.069; -387.876
709.808;   -0.297;  -59.068;   89.123
710.073;  -69.645; -577.068; -695.877
710.339;  -37.568; -242.068; -228.877
710.604;   69.584; -780.068; -845.878
710.869;  328.861; -277.068; -366.878
711.135;  -70.337; -715.067; -628.879
711.400;  -85.585; -507.067; -608.879
711.665;  -59.183; -404.067; -479.879
711.931;  -89.007; -661.067; -677.880
712.196; -111.755; -876.067; -954.880
712.461;   79.822; -402.066; -490.880
712.726;  140.499; -727.066; -771.881
712.991;  -90.849; -647.066; -664.881
713.256;  -36.997; -350.066; -332.882
713.521;  -75.345; -417.065; -381.882
713.787;  -60.443; -454.065; -472.882
714.052;  -21.941; -214.065; -400.883
714.317;  -93.990;-1045.065; -981.883
714.581;  990.887; -374.065; -268.883
714.846; 1555.739; -822.064; -888.884
715.111;  142.391;  261.936;  257.116
715.376;  -23.057;  -86.064; -223.885
715.641;  -22.830; -365.064; -367.885
715.906;  283.297;   15.936; -551.885
716.171;  119.324;  221.937;  209.114
716.436;   39.376;  -78.063; -104.886
716.700;  -94.173; -818.063; -692.886
716.965; -121.671; -794.063; -807.887
717.230;  -71.694; -339.063; -392.887
717.494;  -21.292;  -40.062; -134.888
717.759;  -91.940; -784.062; -640.888
718.024;    9.787;  269.938;  250.112
718.288;   81.939;  685.938;  395.111
718.553; -136.834; -803.062; -977.889
718.817; -155.157; -883.061; -899.889
719.082;  -38.106; -115.061; -125.890
719.346; -127.554;-1000.061; -947.890
719.611;  -62.977; -300.061; -255.891
719.875; -111.500; -568.060; -537.891
720.140;  -68.923; -453.060; -603.891
720.404;   28.179; -136.060; -249.892
720.668;  814.606; -475.060; -411.892
720.933;  337.433;  146.940;  137.108
721.197; -103.515; -667.059; -600.893
721.461; -134.814; -851.059; -826.893
721.725;   -9.162;  -21.059; -250.894
721.990;  -68.360; -284.059; -204.894
722.254;  -21.158;  -26.059; -108.894
722.518;  -67.356; -286.058; -442.895
722.782;  -93.854; -743.058; -594.895
723.046;  122.048;  614.942;  570.105
723.310;   24.575;  374.942;  210.104
723.574;  -88.998; -654.058; -614.896
723.838;  -91.421; -576.057; -642.897
724.102;  -55.795; -226.057; -239.897
724.366; -138.193;-1032.057; -978.897
724.630;  -97.416; -749.057; -571.898
724.894;  -73.189; -722.057; -514.898
725.158;  -17.387;   38.944; -295.898
725.422;  -40.260; -394.056; -327.899
725.685;  -66.058; -441.056; -349.899
725.949;  -70.656; -566.056; -519.900
726.213;  -64.354; -732.056; -811.900
726.477;  148.322;-1020.055; -933.900
726.740;  137.099; -274.055; -104.901
727.004;  313.126; -384.055; -510.901
727.268; 3369.178; -442.055; -400.901
727.531; 1052.230; -961.055; -775.902
727.795;  -43.793; -713.054; -673.902
728.059;  -49.966; -552.054; -557.903
728.322;  -81.039; -841.054; -669.903
728.586;   23.038; -692.054; -701.903
728.849;  -84.936; -695.053; -756.904
729.112; -124.434; -812.053; -912.904
729.376; -111.232; -959.053; -905.904
729.639;  -67.430; -536.053; -536.905
729.903; -102.403; -733.053; -699.905
730.166;  -44.801; -437.052; -399.906
730.429;  -23.124; -317.052; -468.906
730.693;  -85.497; -355.052; -894.906
730.956;  181.680;  810.948;  651.093
731.219;  720.256; -310.052; -103.907
731.482;  110.508;-1003.051; -894.907
731.745;  117.835; -794.051; -935.908
732.009;   12.287;  -30.051;   50.092
732.272;  -95.361; -904.051; -771.909
732.535;  -46.209; -300.051; -310.909
732.798; -133.157;-1083.050;-1166.909
733.061;  -69.505; -430.050; -456.910
733.324;    2.247;   31.950; -180.910
733.587;   63.923;  290.950;  365.090
733.850;  -68.425; -973.049;-1050.911
734.113;   28.977;   33.951;   32.089
734.376;    4.404; -328.049; -447.912
734.639;  198.331; 1188.951; 1011.088
734.901;   46.483; -180.049; -402.912
735.164;  441.485; -883.048; -837.913
735.427; 1339.237; -166.048; -355.913
735.690;  133.339; -205.048; -234.913
735.952;  -28.535; -923.048; -925.914
736.215;  -10.783;-1113.048;-1009.914
736.478;   52.894; -771.047; -774.915
736.740;  207.996;   33.953;  129.085
737.003;  589.673; -658.047; -672.915
737.266; 4043.025;  -94.047;   46.084
737.528;  464.402; -682.047; -660.916
737.791;  327.704; -316.046; -327.916
738.053;  773.081;  465.954;  649.083
738.316;10550.682; -162.046; -136.917
738.578; 8499.659; -770.046; -736.918
738.841;  468.936; -382.046; -446.918
739.103;  182.063; -875.045; -777.918
739.365;  521.665;   79.955;  -69.919
739.628;   13.092; -884.045; -805.919
739.890;  -18.531; -758.045; -710.919
740.152;  -30.604; -692.044; -754.920
740.414;  -15.002; -408.044; -359.920
740.677;  -35.526; -785.044; -634.921
740.939;  -40.724; -587.044; -487.921
741.201;  248.078; -432.044; -572.921
741.463;   45.705; -689.043; -745.922
741.725;   17.207;  -21.043; -199.922
741.987;   50.634;  220.957;  116.078
742.249;    1.886; -751.043; -859.923
742.511;  194.938; -703.043; -794.923
742.773;   28.640; -546.042; -546.924
743.035;  123.691;  796.958;  533.076
743.297;  -34.707; -963.042;-1013.924
743.559;  730.095; -278.042; -262.925
743.821;   79.647; -735.042; -744.925
744.083;   23.799;  -44.041; -149.925
744.345;  -80.899; -869.041; -892.926
744.607;   37.878;   75.959;  122.074
744.868;  -44.320; -490.041; -554.927
745.130; -107.268; -994.041;-1008.927
745.392;   47.558;   -1.040;  -44.927
745.653;  -13.365; -411.040; -378.928
745.915;  140.237;  896.960;  631.072
746.177;   50.339;   35.960;  -43.928
746.438;   -0.234; -428.040; -543.929
746.700;  -40.682; -947.039; -988.929
746.961;   10.795; -659.039; -740.930
747.223;  139.322; -190.039;  -74.930
747.484;   97.799; -391.039; -471.930
747.746;  146.050;  -23.038; -106.931
748.007;  115.102; -647.038; -689.931
748.269;  285.829; -468.038; -440.931
748.530;  507.831; -852.038; -638.932
748.791;  249.458; -354.038; -420.932
749.053;  434.835;  286.963;  163.067
749.314;  435.012; -236.037; -169.933
749.575;  514.639; -945.037; -905.933
749.836;  855.866; -217.037;   86.066
750.098; 2233.642;  -60.037;  -21.934
750.359;35789.694;  414.964;  555.066
750.620;10546.321; -121.036; -220.935
750.881; 1034.098; -585.036; -513.935
751.142; 1342.925; -950.036; -938.936
751.403;16167.127; -789.036; -705.936
751.664; 8333.454;-1034.035; -999.936
751.925;  534.856; -175.035; -262.937
752.186;  295.733; -298.035; -278.937
752.447;  139.259; -590.035; -445.937
752.708;   61.911; -532.035; -648.938
752.969;   19.288; -566.034; -576.938
753.230;    3.740; -777.034; -672.939
753.491;  -17.608; -650.034; -631.939
753.751;   60.044;  109.966;   19.061
754.012;   89.021;  258.967;  181.060
754.273;   69.348; -174.033;  -71.940
754.534;   16.800; -487.033; -580.940
754.794;  -77.424; -926.033; -911.941
755.055;  144.378; 1051.967;  881.059
755.316;  -40.595; -700.032; -566.942
755.576;  -31.518; -606.032; -576.942
755.837;  -48.191; -527.032; -695.942
756.097;  -50.639; -530.032; -564.943
756.358;  -64.312; -725.032; -770.943
756.618;  -54.485; -705.031; -641.943
756.879;   -6.183; -254.031; -349.944
757.139; -120.082;-1098.031;-1116.944
757.400;  -58.005; -538.031; -553.945
757.660;  -29.203; -365.031; -401.945
757.920;   22.649; -266.030; -228.945
758.181;  -16.374; -468.030; -351.946
758.441;  -78.947; -870.030; -809.946
758.701;  -29.570; -308.030; -215.946
758.961;   -7.018; -220.030; -278.947
759.222;  -50.141; -574.029; -502.947
759.482;  -75.940; -683.029; -723.948
759.742;  -81.188; -706.029; -547.948
760.002;    3.864;  -83.029; -143.948
760.262;   28.091;   50.972;  182.051
760.522;  -23.132; -498.028; -574.949
760.782;  -41.880; -738.028; -612.949
761.042;  -18.828; -618.028; -573.950
761.302;   40.099;   55.972;  -18.950
761.562;   49.001; -164.027; -154.951
761.822;   95.402; -710.027; -551.951
762.082;  -31.221;-1104.027;-1093.951
762.342;   65.556; -328.027; -403.952
762.601;   93.783; -567.027; -506.952
762.861;  372.485; -281.026; -207.952
763.121;  417.412; -406.026; -411.953
763.381; 7222.489; -499.026; -485.953
763.640; 9388.866; -139.026; -307.954
763.900;  398.443; -242.026; -203.954
764.160;  111.944; -458.025; -491.954
764.419;   -1.404; -726.025; -782.955
764.679;  -62.652; -795.025; -726.955
764.939;  -12.075; -124.025; -210.955
765.198;  -64.673; -608.025; -563.956
765.458;  -76.796; -710.024; -612.956
765.717;  -79.644; -454.024; -590.957
765.976;  -63.592; -428.024; -411.957
766.236;  -77.840; -475.024; -610.957
766.495;   21.086;  260.977;   73.042
766.755;  -84.362;-1090.023; -987.958
767.014;   -3.235; -594.023; -665.958
767.273;  -57.458; -373.023; -397.959
767.533;  -58.481; -228.023; -307.959
767.792;  -43.354; -151.022; -188.960
768.051;  -61.802; -228.022; -276.960
768.310;  -75.600; -546.022; -650.960
768.569;  -24.348; -161.022;    4.039
768.828;  -27.772; -285.022; -363.961
769.088; -118.395;-1050.021; -942.961
769.347;  -76.193; -755.021; -599.962
769.606;  -87.416; -876.021; -857.962
769.865; -116.464;-1016.021;-1033.963
770.124;   -2.562; -411.021; -336.963
770.383;  -39.160; -778.020; -910.963
770.641;   11.242; -398.020; -400.964
770.900;  -68.131; -953.020; -846.964
771.159;  -44.630; -851.020; -951.964
771.418;    3.622; -917.020; -779.965
771.677;  129.249; -224.019; -293.965
771.936;  166.351; -794.019; -865.966
772.194; 1933.703; -465.019; -437.966
772.453;11936.480; -213.019; -391.966
772.712;  901.432;  416.982;  329.033
772.970;  132.459;   32.982;   63.033
773.229;   78.511;  -22.018;  102.033
773.488;  -72.512; -814.018; -770.968
773.746;   54.089;  296.982;  335.032
774.005;   -0.959;  190.983;  -22.969
774.263;   14.743;  243.983;  177.031
774.522;  -29.705; -422.017; -548.969
774.780;  -70.353; -484.017; -417.970
775.039;  -91.026; -551.017; -531.970
775.297;  -32.699; -135.016; -351.970
775.555; -103.547; -489.016; -612.971
775.814; -114.320; -618.016; -570.971
776.072; -131.769; -749.016; -740.971
776.330; -109.642; -630.016; -520.972
776.589; -114.490; -703.015; -721.972
776.847; -127.513; -645.015; -624.973
777.105; -156.236;-1016.015;-1032.973
777.363;  -92.859; -459.015; -454.973
777.621; -132.032; -660.015; -717.974
777.879;  -24.005;  -42.014;   32.026
778.138;  -92.078; -554.014; -717.974
778.396; -103.152; -585.014; -526.975
778.654; -169.000;-1015.014; -970.975
778.912;  -72.248; -269.014; -371.976
779.170; -140.596; -880.013; -803.976
779.427; -143.794; -922.013; -897.976
779.685; -140.267; -880.013; -832.977
779.943;  -80.065; -654.013; -593.977
780.201; -155.788; -964.012; -883.978
780.459; -121.261; -651.012; -610.978
780.717;  -72.610; -440.012; -390.978
780.974; -112.008; -449.012; -490.979
781.232;  -68.831; -358.012; -338.979
781.490;  -67.054; -551.011; -472.979
781.747;  -98.602; -555.011; -476.980
782.005;   10.700;  462.989;  254.020
782.263; -147.798; -542.011;-1004.981
782.520;  -91.446; -326.011; -501.981
782.778; -159.869;-1013.010;-1051.981
783.035; -173.268; -962.010; -938.982
783.293;  -55.441; -248.010; -206.982
783.550;  -56.114; -134.010; -198.982
783.808; -127.687; -764.010; -776.983
784.065; -150.510; -745.009; -874.983
784.322;  -57.758;   25.991;  -86.984
784.580; -139.306; -915.009; -771.984
784.837;  -97.804; -392.009; -466.984
785.094; -139.677; -783.009; -762.985
785.352;  -78.376; -304.008; -404.985
785.609; -109.249; -934.008; -839.985
785.866;  -75.647; -345.008; -401.986
786.123;  -71.820; -639.008; -583.986
786.380;  -96.593; -665.008; -604.987
786.637;  -62.641; -225.007; -380.987
786.895;   -2.314; -456.007; -543.987
787.152;  -57.662; -135.007; -267.988
787.409;  -46.685; -123.007; -225.988
787.666;  -87.784; -299.006; -378.988
787.923; -105.782; -616.006; -695.989
788.179; -100.055; -551.006; -584.989
788.436; -102.003; -585.006; -585.990
788.693;  -44.426;  -92.006;  -87.990
788.950;  102.876; -125.005; -112.990
789.207;  217.253; -381.005; -372.991
789.464;  -43.895; -161.005; -301.991
789.720;  -18.418;  150.995;  110.009
789.977; -166.917;-1003.005; -671.992
790.234;  -49.865;   44.996;  -66.992
790.490; -146.463; -884.004;-1031.993
790.747;  -20.811;  -85.004;   22.007
791.004;  -33.584; -426.004; -348.993
791.260;  -66.582; -430.004; -560.994
791.517; -102.280; -843.003; -788.994
791.773;  -50.328; -379.003; -342.994
792.030; -109.201; -596.003; -660.995
792.286;  -96.175; -686.003; -636.995
792.543;  -15.148;  -74.002; -159.995
792.799;  -52.996; -584.002; -382.996
793.055; -140.344;-1179.002;-1210.996
793.312;  -90.892; -827.002; -816.997
793.568;  -61.415; -746.002; -599.997
793.824;   11.612; -226.001; -284.997
794.081;   22.789; -447.001; -508.998
794.337;   60.541; -664.001; -561.998
794.593; 1132.942; -319.001; -271.999
794.849; 7184.144; -746.001; -772.999
795.105;  436.496; -270.000; -261.999
795.361;   25.298; -490.000; -457.000
795.617;  -36.000; -875.000; -945.000
795.873;  -59.325; -360.000; -407.000
796.129;  -29.575; -368.000; -306.000
796.385;  -31.850; -124.000; -156.000
796.641;   69.600;  412.000;  550.000
796.897;  -79.025; -666.000; -635.000
797.153;   65.800;  453.000;  357.000
797.409; -101.950; -785.000; -868.000
797.665;  -71.200; -625.000; -732.000
797.921;  -77.000; -775.000; -762.000
798.176;  -36.200; -744.000; -747.000
798.432;  -58.000; -824.000; -596.000
798.688;  -62.550;-1174.000;-1078.000
798.943;   75.350; -165.000; -147.000
799.199;   18.150;-1005.000; -959.000
799.455;  238.900;  369.000;  316.000
799.710;  148.250; -813.000; -380.000
799.966;  312.950; -162.000; -160.000
800.221;  478.500; -638.000; -721.000
800.477; 9704.250; -743.000; -710.000
800.732;10744.425; -773.000; -800.000
800.988;  683.300;  205.000;  -19.000
801.243; 1609.725; -454.000; -344.000
801.498; 8626.425; -814.000; -739.000
801.754;  577.900; -289.000; -163.000
802.009;   77.750; -257.000; -335.000
802.264;  -30.150; -967.000;-1033.000
802.520;   40.100;  222.000;   -3.000
802.775;  -45.125; -524.000; -359.000
803.030;   43.800;  395.000;  356.000
803.285;  -98.250; -840.000; -903.000
803.540;  -59.650; -686.000; -699.000
803.795;  -43.525; -648.000; -583.000
804.051;  -47.750; -279.000; -346.000
804.306;   10.475;  168.000;  128.000
804.561;  120.550;  451.000;  362.000
804.816;  134.875;  714.000;  861.000
805.071;   -1.450; -185.000; -280.000
805.325;  208.625; -257.000; -427.000
805.580;  -91.100; -841.000; -877.000
805.835;  -20.825; -204.000; -297.000
806.090;  -72.700; -760.000; -676.000
806.345;  -22.550; -344.000; -264.000
806.600;  -30.550; -549.000; -632.000
806.854;  -23.350; -408.000; -538.000
807.109;  -14.300; -493.000; -577.000
807.364;   17.075; -407.000; -328.000
807.618;    4.975; -415.000; -381.000
807.873;   60.000; -470.000; -494.000
808.128;   93.600; -257.000; -518.000
808.382;  121.300; -224.000; -332.000
808.637;   78.650; -440.000; -511.000
808.891;  192.675; -257.000; -180.000
809.146;  116.875; -902.000; -794.000
809.400;  260.400; -848.000; -923.000
809.654;  366.300; -779.000; -551.000
809.909;  506.800; -841.000; -927.000
810.163; 5720.425; -813.000; -651.000
810.418;18594.650; -940.000; -861.000
810.672; 1219.875; -685.000; -690.000
810.926;  774.100; -993.000; -973.000
811.180; 1415.875; -439.000; -372.000
811.434;31678.850;  240.000;  135.000
811.689;16084.425; -231.000; -365.000
811.943;  761.825; -936.000; -953.000
812.197;  389.125; -893.000; -671.000
812.451;  160.675; -379.000; -514.000
812.705;    0.700; -809.000; -619.000
812.959;   15.800; -263.000; -388.000
813.213;   -5.675; -283.000; -209.000
813.467;   70.925;  470.000;  253.000
813.721;  -93.675; -764.000; -792.000
813.975; -111.750; -826.000; -877.000
814.229;   43.350;  430.000;  353.000
814.482;  -64.650; -517.000; -566.000
814.736; -110.175; -766.000; -744.000
814.990; -121.175; -779.000; -872.000
815.244;  -50.075; -228.000; -285.000
815.497; -103.800; -636.000; -601.000
815.751;  -14.725; -141.000;   82.000
816.005;  -89.325; -470.000; -586.000
816.258;  -70.225; -510.000; -363.000
816.512; -102.550; -693.000; -610.000
816.766;   -2.225;  121.000;  157.000
817.019;   32.600;  148.000;  149.000
817.273;  -96.925;-1000.000; -802.000
817.526;  -31.325; -206.000; -173.000
817.779;  -46.675;-1049.000; -960.000
818.033;  -65.675; -693.000; -807.000
818.286; -121.825; -725.000; -792.000
818.540;  -82.550; -403.000; -403.000
818.793;  -76.200; -402.000; -489.000
819.046;  -94.050; -582.000; -520.000
819.299;  -49.575; -157.000; -166.000
819.553; -104.450; -552.000; -592.000
819.806; -158.475;-1016.000; -838.000
820.059;  -66.800; -334.000; -354.000
820.312;   20.175;  152.000;  185.000
820.565;  -28.900;  110.000;  -27.000
820.818;  -51.325;  -59.000; -173.000
821.071; -156.850;-1041.000; -957.000
821.324; -105.450; -536.000; -540.000
821.577; -105.925; -457.000; -483.000
821.830;  -65.675; -270.000; -172.000
822.083; -129.450; -733.000; -288.000
822.336;  -57.500; -261.000; -167.000
822.589; -136.150; -805.000; -688.000
822.842; -141.725; -875.000; -770.000
823.094; -166.425;-1076.000;-1114.000
823.347; -122.925; -925.000; -729.000
823.600;    6.075;  402.000;  187.000
823.853;  -57.700; -311.000; -267.000
824.105;  -74.650; -331.000; -575.000
824.358; -106.425; -617.000; -716.000
824.611;   35.000;  234.000;   40.000
824.863;  -44.675; -612.000; -591.000
825.116;   31.675;  -33.000;   27.000
825.368;   65.225; -366.000; -372.000
825.621;  173.600; -186.000; -240.000
825.873;   94.225; -704.000; -737.000
826.126;  519.400; -669.000; -641.000
826.378;11230.425; -389.000; -505.000
826.630; 3617.350; -890.000; -898.000
826.883;   77.500; -754.000; -693.000
827.135;   41.975; -279.000; -270.000
827.387; -105.325; -893.000; -839.000
827.639;  -32.725;  -86.000;   32.000
827.892; -116.175; -742.000; -582.000
828.144; -144.300; -848.000; -804.000
828.396;  -35.675;  104.000;  -80.000
828.648; -107.450; -440.000; -333.000
828.900; -159.975; -702.000; -795.000
829.152; -114.925; -684.000; -683.000
829.404;  -66.775; -215.000; -267.000
829.656;   -9.000;  321.000;  214.000
829.908;  -22.900;  393.000;  229.000
830.160; -160.925;-1064.000;-1047.000
830.412; -100.825; -481.000; -430.000
830.664; -108.575; -557.000; -665.000
830.916;  -81.525; -268.000; -206.000
831.167; -173.450;-1073.000; -951.000
831.419; -102.400; -623.000; -566.000
831.671; -151.800; -764.000; -809.000
831.923;  -81.375; -311.000; -447.000
832.174;  -84.850; -273.000; -331.000
832.426; -118.150; -493.000; -582.000
832.678; -180.925;-1043.000;-1091.000
832.929; -164.175; -947.000; -935.000
833.181;  -61.850; -575.000; -677.000
833.432;  -54.700;  -59.000; -186.000
833.684;  -22.000;  112.000;  -27.000
833.935; -114.400; -610.000; -566.000
834.187; -116.950; -829.000; -823.000
834.438;  -59.225;  -58.000;  -25.000
834.689;  -57.475; -255.000; -123.000
834.941;  -56.625; -343.000; -244.000
835.192;  -98.000; -590.000; -533.000
835.443; -107.875; -419.000; -506.000
835.695;  -13.525;  138.000;  -16.000
835.946;  -89.175; -608.000; -378.000
836.197; -100.400; -599.000; -622.000
836.448;  -93.950; -528.000; -395.000
836.699;  -62.600; -253.000; -341.000
836.950;   -9.725;   72.000;    7.000
837.201; -145.650;-1003.000; -987.000
837.452;  -55.825; -356.000; -170.000
837.703; -105.025; -791.000; -737.000
837.954;  -43.200; -205.000; -365.000
838.205;  -83.425;-1029.000;-1008.000
838.456;  161.425; -196.000; -282.000
838.707;   13.675; -423.000; -519.000
838.958;   -3.725; -634.000; -647.000
839.209;  288.500;   18.000;   40.000
839.460;  117.500; -439.000; -201.000
839.710;  176.975; -135.000; -297.000
839.961;  423.175;  730.000;  612.000
840.212;  361.150; -382.000; -497.000
840.462; 1065.075; -328.000; -277.000
840.713;17046.800; -571.000; -536.000
840.964; 8815.850;  -62.000; -143.000
841.214;  579.275; -384.000; -624.000
841.465;  579.675; -214.000; -141.000
841.715;  535.250; -417.000; -380.000
841.966;  664.925; -746.000; -685.000
842.216; 7659.850; -330.000; -431.000
842.466;36401.825; -169.000; -313.000
842.717; 2627.075; -964.000; -952.000
842.967;  299.375; -635.000; -641.000
843.217;  284.475;   20.000;   28.000
843.468;   65.100; -104.000; -132.000
843.718;  -23.325; -718.000; -726.000
843.968;  -79.200; -837.000; -765.000
844.218;   18.650; -315.000; -262.000
844.469;  -50.700; -577.000; -561.000
844.719;  -98.350; -537.000; -682.000
844.969; -118.525; -550.000; -580.000
845.219; -125.425; -814.000; -862.000
845.469;  -79.075; -392.000; -342.000
845.719; -145.275; -792.000; -884.000
845.969;  -17.300;  119.000;  174.000
846.219; -109.250; -738.000; -720.000
846.469;   14.750;  464.000;  432.000
846.718;  -47.125; -115.000;   31.000
846.968; -131.775; -827.000; -827.000
847.218;  -46.875; -224.000; -371.000
847.468;  -16.300; -586.000; -555.000
847.718; -136.900; -827.000; -798.000
847.967; -137.775; -826.000; -915.000
848.217;  -83.425; -449.000; -569.000
848.467;  -67.975; -405.000; -376.000
848.716; -107.175; -708.000; -725.000
848.966;  -10.725; -372.000; -358.000
849.215;  -56.625; -428.000; -419.000
849.465;  -91.175; -785.000; -615.000
849.714; -129.825;-1132.000;-1150.000
849.964;  -71.225; -551.000; -613.000
850.213;  -21.475; -393.000; -355.000
850.463;   70.275;  137.000;  340.000
850.712;   -6.500; -542.000; -567.000
850.961;   10.775; -739.000; -678.000
851.211;  115.675; -513.000; -504.000
851.460;  169.875; -635.000; -650.000
851.709;  543.200;  -25.000;   18.000
851.958; 9342.875; -912.000; -750.000
852.208;14577.700; -859.000; -879.000
852.457;  583.375; -181.000;  -13.000
852.706;   84.900; -791.000; -823.000
852.955;   18.475; -507.000; -528.000
853.204;  -63.200; -521.000; -461.000
853.453;  -84.150; -418.000; -458.000
853.702; -123.400; -660.000; -750.000
853.951; -102.675; -532.000; -520.000
854.200; -114.925; -613.000; -562.000
854.449; -139.550; -695.000; -661.000
854.698; -104.225; -340.000; -279.000
854.946;  -84.500; -181.000; -284.000
855.195; -153.925; -843.000; -868.000
855.444; -102.100; -395.000; -420.000
855.693; -122.775; -345.000; -432.000
855.941; -117.450; -387.000; -516.000
856.190;  -65.700; -256.000; -382.000
856.439; -136.800; -652.000; -703.000
856.687;  -58.875;  -99.000;  -72.000
856.936; -125.625; -621.000; -323.000
857.184; -185.350;-1067.000;-1020.000
857.433; -120.650; -423.000; -512.000
857.681; -155.700; -989.000; -953.000
857.930;  -75.875; -282.000; -433.000
858.178; -175.450; -856.000; -929.000
858.427; -154.275; -802.000; -781.000
858.675; -126.100; -377.000; -544.000
858.923; -108.100; -527.000; -819.000
859.172; -176.700;-1094.000;-1070.000
859.420;  -86.975; -339.000; -239.000
859.668; -131.550; -624.000; -628.000
859.916;  -30.500;  109.000;  115.000
860.164; -108.275; -699.000; -603.000
860.413;  241.025; -878.000; -696.000
860.661;  272.000; -709.000; -577.000
860.909;  -95.325; -339.000; -325.000
861.157;  -80.700; -277.000; -444.000
861.405; -120.175; -534.000; -670.000
861.653;    1.325;  310.000;  310.000
861.901;  146.375; -543.000; -613.000
862.149;   18.850; -801.000; -824.000
862.396;  -78.525; -297.000; -187.000
862.644;  -92.475; -368.000; -347.000
862.892;  -33.675;   98.000;  138.000
863.140; -118.900; -549.000; -530.000
863.388; -164.875; -815.000; -759.000
863.635; -113.725; -642.000; -601.000
863.883;  -22.475;  231.000;  190.000
864.131;  -97.550; -288.000; -357.000
864.378; -134.550; -675.000; -540.000
864.626; -111.650; -347.000; -415.000
864.873; -116.025; -556.000; -505.000
865.121; -142.925; -714.000; -799.000
865.368;  -45.900; -173.000;   75.000
865.616;  -31.675;  -33.000;  -40.000
865.863;  -87.325; -462.000; -506.000
866.111; -102.125; -795.000; -824.000
866.358;   33.000; -426.000; -420.000
866.605; 2108.350;  -64.000; -804.000
866.853; 2725.525; -621.000; -537.000
867.100;   -2.525; -728.000; -775.000
867.347;  -94.575; -672.000; -611.000
867.594;  -88.450; -740.000; -714.000
867.841;   83.200;   97.000;   17.000
868.089; -146.375; -746.000; -698.000
868.336;  -98.225; -477.000; -420.000
868.583; -139.450; -637.000; -741.000
868.830;  -73.650; -131.000; -170.000
869.077; -151.475; -859.000; -787.000
869.324; -125.925; -502.000; -458.000
869.571; -129.750; -398.000; -430.000
869.818; -121.525; -485.000; -439.000
870.065; -107.100; -439.000; -513.000
870.311; -112.925; -456.000; -542.000
870.558; -111.250; -332.000; -311.000
870.805;  -89.900; -320.000; -384.000
871.052; -120.475; -494.000; -369.000
871.298;  -49.450; -204.000; -131.000
871.545;  -55.300; -151.000; -185.000
871.792;  -99.875; -173.000; -222.000
872.038;  -68.350;   43.000; -126.000
872.285; -126.050; -496.000; -387.000
872.532; -110.050; -357.000; -387.000
872.778;    7.325;  556.000;  403.000
873.025;  -96.250; -384.000; -359.000
873.271;   11.275;  501.000;  578.000
873.517;  -33.175; -133.000; -209.000
873.764;  -39.775; -193.000;  -80.000
874.010;  -76.325; -143.000; -230.000
874.257;  -57.875;  123.000;   90.000
874.503; -115.225; -579.000; -479.000
874.749;  -62.975;   31.000;  275.000
874.995;  -90.825;  -80.000;  -20.000
875.242; -128.950; -540.000; -478.000
875.488; -121.700; -414.000; -439.000
875.734;  -78.275; -106.000; -234.000
875.980;  127.650; -872.000;-1032.000
876.226;  401.600; -157.000; -255.000
876.472;    5.525;  343.000;  237.000
876.718;  -44.650;  184.000;  158.000
876.964;  -46.125;   56.000;   55.000
877.210; -130.000; -547.000; -677.000
877.456; -143.275; -630.000; -557.000
877.702; -180.100; -821.000; -832.000
877.948; -112.600; -377.000; -497.000
878.193;   -0.275;  361.000;  255.000
878.439;  -85.825; -487.000; -472.000
878.685;  -82.175; -272.000; -343.000
878.931; -126.825; -618.000; -676.000
879.176;  -94.025; -201.000; -201.000
879.422; -190.925; -933.000; -820.000
879.668;   44.900;   10.000;   79.000
879.913;  146.875;   53.000;  137.000
880.159;  -67.100; -112.000;  -17.000
880.404;  -54.725; -152.000; -162.000
880.650;  -42.525;   91.000;  141.000
880.895; -159.100; -670.000; -710.000
881.141; -131.400; -454.000; -428.000
881.386; -157.575; -503.000; -658.000
881.631;  -97.250; -311.000; -166.000
881.877;  -40.175;  112.000;  -13.000
882.122; -129.050; -684.000; -600.000
882.367;  -95.700; -136.000; -186.000
882.612;  -88.975;  -80.000; -176.000
882.858; -157.800; -877.000; -823.000
883.103; -100.425; -297.000; -267.000
883.348; -146.025; -759.000; -852.000
883.593; -163.550; -677.000; -602.000
883.838;  -69.250; -311.000;  -24.000
884.083;   32.025;  353.000;  288.000
884.328; -101.375; -564.000; -545.000
884.573;  -69.600; -196.000; -143.000
884.818;  158.175; -694.000; -531.000
885.063;  228.875; -348.000; -315.000
885.308;  -98.075; -475.000; -398.000
885.553;  -20.925;  245.000;  325.000
885.797; -133.500; -545.000; -615.000
886.042;  -57.200;    8.000;   58.000
886.287;  -82.675; -253.000; -211.000
886.532;  -51.625;   26.000;  204.000
886.776;  -98.375; -407.000; -525.000
887.021; -144.350; -621.000; -574.000
887.265; -146.250; -685.000; -689.000
887.510; -129.075; -557.000; -496.000
887.755;  -85.025; -194.000; -164.000
887.999; -147.700; -552.000; -575.000
888.244;  -52.875;  -58.000;  161.000
888.488;  -12.075;  371.000;  393.000
888.732; -115.675; -368.000; -520.000
888.977; -144.100; -622.000; -567.000
889.221; -150.650; -683.000; -659.000
889.465; -129.350; -422.000; -566.000
889.710;  -89.300;  -56.000; -299.000
889.954;   -4.350;  579.000;  467.000
890.198; -153.275; -584.000; -707.000
890.442; -152.450; -716.000; -712.000
890.687; -167.950; -800.000; -753.000
890.931;  -97.550; -273.000; -210.000
891.175; -125.600; -502.000; -500.000
891.419;  -78.375; -105.000; -110.000
891.663;  -96.575; -239.000; -112.000
891.907; -161.425; -801.000; -545.000
892.151; -169.100; -920.000; -815.000
892.395; -115.075; -274.000; -387.000
892.638;  -35.450;  408.000;  291.000
892.882; -170.300; -780.000; -867.000
893.126;    3.550;  758.000;  558.000
893.370;  -87.100; -167.000; -168.000
893.614; -143.925; -714.000; -715.000
893.857; -119.850; -183.000; -197.000
894.101; -134.850; -527.000; -631.000
894.345;  -80.075;  300.000;  150.000
894.588;    8.250;  569.000;  380.000
894.832;  -87.925; -178.000;  -84.000
895.075;  -90.225;   15.000;  -92.000
895.319; -132.550; -552.000; -420.000
895.563; -116.700; -413.000; -353.000
895.806; -151.150; -628.000; -741.000
896.049;  -65.975; -576.000; -368.000
896.293;   94.725;  527.000;  405.000
896.536;  -70.675; -465.000; -468.000
896.779;  -70.575; -149.000;   -1.000
897.023; -144.650; -751.000; -714.000
897.266;  -40.775;  325.000;  269.000
897.509; -179.750; -900.000; -901.000
897.752;  -59.100;  149.000;  171.000
897.996; -186.900; -972.000; -864.000
898.239;  -63.150;  168.000;  102.000
898.482; -113.700; -431.000; -453.000
898.725;  -41.100;  101.000;   53.000
898.968; -155.050; -609.000; -744.000
899.211; -118.150; -513.000; -361.000
899.454; -120.025; -633.000; -539.000
899.697;  -72.900;   90.000;  -43.000
899.940; -168.525; -761.000; -757.000
900.182;  -99.725; -335.000; -405.000
900.425;  -94.975; -150.000; -298.000
900.668;  -23.500;  491.000;  350.000
900.911; -115.500; -292.000; -345.000
901.154;  -56.025;  141.000;   -3.000
901.396; -135.700; -407.000; -412.000
901.639; -158.325; -430.000; -496.000
901.882; -170.650; -790.000; -809.000
902.124;  -86.200;  -29.000; -143.000
902.367; -122.500; -315.000; -361.000
902.609; -138.800; -476.000; -453.000
902.852;  -93.900; -108.000; -260.000
903.094; -119.900; -458.000; -337.000
903.337;  -66.550;  -26.000;   53.000
903.579; -117.950; -228.000; -441.000
903.821; -157.925; -597.000; -744.000
904.064;  -71.300;   85.000;  127.000
904.306;  -85.475; -126.000; -166.000
904.548; -106.950; -152.000; -366.000
904.790; -100.450; -195.000; -340.000
905.033; -129.800; -625.000; -577.000
905.275; -129.250; -513.000; -524.000
905.517;   29.900;  468.000;  256.000
905.759;  -60.500; -667.000; -761.000
906.001; -108.825; -322.000; -369.000
906.243;  -70.250; -162.000; -224.000
906.485;   87.350; -265.000; -207.000
906.727;  125.025; -499.000; -542.000
906.969;  -22.025;  -30.000; -135.000
907.211;  118.700; -316.000; -382.000
907.453;  262.150; -188.000; -237.000
907.695;   20.900; -158.000; -385.000
907.936;   36.650;  818.000;  706.000
908.178;  -57.175;   92.000; -135.000
908.420;  -61.500; -111.000; -162.000
908.662; -128.225; -633.000; -682.000
908.903;  -94.150; -208.000; -123.000
909.145;  -58.000; -240.000; -305.000
909.386;   -0.450;  315.000;  280.000
909.628;   44.500;  363.000;  397.000
909.870;   -1.575;   29.000;  264.000
910.111;  -83.525; -809.000; -949.000
910.353;   21.925; -123.000; -161.000
910.594;   14.875; -574.000; -606.000
910.835;   79.900; -265.000; -326.000
911.077;  155.575; -503.000; -604.000
911.318;  303.875; -505.000; -471.000
911.559;  514.425; -577.000; -880.000
911.801; 1330.950; -284.000; -280.000
912.042; 9716.475;  -50.000; -159.000
912.283;29314.575;  404.000;  371.000
912.524; 5613.775; -396.000; -457.000
912.765;  578.875; -193.000;   79.000
913.006;  274.700; -307.000; -338.000
913.247;   79.600; -270.000; -290.000
913.488;   -1.100;  -43.000;   30.000
913.729;  -80.400; -373.000; -373.000
913.970;  -64.100;  -96.000; -292.000
914.211;  -68.375; -160.000; -198.000
914.452;  -56.275; -118.000;  -11.000
914.693;   12.025;  510.000;  592.000
914.934;    2.125;  510.000;  440.000
915.175;  -69.575;   53.000;  -95.000
915.415;  -86.250; -137.000;   27.000
915.656;  -67.075;  -28.000;  192.000
915.897;  -93.175; -252.000;  -82.000
916.137;  -76.525;   74.000;   -9.000
916.378; -120.875; -573.000; -517.000
916.619;  -84.000; -159.000;  -63.000
916.859;  -25.650;  303.000;  330.000
917.100;  120.275; 1655.000; 1070.000
917.340;   34.825;  930.000;  728.000
917.581;   52.250;  965.000;  789.000
917.821;  -40.650; -171.000;  143.000
918.061;   10.100; -199.000;  -72.000
918.302;  -47.850; -152.000; -211.000
918.542;  -29.725;  -22.000;    3.000
918.782;   30.950;  369.000;  377.000
919.023;  103.500;  360.000;  427.000
919.263; 1237.925; 8131.000;  202.000
919.503; 1186.525; -137.000;  -54.000
919.743;  631.200;  390.000;  266.000
919.983;  300.925; -134.000;  -26.000
920.223;   91.525;  135.000;   14.000
920.463;  138.700;  631.000;  554.000
920.703;  128.400;   84.000;   39.000
920.943;  179.400; -110.000;   90.000
921.183;  234.025; -414.000; -405.000
921.423;  525.525;  307.000;  546.000
921.663;  739.625; -174.000; -257.000
921.903; 1527.975;  237.000;  173.000
922.143; 8141.500;  372.000;  389.000
922.383;34103.800;  158.000;  115.000
922.622;14292.800; -120.000;  -15.000
922.862; 1461.800;  796.000;  785.000
923.102;  537.300;  -51.000;   33.000
923.341;  200.075;   59.000;   74.000
923.581;   84.725;  450.000;  360.000
923.821;   36.325;  301.000;  398.000
924.060;    8.925;  351.000;  193.000
924.300;  -56.000;  -16.000; -128.000
924.539;   -3.225;  584.000;  473.000
924.779;    3.625;  812.000;  597.000
925.018;  -42.725;  247.000;  353.000
925.257;   -5.200;  595.000;  666.000
925.497;  -49.425;  447.000;  412.000
925.736;  -70.350;  -35.000;  102.000
925.975;    5.350;  687.000;  669.000
926.214;   21.525;  907.000;  850.000
926.454;   31.000;  706.000;  757.000
926.693;  -37.775;  419.000;  543.000
926.932;   19.050; 1021.000;  825.000
927.171;   60.650; 1107.000; 1044.000
927.410;   51.800; 1144.000;  967.000
927.649;   15.375;  924.000;  742.000
927.888;  -11.900;  590.000;  564.000
928.127;  -11.250;  680.000;  678.000
928.366;   19.225;  842.000;  826.000
928.605;   27.575;  831.000;  737.000
928.844;  232.100; 1451.000; 1393.000
929.083;  586.525;  770.000;  613.000
929.321;  364.475; 1335.000; 1359.000
929.560;   95.575; 1158.000; 1122.000
929.799;  -25.025;  574.000;  475.000
930.038;   80.600; 1025.000; 1394.000
930.276;  -53.050;  334.000;  397.000
930.515;  -10.325;  827.000;  681.000
930.753;   -7.425;  614.000;  589.000
930.992;  -16.525;  664.000;  717.000
931.230;    4.425;  847.000;  847.000
931.469;  165.750; 2162.000;  892.000
931.707;   66.625;  840.000;  751.000
931.946;   62.775; 1278.000; 1344.000
932.184;   56.950; 1437.000; 1175.000
932.423;   47.700; 1265.000;  963.000
932.661;   85.800; 1296.000; 1428.000
932.899;   26.125;  987.000;  821.000
933.137;    9.875;  754.000;  564.000
933.376;  144.200; 1664.000; 1335.000
933.614;  173.075; 1759.000; 1196.000
933.852;   62.025; 1357.000; 1171.000
934.090;  125.325; 1722.000; 1747.000
934.328;  110.000; 1252.000; 1457.000
934.566;  100.975; 1431.000; 1110.000
934.804;  137.175; 1263.000; 1309.000
935.042;  443.675; 1861.000; 1850.000
935.280; 1738.525; 2088.000; 2063.000
935.518; 1930.500; 2113.000; 2007.000
935.756;  423.650; 2481.000; 2316.000
935.994;  167.300; 1808.000; 1751.000
936.231;  329.925; 2890.000; 2950.000
936.469;  189.275; 2367.000; 2378.000
936.707;  171.475; 2220.000; 2167.000
936.945;  225.775; 2825.000; 2882.000
937.182;  197.400; 2679.000; 2741.000
937.420;  294.275; 3602.000; 3031.000
937.657;  401.025; 3365.000; 3478.000
937.895;  351.750; 3331.000; 3488.000
938.133;  319.075; 3540.000; 3528.000
938.370;  348.050; 3896.000; 4191.000
938.607;  389.600; 4488.000; 4205.000
938.845;  535.625; 5587.000; 5549.000
939.082;  478.800; 5387.000; 5177.000
939.320;  535.850; 5799.000; 5728.000
939.557;  639.625; 6549.000; 6491.000
939.794;  716.325; 7285.000; 7097.000
940.031;  881.800; 8421.000; 8368.000
940.269; 1106.900; 9552.000; 9107.000
940.506; 1109.400;10901.000;10507.000

