
Integration time [ms]: 100.000
Averaging Nr. [scans]: 40
Smoothing Nr. [pixels]: 0
Data measured with spectrometer [name]: 2101013U2
Wave   ;Sample   ;Dark     ;Reference
[nm]   ;[counts] ;[counts] ;[counts] 

394.013;  -35.549; -450.257; -315.536
394.305;  -72.749; -461.258; -419.536
394.596;  -83.588; -676.269; -527.514
394.887; -108.235; -796.268; -654.518
395.178;    7.969;  145.736;   11.476
395.470;  -38.580; -210.263; -356.526
395.761;   65.591;  305.734;  394.479
396.052;  -44.804; -545.284; -306.489
396.343;  -62.945; -557.276; -454.503
396.634;  -36.649; -200.279; -290.497
396.926;  -62.836; -618.268; -565.517
397.217;    0.481;   11.725;  -17.504
397.508;  -32.417; -366.273; -154.507
397.799;  -77.549; -555.279; -571.497
398.090; -129.450; -973.280; -902.495
398.381;  -22.589;   11.708;  -11.473
398.672;  -88.814; -585.292; -742.473
398.963;  -61.823; -348.279; -373.498
399.254;    9.637;   54.709; -209.475
399.545; -124.709;-1017.266; -883.520
399.836;  -39.921; -407.277; -343.501
400.127;  -25.542; -205.295; -209.468
400.418;  -33.418; -423.274; -392.506
400.709;  -41.602; -359.281; -333.493
401.000;  -25.762; -268.291; -309.476
401.290;   34.824;  225.698;  115.545
401.581;   -5.757; -166.286; -228.485
401.872;  -66.196; -542.298; -486.462
402.163;  -25.418; -313.296; -252.467
402.454;   -1.488; -123.291; -163.475
402.744;  -96.095; -844.297; -813.465
403.035;  -25.115; -226.293;  -86.471
403.326;  -51.889; -366.292; -384.474
403.617;   19.928;  204.701;  165.539
403.907;  -75.504; -593.283; -679.490
404.198;  -67.857; -545.307; -599.446
404.489;  -79.353; -618.283; -588.491
404.779;  -79.300; -618.302; -660.456
405.070;   -2.803;  -67.304; -174.451
405.360;  -26.015; -259.293; -238.472
405.651;   36.076;  125.699;   98.542
405.942;   24.743;  209.714;  127.516
406.232;  -65.480; -432.285; -413.487
406.523;   95.234;  641.706;  758.530
406.813;  -93.582; -579.286; -644.484
407.104;   39.536;  261.708;  144.527
407.394;  -94.022; -604.299; -591.462
407.685;   30.945;  336.715;  222.513
407.975;  -52.078; -400.283; -382.490
408.265;    5.589; -134.289; -190.478
408.556;  -62.738; -472.291; -459.475
408.846;   73.134;  474.706;  429.530
409.137;  -12.535;   -1.288; -216.480
409.427;  -46.280; -193.285; -271.487
409.717;  -83.517; -776.273; -692.508
410.007;   -0.306;    4.715; -170.486
410.298;  -49.092; -360.295; -342.469
410.588;  -64.181; -495.285; -510.486
410.878; -103.733; -792.287; -873.482
411.168;  -71.371; -481.298; -478.463
411.459;  -30.129; -295.283; -242.489
411.749;  -84.988; -609.292; -507.474
412.039; -106.610; -755.289; -386.480
412.329;   30.803;   40.722;  132.501
412.619;  -26.857;  -62.286; -148.485
412.909;  109.915;  639.711;  594.521
413.199;  -21.150; -130.280; -251.495
413.490;   68.338;  521.710;  352.523
413.780; -130.224;-1013.279; -913.496
414.070;   15.855;  -46.276;  235.497
414.360;  -73.798; -729.278; -666.498
414.650;  -93.384; -726.288; -688.482
414.940;  -61.899; -538.280; -441.496
415.230;   12.991;   50.712;   74.519
415.520;   18.212;  155.730;   66.486
415.809;  -18.927; -305.281; -125.493
416.099;  -42.746; -388.277; -229.501
416.389;   55.657;  435.726;  236.494
416.679;   19.046;   91.738;   85.473
416.969;  -64.683; -527.287; -503.483
417.259;   40.451;  341.721;  171.503
417.549;   46.148;  522.718;  318.508
417.838;  -22.311; -205.268; -147.518
418.128;   85.614;  650.710;  492.522
418.418;  -89.266; -491.272; -579.509
418.708;    7.557;    9.726;  -48.506
418.997;  -73.694; -474.275; -480.505
419.287; -105.642; -733.273; -790.507
419.577;  -29.929; -160.283; -123.489
419.866;  -69.271; -588.277; -498.501
420.156;  -14.263; -242.270;  -55.513
420.446;  -11.205; -112.263;  -26.526
420.735;  -72.064; -376.271; -446.512
421.025;  261.727; 1830.722;  315.502
421.314;  -20.614; -203.271; -226.512
421.604;    4.288;   89.732;  233.484
421.893;  -90.890; -705.271; -602.511
422.183;  -68.530; -487.263; -461.526
422.472;  -13.965;  -36.271; -107.511
422.762;  -53.058; -416.266; -379.521
423.051; -126.420; -916.276; -916.503
423.341;  -72.942; -491.273; -439.507
423.630;  -12.457; -121.265;   15.477
423.919;    5.256;   58.725;   49.495
424.209;  -13.855;  -31.263;   56.473
424.498;   11.214;   68.732;  161.483
424.787;  -75.535; -535.267; -601.518
425.077;   -7.333;   34.735;   29.478
425.366; -111.529; -734.262; -744.528
425.655;   83.858;  639.727;  259.493
425.945;  -58.262; -313.247; -268.554
426.234;    3.024;  117.741;  300.467
426.523;  -40.625;  -86.259; -350.534
426.812;   13.991;  107.734;  159.480
427.101;  -10.462; -127.269; -323.515
427.390;   -9.763;  -55.270;  -86.514
427.680;  -53.098; -624.257; -411.538
427.969;  -46.596; -330.255; -301.540
428.258;  -77.074; -385.257; -477.536
428.547;   43.709;  449.728;  397.490
428.836;  -73.444; -421.253; -398.543
429.125;  -35.575; -199.259;  -72.534
429.414;  -53.366; -330.251; -294.548
429.703;  -43.066; -231.251; -213.548
429.992; -132.991; -938.250; -828.549
430.281;  -58.231; -397.264; -331.524
430.570;   -2.217;  -21.252;   32.454
430.859;   11.275;  279.741;  352.466
431.148;   89.263;  636.752;  631.446
431.437;   47.733;  391.748;  367.454
431.725;  -73.599; -544.257; -481.536
432.014; -129.093; -845.253; -756.545
432.303;  -29.627; -149.239; -105.569
432.592;  -62.506; -460.263; -178.525
432.881;  -96.487; -601.248; -437.554
433.169;  -33.371; -343.255;  -61.540
433.458;   52.252;  445.765;  540.424
433.747;  -67.028; -397.261; -289.529
434.036;  -50.831; -275.242; -280.564
434.324;  -73.289; -395.249; -379.551
434.613;   -0.456;   40.757;  159.437
434.902;   33.096;  333.760;  439.433
435.190;   15.872;   75.761;  295.431
435.479;  -23.984;  -52.245;   83.441
435.767;  -67.933; -411.244; -427.561
436.056;  -53.556; -340.242; -294.563
436.345;  -61.503; -372.240; -223.568
436.633;    9.410;   60.750;  383.450
436.922;   37.372;  208.760;  414.432
437.210;  -40.849; -194.236;    1.426
437.499;  -96.648; -583.235; -432.576
437.787;  -50.624; -339.236;  -10.574
438.075;   -7.702;   56.761;  162.430
438.364;   -6.927;  -44.238;  250.429
438.652;  -57.988; -286.226; -138.592
438.941;  -15.367;    3.770;  269.415
439.229;  -93.793; -665.252; -466.545
439.517;  -31.697; -160.234;  -85.577
439.806;  -84.136; -501.225; -290.595
440.094;   23.554;  377.766;  650.421
440.382;  -78.846; -653.233; -302.580
440.670;  -69.948; -361.235; -285.576
440.959;  -72.158; -347.223; -170.599
441.247;  -38.141; -151.229; -109.587
441.535;  -35.772; -266.235;   31.423
441.823;  -73.246; -497.234; -305.578
442.111;    4.210;  173.771;  327.412
442.400;  -82.309; -628.245; -335.559
442.688;  -28.646; -111.234; -620.579
442.976; -128.197; -786.213; -450.617
443.264;  -61.685; -324.224; -364.597
443.552;  -32.812; -258.226;   51.408
443.840;   61.703;  602.765;  876.423
444.128;   38.429;  265.767;  269.420
444.416;  -89.865; -694.228; -312.588
444.704;  -73.079; -465.219;  -92.605
444.992;  -24.937;   -0.226;  240.407
445.280;  -62.292; -517.230;  -94.585
445.568; -110.546; -694.212; -396.618
445.856;  -27.406; -174.221;  357.398
446.143;  -70.130;  -54.220;   -7.604
446.431;  -13.089;  -25.228;  625.411
446.719;   59.548;  489.783;  675.391
447.007;   51.832;  481.769;  705.416
447.295;   55.116;  597.777;  871.402
447.583;  -93.366; -464.229;  -34.587
447.870;  -71.832; -434.221; -202.601
448.158;  -23.442; -104.230;  129.415
448.446; -119.105; -800.219; -338.604
448.733;  -42.134;   13.776;  269.403
449.021;   -0.946;   60.788;  341.382
449.309;  -39.069; -296.210;  208.379
449.596;   22.298;  128.783;   59.392
449.884;  -99.733; -571.222; -325.600
450.172; -126.739; -756.227; -406.590
450.459;   56.726;  645.786;  780.387
450.747;  -70.052; -411.218; -147.608
451.034;   59.436;  493.772;  889.411
451.322;  -69.973; -413.214; -170.614
451.609;   11.816;  292.777;  508.403
451.897;  -86.161; -550.203; -183.634
452.184; -111.634; -622.223; -400.598
452.472;  -21.391;   97.792;  269.375
452.759;   63.520;  512.781;  864.395
453.047;  -62.047; -407.212; -125.617
453.334;  -81.329; -732.219; -216.606
453.621;  -90.848; -438.214; -161.615
453.909;   -9.887;   13.796;  384.368
454.196;  -50.356; -299.199; -123.641
454.483;    0.166;  317.798;  540.364
454.771;  -35.641; -215.208;  196.374
455.058;  -50.991; -316.207;  102.374
455.345;   -1.199;   71.807;  344.347
455.632;  -34.365; -128.207;  235.373
455.919;  -18.403;  -82.196;  182.354
456.207; -130.455; -774.198; -450.642
456.494;  -79.833; -475.200;  -66.639
456.781;  -76.260; -399.202; -198.635
457.068;  -42.664; -253.206;  -29.628
457.355; -102.464; -698.206; -401.629
457.642;  -83.488; -552.205; -290.630
457.929; -113.050; -778.194; -417.651
458.216;  -96.622; -575.212; -354.617
458.503;  -34.674; -173.193;  -19.652
458.790; -133.666; -864.208; -630.625
459.077;  -36.634;  -77.202;  110.364
459.364;  -76.551; -350.195; -210.649
459.651;   -6.715;  -46.206;  220.372
459.938; -139.918; -864.209; -665.623
460.225;   -0.084;  132.799;  276.363
460.512; -126.428; -836.197; -688.645
460.799;   -6.303;  -32.218;  320.392
461.086;  -70.782; -370.200; -251.640
461.372;  -77.805; -509.198; -279.642
461.659;  -13.403; -165.196;  108.354
461.946;  -63.049; -445.193;  -54.651
462.233;  106.093;  842.800;  888.361
462.519; -123.833; -814.201; -464.639
462.806; -118.003; -768.197; -497.645
463.093;  -63.072; -445.191;  -66.656
463.380; -151.066; -920.186; -824.664
463.666;  -51.203; -259.197;  -18.646
463.953;  -61.101; -406.195; -243.648
464.239;  -49.426; -173.195;  -77.648
464.526;   42.725;  413.806;  743.350
464.813;  -88.770; -565.190; -304.658
465.099;   43.276;  606.807;  607.348
465.386;  101.951;  903.807;  921.348
465.672; -115.803; -694.197; -522.645
465.959;  -90.168; -598.188; -520.662
466.245;  -72.249; -468.193; -359.652
466.532;  -20.802; -109.195;   63.352
466.818;  -45.891; -357.186; -216.664
467.104;  -90.286; -488.182; -415.672
467.391;  -89.270; -628.189; -459.658
467.677;  -39.541; -289.186;    9.335
467.964; -112.944; -682.189; -471.660
468.250;  -50.340; -331.186; -160.665
468.536;  -12.220;   90.811;  180.341
468.822; -118.589; -821.184; -574.668
469.109;   63.450;  351.827;  471.311
469.395;   71.203;  729.808;  787.346
469.681;  -11.819;   46.811;  156.341
469.967;  -94.969; -699.188; -382.660
470.254;  -64.643; -494.188; -306.662
470.540;  -86.228; -601.196; -476.646
470.826;  -86.484; -488.181; -397.675
471.112;   10.112;  288.816;  113.331
471.398;  -34.113; -253.183;  -58.670
471.684;  -92.631; -626.177; -447.680
471.970; -148.684; -918.180; -981.675
472.256;  -78.773; -521.192; -441.654
472.542;  -73.099; -499.171; -434.691
472.828; -102.561; -743.182; -607.672
473.114;  -69.868; -380.166; -283.700
473.400;  -80.604; -504.175; -293.684
473.686;  -74.917; -452.166; -400.701
473.972;  -25.402; -230.174; -131.687
474.258; -132.100; -925.173; -843.689
474.544;  -22.232; -183.178;   -2.679
474.830;  -18.578;  -65.175;   45.316
475.116;  -43.720; -123.190; -196.658
475.401;  -76.434; -558.180; -467.676
475.687; -111.884; -725.180; -718.676
475.973; -107.385; -673.181; -770.673
476.259;   79.347;  736.825;  764.315
476.544;  -90.055; -539.176; -437.682
476.830;  -88.399; -398.172; -322.690
477.116;  -54.680; -430.177; -336.682
477.401;   41.591;  346.820;  358.324
477.687;  -62.654; -289.175; -405.684
477.973;  -16.910;   21.819;   28.326
478.258;  -70.140; -448.163; -348.706
478.544;  -10.615;   21.815;   61.334
478.829; -125.873; -818.171; -738.692
479.115;  -94.674; -749.172; -651.690
479.401;  -72.177; -444.174; -449.686
479.686;  -48.359; -253.180;  -74.676
479.972; -126.781; -886.178; -776.680
480.257;  -50.618; -258.166;  -65.700
480.542;  -78.348; -614.170; -469.693
480.828;  158.946; 1288.824; 1392.317
481.113;  -89.429; -464.176; -426.683
481.399;  -56.986; -236.161; -202.711
481.684;  -96.843; -620.166; -462.700
481.969;  -27.035; -158.159;  -73.713
482.255;  -78.021; -439.169; -285.695
482.540;  -74.381; -569.178; -441.680
482.825;  -82.692; -395.187; -404.663
483.110;  -41.021;  -85.169; -105.696
483.396; -126.207; -840.157; -652.718
483.681;   66.398;  543.826;  730.313
483.966; -119.835; -696.160; -700.712
484.251;  -81.577; -404.174; -310.687
484.536;  -76.992; -356.165; -378.703
484.822;  -51.101; -205.173; -218.687
485.107;  -93.652; -599.152; -502.726
485.392;   51.584;  662.836;  541.296
485.677;    6.931;  354.832;  163.302
485.962;   13.593;  160.843;  270.283
486.247;  -14.488;  -14.162;   -8.707
486.532;  -66.193; -178.166; -325.701
486.817;   35.013;  381.839;  431.291
487.102;  -95.804; -453.154; -514.722
487.387;  -98.132; -637.156; -652.718
487.672;  -34.940; -154.164;  -38.705
487.957;  -50.886; -394.160; -286.711
488.241;  -56.299; -290.150; -314.729
488.526;  -58.002; -280.152; -148.726
488.811; -141.831; -881.177; -818.680
489.096; -124.704; -666.154; -702.723
489.381;  -19.877;    3.847;  162.275
489.666;  -71.836; -428.161; -510.710
489.950;   68.697;  558.846;  627.277
490.235;  -88.600; -480.151; -458.728
490.520;  -99.037; -756.161; -723.710
490.804; -142.231; -827.156; -736.719
491.089;  -75.472; -469.149; -299.732
491.374;  -19.490; -132.164;  -75.704
491.658; -122.296; -817.147; -717.735
491.943; -103.201; -657.152; -609.727
492.227;  -41.480; -178.155;  -38.721
492.512;  -57.607; -294.157; -341.717
492.797; -125.548; -713.149; -716.731
493.081; -109.696; -588.147; -598.735
493.366; -113.111; -751.161; -635.711
493.650;   98.786;  831.859;  917.254
493.935;  -97.121; -648.147; -447.734
494.219; -103.090; -778.142; -687.743
494.503; -111.349; -585.150; -487.730
494.788;  -16.258;   46.842;   74.285
495.072;   13.901;  184.850;  434.271
495.356;  -77.722; -463.148; -343.733
495.641; -135.745; -812.146; -736.736
495.925; -143.856; -976.156; -903.719
496.209;  -82.372; -599.149; -451.732
496.494; -105.990; -763.142; -544.744
496.778;  -44.129; -364.154; -360.722
497.062; -117.506; -819.156; -627.719
497.346; -120.161; -869.160; -640.711
497.631;   53.778;  580.852;  560.266
497.915;  -11.743;  -64.145;  175.261
498.199;  -58.857; -341.157; -277.718
498.483; -105.527; -562.152; -508.725
498.767;    8.876;  301.850;  300.271
499.051;  -32.023; -126.149; -100.732
499.335; -112.548; -693.149; -739.731
499.619;  -85.500; -381.129; -423.767
499.903;  -38.305; -272.155;  -65.721
500.187;  -88.403; -588.153; -316.724
500.471; -134.976; -796.152; -595.727
500.755;  -29.662;   62.839;  -96.710
501.039;  -68.305; -270.155; -357.721
501.323;   -3.063;  -21.141;  264.254
501.607;  -85.164; -447.163; -503.706
501.891;  -98.432; -607.156; -512.718
502.174; -126.067; -726.144; -585.741
502.458;    2.374;   89.849;  370.273
502.742;  -41.510; -180.138; -191.751
503.026;  -65.896; -412.147; -254.734
503.310;  -74.010; -437.159; -375.713
503.593;  -67.321; -464.147; -325.735
503.877;  -50.505; -232.133; -156.760
504.161;  -45.328;    2.847;  -50.724
504.444; -108.483; -841.158; -710.716
504.728;  -97.290; -487.164; -522.704
505.012;  -35.200; -257.150;  -76.729
505.295;  -66.111; -417.161; -212.711
505.579;  -67.506; -256.156; -496.719
505.862;  -94.869; -555.145; -333.738
506.146; -125.759; -681.159; -758.714
506.429;   48.366;  568.841;  461.286
506.713; -101.225; -732.151; -667.728
506.996;    1.971;   90.846;  295.278
507.280; -104.191; -633.165; -474.703
507.563;  -81.030; -469.155; -261.721
507.847;  -84.278; -423.153; -112.724
508.130;  -94.811; -665.161; -456.711
508.413; -104.043; -758.167; -577.700
508.697;  -27.618; -151.167;   12.300
508.980;  -82.078; -422.153; -312.724
509.263;  -75.805; -466.155; -450.720
509.547;  -29.800; -124.150;   82.271
509.830;  -26.486; -172.160;  140.289
510.113;    5.294;  128.844;  298.281
510.396;  -88.102; -530.152; -300.725
510.680; -139.919; -818.145; -812.738
510.963;    6.722;  184.846;  180.277
511.246;  -88.449; -493.150; -357.730
511.529;  -75.243; -482.145;  -83.739
511.812;  -41.430; -250.134;   10.241
512.095; -115.550; -740.151; -396.728
512.378;  -58.420; -317.147; -245.736
512.661; -123.084; -703.137; -623.753
512.944; -119.015; -750.142; -637.744
513.227;  -51.884; -170.137; -171.752
513.510;  -95.467; -479.144; -671.741
513.793; -106.663; -485.140; -435.747
514.076;  -26.097;  -43.127;  -39.771
514.359;  -52.847; -294.149; -135.732
514.642; -102.965; -442.142; -567.744
514.925;   48.462;  581.860;  561.253
515.208;  -89.631; -498.134; -443.758
515.491;  -62.829; -276.133; -182.761
515.773;  -94.416; -410.143; -337.742
516.056;   38.292;  249.864;  409.246
516.339; -130.258; -754.136; -652.755
516.622; -104.924; -518.150; -488.730
516.904;   99.135;  882.857;  975.257
517.187; -125.385; -730.138; -523.752
517.470;  -91.966; -568.143; -510.743
517.752; -105.932; -624.136; -470.756
518.035; -115.436; -708.139; -725.749
518.318; -148.908; -799.136; -744.755
518.600;  -79.628; -300.132; -325.762
518.883;    4.735;  310.858;   88.256
519.165; -105.586; -585.138; -426.751
519.448;  -39.928;  -61.132;  -19.762
519.730; -106.121; -573.126; -415.773
520.013;   63.796;  588.867;  664.240
520.295;  -42.430;  -94.134;  -15.759
520.578;  -72.027; -335.131; -305.764
520.860;  -36.303; -254.132;   56.238
521.143; -124.682; -763.135; -584.756
521.425;  -75.395; -251.125; -279.775
521.707;  -97.622; -622.127; -380.771
521.990;  -13.872; -199.127;  167.229
522.272;  -52.437; -116.140;   -4.748
522.554;  -54.241; -237.143; -157.742
522.836;  -54.255;  -24.134;   99.241
523.119;  -80.171; -496.148; -189.734
523.401;  -78.376; -448.130; -314.766
523.683; -135.759; -865.137; -693.753
523.965;    5.415;  408.862;  260.248
524.247;  -16.942;   54.878;  170.220
524.529;  -97.005; -451.134; -367.759
524.812;  -23.451;   -3.130;  191.234
525.094; -137.035; -773.138; -631.751
525.376;  -46.618; -143.124;   78.223
525.658;  -85.808; -441.136; -339.754
525.940; -141.977; -805.131; -671.764
526.222;  -62.783; -188.136;  -88.755
526.504;  -44.552; -190.131;   32.237
526.786; -140.005; -960.133; -647.760
527.068;  -64.643; -124.123;  -67.778
527.349; -142.059; -865.137; -774.754
527.631;  -13.929; -137.132;   22.238
527.913; -122.572; -664.127; -450.771
528.195; -137.446; -761.125; -639.774
528.477;  -47.231;  -93.134;  -30.758
528.759; -114.351; -648.130; -522.766
529.040; -108.068; -569.123; -293.778
529.322;  -63.520; -235.125;  -10.774
529.604;  -42.600;  -47.130;   93.233
529.886;  -88.746; -546.126; -302.773
530.167;  -15.126;  232.870;  192.235
530.449;  -22.845;    1.853;   63.265
530.731;  -95.742; -572.122; -459.779
531.012; -103.014; -513.120; -216.784
531.294;  -50.709; -118.116;  -43.792
531.575;   19.580;  290.875;  538.225
531.857;  -94.256; -548.135; -266.757
532.138;  -52.813; -113.141;   40.254
532.420;   -1.107;  294.865;  403.244
532.701; -136.754; -722.133; -751.760
532.983;   15.571;  232.867;  182.239
533.264;  -37.822; -243.126;  175.228
533.546;  -95.358; -491.136; -508.755
533.827;  -31.530;  173.867;   -1.759
534.109;  -81.031; -352.135;  -80.757
534.390; -122.353; -725.132; -582.762
534.671;  -63.507; -270.135;  -82.756
534.953; -136.718; -751.123; -611.779
535.234; -101.111; -426.117; -255.789
535.515; -143.238; -891.119; -735.785
535.796;  -78.748; -431.128; -193.770
536.078; -173.769;-1050.124; -904.777
536.359;  -55.342;  -22.123;    3.221
536.640;  -88.020; -480.125; -197.774
536.921;   -4.750;  225.871;  143.232
537.202;  -61.560;  -87.138;  -16.751
537.483;   15.648;  251.869;  377.236
537.764;  -20.876;   17.870;   98.235
538.045; -103.281; -543.134; -371.758
538.326; -119.174; -596.129; -447.768
538.607; -142.372; -686.127; -476.771
538.888;  -37.990;   98.879;    5.218
539.169; -120.516; -704.122; -535.781
539.450;   -6.125;  236.871;   16.233
539.731;  -82.090; -361.121; -182.783
540.012;  -29.339;  199.880;  412.216
540.293;  -41.244;   82.876;  158.224
540.574; -151.331; -895.113; -717.796
540.855;    4.485;  435.879;  377.218
541.136;   -6.592;   47.878;  139.220
541.416;  -80.876; -161.130; -220.766
541.697;  -88.752; -274.131; -170.763
541.978;  -80.332; -270.135; -315.757
542.259;  -64.297; -211.127; -236.771
542.539;  -74.935; -191.116; -186.790
542.820;   20.730;  461.875;  480.225
543.101;  -59.693;  -52.145;  -77.738
543.381; -143.547; -638.127; -591.771
543.662;  -33.673;  159.873; -254.771
543.942; -169.473; -751.127; -830.770
544.223;  -22.916;  193.878;  161.219
544.504;  -76.219; -275.124; -182.777
544.784; -120.546; -592.126; -408.773
545.065;  -86.409;  104.884; -254.791
545.345;  -25.338;  227.881;   14.215
545.626;  -41.781;  -14.113; -108.796
545.906;  -34.401;   77.869;   98.235
546.186;  -56.221;   92.874;  -95.773
546.467;  -50.918;   99.877;  -95.778
546.747;   -3.335;  264.884;  327.210
547.027;  -29.069;   91.876;  111.223
547.308; -107.748; -376.127; -530.770
547.588;    4.476;  299.871;  371.232
547.868;   22.574;  458.870;  588.235
548.149;   53.492;  609.885;  593.207
548.429;  -88.172; -347.127; -299.771
548.709; -124.639; -645.120; -461.784
548.989;  -27.437;   84.882;   88.213
549.269;  -45.179;   10.868;  139.239
549.550;  -26.943;  215.877;  117.222
549.830; -122.879; -758.111; -556.799
550.110; -107.428; -468.110; -320.801
550.390;  -61.117; -128.122;  -56.779
550.670; -148.332; -868.114; -783.795
550.950; -113.715; -509.121; -471.782
551.230;   53.809;  549.879;  460.218
551.510; -104.115; -381.121; -326.782
551.790;  -60.227; -173.109; -127.803
552.070;  108.882;  940.877; 1181.223
552.350;  -96.213; -492.119; -377.786
552.630;  -19.566;   -2.121;   77.219
552.909;  -10.384;  181.884;   73.209
553.189;  -53.603;  -49.132;   33.237
553.469; -120.663; -703.119; -514.786
553.749; -112.722; -469.127; -357.772
554.029;  -36.686;   33.883;  -24.790
554.308;  -71.358; -154.115;  -37.794
554.588;  -76.998; -196.128; -204.770
554.868;  -78.665; -366.121;  -47.782
555.147;  -62.108; -114.115;  -46.793
555.427;  -89.084; -260.116; -250.792
555.707;  -69.634; -284.115; -200.793
555.986; -128.329; -719.111; -538.800
556.266;  -27.810;   23.884;   72.210
556.546; -146.515; -888.121; -675.782
556.825; -138.782; -657.114; -556.794
557.105;  -63.873; -125.128;   17.230
557.384;   -8.760;  122.884;  187.209
557.664; -131.659; -717.116; -508.792
557.943; -102.565; -557.121; -411.782
558.222;  -87.911; -345.118; -344.788
558.502;  -54.383; -116.115;  -76.793
558.781;   -6.959;  194.885;  499.208
559.061;  -74.712; -232.118; -227.788
559.340;  -13.661;  302.883;  353.211
559.619;  -22.085;   93.884;  148.210
559.899;  -88.061; -239.117; -266.789
560.178; -122.733; -778.115; -593.793
560.457; -133.735; -623.117; -562.790
560.736; -109.903; -472.111; -482.800
561.015; -122.674; -500.128; -502.769
561.295;  -31.874;  180.893;  215.193
561.574;  -34.733;  119.885;  116.207
561.853;  -16.152;  274.891;  303.197
562.132;  -37.258;  -45.114;  182.206
562.411;   24.934;  396.879;  553.219
562.690; -124.659; -592.115; -458.792
562.969;   43.169;  472.888;  630.203
563.248;  360.459; 2966.878; 2487.219
563.527;  -89.379; -290.111; -408.800
563.806; -123.822; -650.127; -521.771
564.085;  -70.272; -297.105; -206.810
564.364; -121.535; -594.117; -405.790
564.643;  -83.466; -276.121; -223.781
564.922;   -6.827;  221.890;  397.198
565.201; -138.277; -640.109; -700.803
565.479;  -73.659; -297.115; -219.792
565.758; -148.873; -810.128; -712.770
566.037;  -69.977; -155.109; -100.803
566.316;  -76.809; -286.116;  -28.791
566.595;  -44.934;  -17.115;  -12.793
566.873;   24.872; -166.111;  -79.801
567.152; -120.356; -490.113; -590.797
567.431;  -54.385; -113.116;    6.210
567.709;  -72.099; -344.107; -212.807
567.988; -161.632; -810.114; -769.794
568.266;  -69.759; -160.115;  -68.793
568.545; -112.691; -644.100; -514.819
568.824;   -2.934;  160.885;  356.208
569.102;  -91.957; -351.114; -235.794
569.381; -116.809; -492.116; -407.792
569.659; -141.506; -553.113; -553.796
569.938; -128.716; -743.122; -465.780
570.216;  -59.676; -225.109; -225.804
570.494; -127.682; -632.114; -572.795
570.773;  -10.490;  202.879;  114.218
571.051;  -86.543; -373.123; -357.778
571.330;  -59.931; -221.113; -174.796
571.608;  -69.714; -181.098; -173.823
571.886; -143.904; -671.111; -581.799
572.164; -151.640; -739.121; -621.782
572.443; -111.522; -562.105; -512.811
572.721;  -93.810; -399.117; -289.790
572.999;  -81.836; -280.117; -168.788
573.277;   11.027;  379.894;  620.191
573.555;  -49.923;   94.894;   37.190
573.834;  -72.411;  -86.117; -114.788
574.112;   74.601;  880.893;  811.193
574.390;  -46.203; -143.111;  -96.801
574.668;  -65.230;  -91.112;  -61.797
574.946;  -76.373; -165.106; -187.810
575.224;  -48.077;   71.891;  -16.803
575.502;  -79.985; -200.116; -204.791
575.780; -136.655; -767.112; -829.798
576.058;  153.921; 1589.889; 1004.200
576.336;  -63.853; -210.110; -129.801
576.614; -116.255; -511.112; -340.798
576.891; -135.108; -711.115; -823.794
577.169;  -83.925; -158.108; -285.805
577.447;   -7.474;  169.893;  202.193
577.725;   53.920;  629.888;  854.201
578.003;  -75.955;  -71.112; -371.798
578.280;  -48.821; -208.104; -242.812
578.558; -110.733; -450.115; -422.793
578.836;  -63.982; -210.114; -145.795
579.114; -141.130; -630.112; -670.797
579.391;  -42.686;   -6.117;  -18.789
579.669; -139.508; -595.114; -704.794
579.947;  -77.400; -326.107; -127.806
580.224; -138.400; -692.107; -524.806
580.502;  -41.799;  127.893;   76.193
580.779;  -41.110;  -42.117;   75.210
581.057; -119.451; -584.109; -470.804
581.334; -134.494; -726.102; -695.815
581.612;  -13.522;   54.895;  511.190
581.889;  -77.592;  -83.101; -129.818
582.167;  -71.665; -298.099; -190.821
582.444; -152.043; -845.102; -814.817
582.721;   55.182;  657.899;  715.183
582.999;  -69.891; -326.100; -167.821
583.276; -147.317; -812.123; -713.779
583.553;  -91.043; -364.102; -294.816
583.831; -133.396; -607.104; -631.812
584.108;  -15.851;  349.892;  174.195
584.385;  -75.969; -122.102;  -98.815
584.662; -147.078; -651.111; -828.801
584.940;  -21.603;  204.889;  204.199
585.217;  -78.281;  -73.113; -303.796
585.494;  -28.877;   71.890;  118.198
585.771;  -97.251; -250.109; -354.804
586.048;  -69.356; -196.113;  -76.796
586.325; -143.803; -721.110; -773.801
586.602;   -8.021;  230.896;  213.188
586.879; -118.416; -499.100; -580.820
587.156;  -74.672; -156.105; -331.810
587.433; -136.668; -701.102; -667.817
587.710;  -28.505;  152.888;  234.202
587.987;  -85.472; -264.105; -236.811
588.264;    6.245;  315.888;  387.202
588.541;  -61.195;  -61.104;   26.187
588.818;  -41.851;   72.892;  171.196
589.095;  -64.546; -163.104; -174.812
589.371; -103.026; -459.109; -414.804
589.648; -107.899; -581.107; -437.807
589.925; -120.782; -517.114; -621.795
590.202; -143.530; -741.112; -607.798
590.478;  -65.496; -166.105;  -73.811
590.755;  -75.800; -241.108; -132.806
591.032; -127.178; -741.110; -699.802
591.308; -147.359; -732.094; -790.831
591.585; -122.278; -573.110; -560.802
591.862; -167.568;-1056.102; -950.817
592.138; -100.200; -475.108; -474.805
592.415; -108.396; -486.104; -495.813
592.691;   30.354;  460.896;  518.188
592.968;  -83.939; -208.098; -123.824
593.244; -132.210; -695.116; -595.790
593.521;  -56.518; -105.102;  -42.817
593.797; -151.317; -810.122; -720.780
594.074; -134.612; -611.096; -588.826
594.350;   64.415;  828.905;  729.172
594.626;  -87.028; -303.111; -283.801
594.903; -134.693; -643.101; -645.817
595.179;    2.330;  243.896;  418.187
595.455;  -67.749; -136.107; -150.807
595.731;  -55.470;  -19.103;  -38.814
596.008; -102.054; -464.111; -434.800
596.284;  -74.466; -187.100; -242.820
596.560; -111.608; -501.093; -493.833
596.836;  -81.897; -173.105;  -70.810
597.112; -106.825; -582.108; -437.805
597.388;  -61.237;  -49.097;  -48.826
597.665;   18.244;  437.887;  530.203
597.941; -125.454; -572.089; -658.839
598.217;  -85.152; -323.110; -293.802
598.493;  -67.451;   61.891; -204.804
598.769;  -66.391; -175.100;  -50.819
599.045; -124.675; -490.108; -562.806
599.321;  -81.516; -193.100; -261.820
599.597; -100.001; -355.109; -476.804
599.872;   16.380;  409.896;  429.187
600.148;  -52.937;  -61.097; -172.826
600.424;  -18.349;   91.893;  202.193
600.700;  -69.149; -170.107; -280.807
600.976; -105.188; -442.097; -464.825
601.252;  -83.002; -226.109; -272.803
601.527; -161.345; -833.104; -840.813
601.803;  -90.146; -453.105; -404.812
602.079;  -55.141; -124.100; -118.819
602.354; -119.981; -620.092; -531.835
602.630;  -80.181; -140.113; -482.796
602.906; -155.067; -910.101; -863.818
603.181; -118.138; -627.119; -534.786
603.457;  -61.037;   98.903; -278.826
603.733; -121.890; -605.120; -626.783
604.008;  -62.222; -245.106; -164.810
604.284;  -42.218; -636.101; -580.817
604.559;  -56.130;   -3.112;  -42.799
604.835;  -82.397; -163.105; -225.810
605.110; -147.490; -732.099; -892.821
605.385;   -2.382;  224.907;  267.167
605.661; -133.760; -625.095; -729.829
605.936; -139.575; -664.108; -737.806
606.211;  -44.594;  -17.103; -170.815
606.487;  -87.133; -329.114; -376.794
606.762; -152.863; -791.119; -745.786
607.037; -100.922; -501.105; -433.810
607.313; -122.161; -589.096; -574.828
607.588;  -73.522; -375.106; -137.810
607.863;  -50.117;  -28.101; -143.818
608.138;   20.573;  513.890;  516.198
608.413; -137.465; -576.099; -592.822
608.688;  -82.300; -203.108; -267.805
608.964;  -94.348; -509.106; -218.809
609.239;  -65.147; -107.105; -212.810
609.514;   -2.446;  281.895;  240.188
609.789; -152.771; -187.104; -716.812
610.064; -110.411; -435.096; -609.827
610.339; -155.951; -855.109; -799.804
610.614;  -60.716; -131.100; -315.820
610.889;  -35.146;  215.895;  107.188
611.163; -118.696; -407.104; -591.812
611.438;  -83.957;   81.886; -167.794
611.713; -126.843; -467.101; -499.817
611.988;  -82.492; -144.101; -328.818
612.263; -149.569; -771.102; -717.815
612.538;   13.919;  385.887;  251.204
612.812; -163.891; -832.100; -911.820
613.087; -100.639; -358.098; -338.823
613.362; -120.974; -497.107; -557.807
613.637;   -7.545;  261.897;  138.186
613.911;  -64.806; -256.092; -345.835
614.186;  -96.774; -249.107; -292.807
614.460; -155.944; -842.081; -758.854
614.735;  -43.176;  -55.087;  -17.843
615.010;  -59.127;   43.912;  -82.841
615.284;   15.400;  360.892;  246.195
615.559; -152.757; -792.092; -955.835
615.833;  -41.340;  -76.099;  -87.822
616.108;  -83.130; -225.090; -390.837
616.382;   25.899;  274.913;  402.156
616.656;  -70.555; -241.090; -232.837
616.931; -147.490; -785.099; -700.822
617.205; -171.570; -973.104; -979.813
617.480;  -43.270;  -91.125;    6.225
617.754;  -98.095; -396.125; -128.774
618.028;  -95.949; -369.129; -382.768
618.302;  -27.451;   73.892;  -25.805
618.577; -110.344; -371.103; -518.815
618.851; -120.527; -399.109; -600.803
619.125;  -86.580; -335.134; -378.759
619.399;  -65.170; -244.104; -374.813
619.673; -102.984; -330.115; -515.792
619.947;  -89.607; -333.114; -448.795
620.222;  -75.378; -198.110; -204.801
620.496;  -63.315;  -47.121;  -96.782
620.770;  -54.666; -187.122;  -93.781
621.044;    9.153;  323.895;  346.190
621.318; -123.665; -653.120; -614.783
621.592;  -84.015; -430.121; -409.783
621.866; -110.480; -476.112; -572.799
622.140;  -81.235; -207.116; -356.791
622.413;  -29.829;  138.889;  112.200
622.687; -108.893; -746.101; -492.817
622.961;  -51.426; -130.108; -143.805
623.235; -136.429; -633.111; -661.800
623.509; -141.696; -816.105; -848.811
623.783;  -36.800;  -12.107;   48.193
624.056;  -79.840; -254.120; -280.783
624.330;  -20.680;   63.888;   -3.797
624.604;  -68.610; -271.116; -355.790
624.877;  -43.078;  180.890;   26.198
625.151;  -59.783; -249.114; -238.794
625.425;  -79.795; -150.103; -283.814
625.698; -115.438; -367.119; -374.785
625.972; -137.727; -799.110; -765.802
626.245;   32.715;  685.884;  484.210
626.519;  -92.364; -426.120; -340.784
626.792;  -80.774; -192.107; -380.807
627.066; -121.867; -485.122; -662.779
627.339; -132.828; -736.110; -663.802
627.613;    2.661;  351.880;  148.216
627.886; -135.452;  187.891; -612.803
628.160;  -64.565;  312.880; -161.783
628.433; -141.420; -695.125; -703.775
628.706; -120.714; -517.120; -615.784
628.979;  -20.394;  296.876;  117.223
629.253; -164.538; -785.119; -833.786
629.526;  -79.047; -334.126; -253.772
629.799; -125.468; -641.123; -479.778
630.072; -106.049; -497.128; -516.769
630.346; -189.060;-1115.116;-1080.790
630.619; -123.624; -467.107; -545.808
630.892;   36.221;  709.889;  593.200
631.165;   53.280;  790.896;  679.187
631.438; -187.480;-1092.112;-1055.798
631.711;    5.708;  453.877;  257.221
631.984; -111.936; -523.117; -624.789
632.257; -112.811; -636.117; -681.789
632.530;  -85.713; -412.119; -433.785
632.803;    0.667; -109.115;    7.207
633.076;  -98.568; -360.123; -422.777
633.349;  -15.173;  173.872;  121.231
633.622;  -72.788; -187.119; -240.785
633.895; -171.190; -903.120; -823.783
634.167; -102.821; -496.126; -525.773
634.440;  -47.509;  -19.116; -137.792
634.713;  -32.838;  -22.119; -120.786
634.986;   36.825;  593.871;  453.233
635.258; -123.308; -507.115; -597.793
635.531;   57.888;  742.882; -343.788
635.804;  -93.811; -303.117; -318.789
636.077; -160.685; -830.116; -852.791
636.349; -111.908; -586.115; -474.793
636.622;  221.078; 1695.874; 1392.228
636.894; -103.189; -474.120; -909.784
637.167; -149.823; -836.127; -789.771
637.439;  -53.048; -278.128; -213.770
637.712;  -87.347; -312.126; -293.772
637.984; -131.135; -635.116; -707.791
638.257;   35.482;  515.877;  488.222
638.529; -156.919; -881.125; -924.776
638.802; -104.999; -508.128; -449.769
639.074; -175.941; -927.122; -952.781
639.346; -173.356; -942.135; -930.757
639.619;  -65.215;  -79.142; -319.744
639.891;  -56.967;  -83.122; -168.779
640.163; -140.992; -689.122; -756.780
640.435;  -23.817;  273.878;  103.220
640.708;  -49.391;  -72.122; -132.780
640.980;  -97.341; -366.122; -362.781
641.252;  -47.291;  -25.121;  -71.781
641.524;   36.284;  580.879;  573.219
641.796; -174.690;-1094.121; -907.782
642.068;  -82.515; -191.121; -300.782
642.340; -106.090; -486.121; -566.783
642.613;    6.610;  294.880;  323.217
642.885; -146.939; -787.120; -878.783
643.157; -139.589; -810.120; -658.784
643.428;    3.586;  170.880;  218.216
643.700;  -91.639; -498.120; -425.784
643.972;  -48.364;  -16.119; -133.785
644.244; -119.913; -474.119; -559.785
644.516;  -72.813; -250.119; -114.786
644.788;   28.812;  662.881;  548.214
645.060;  -40.363;  -12.119; -124.786
645.332; -116.562; -525.118; -535.787
645.603;    3.713;  479.882;  342.213
645.875; -100.812; -334.118; -369.787
646.147;  157.413; 1487.882; 1242.212
646.418; -175.361; -931.117; -918.788
646.690; -125.311; -714.117; -715.789
646.962; -107.086; -413.117; -451.789
647.233;  -23.461;   15.883;   11.211
647.505; -129.910; -595.117; -475.790
647.776;    4.565;  328.884;  229.210
648.048;  -75.410; -248.116; -418.790
648.320; -144.910; -752.116; -679.791
648.591; -179.284;-1055.116; -958.791
648.862; -111.059; -505.116; -577.792
649.134;  -18.834;  115.885;  198.208
649.405; -129.559; -661.115; -618.792
649.677; -120.333; -475.115; -598.793
649.948;  -65.508; -181.115; -296.793
650.219;  -43.783;  -37.115; -147.793
650.491;  -90.808; -431.114; -520.794
650.762; -136.307; -705.114; -731.794
651.033; -110.982; -437.114; -424.795
651.304; -161.732; -743.114; -728.795
651.576; -128.432; -680.114; -645.795
651.847;  -54.132; -250.113; -140.796
652.118;  -44.006;  -32.113; -189.796
652.389; -126.056; -639.113; -722.796
652.660;  -55.581; -147.113;  -89.797
652.931; -173.581; -897.112; -871.797
653.202; -113.880; -382.112; -541.798
653.473; -128.880; -633.112; -533.798
653.744; -107.080; -595.112; -590.798
654.015;  -91.430; -356.112; -303.799
654.286; -122.079; -642.111; -663.799
654.557; -109.829; -586.111; -521.799
654.828; -187.629;-1114.111;-1088.800
655.099;  -95.304; -404.111; -291.800
655.370; -106.003; -427.111; -543.801
655.641; -139.853; -656.110; -714.801
655.911; -120.953; -618.110; -638.801
656.182;    6.047;  437.890;  387.198
656.453;   58.148;  830.890;  746.198
656.724;  -90.127; -466.110; -426.802
656.994; -122.077; -553.109; -568.803
657.265; -158.552; -862.109; -873.803
657.536;  -96.301; -500.109; -377.804
657.806; -118.976; -561.109; -593.804
658.077; -160.601; -866.109; -950.804
658.347; -117.701; -523.108; -598.805
658.618; -125.575; -646.108; -694.805
658.888;  -35.950;  -41.108;  112.195
659.159;  -97.300; -432.108; -548.806
659.429;  -93.325; -292.108; -349.806
659.700;  -98.175; -435.107; -390.807
659.970;  -97.574; -370.107; -359.807
660.241; -165.374; -754.107; -921.807
660.511;  -75.024; -147.107; -174.808
660.781; -141.674; -793.106; -748.808
661.052;  -92.398; -222.106; -381.808
661.322;  -39.548;   21.894;   -9.809
661.592;   -2.348;  257.894;  148.191
661.862;  -89.073; -369.106; -382.810
662.133; -115.322; -551.105; -502.810
662.403; -156.872; -770.105; -676.810
662.673;  -65.097; -256.105; -213.811
662.943; -126.947; -612.105; -551.811
663.213;  -59.921;  -85.105;  -81.811
663.483; -116.496; -593.104; -568.812
663.753;  -59.871; -194.104; -152.812
664.023;  -25.471;   68.896;  -32.813
664.293;  -78.620; -319.104; -126.813
664.563; -136.870; -694.104; -648.813
664.833; -143.320; -743.103; -608.814
665.103; -151.720; -730.103; -793.814
665.373; -150.219; -766.103; -806.814
665.643; -165.694; -863.103; -918.815
665.913; -130.994; -534.103; -714.815
666.182; -129.169; -685.102; -719.816
666.452;  -66.868;  -22.102;  -89.816
666.722; -147.518; -724.102; -784.816
666.992; -170.043; -948.102; -921.817
667.261; -158.843; -824.102; -808.817
667.531;  -36.943;  134.899;   45.183
667.801; -100.692; -440.101; -412.818
668.070;   67.608;  714.899;  697.182
668.340; -160.992; -883.101; -840.819
668.609;   32.408;  588.900;  301.181
668.879; -124.941; -490.100; -558.819
669.149; -112.266; -539.100; -516.820
669.418; -146.866; -698.100; -726.820
669.688; -118.191; -482.100; -666.820
669.957; -116.815; -423.099; -546.821
670.226;  -93.790; -268.099; -331.821
670.496; -116.865; -431.099; -635.822
670.765;  -99.265; -418.099; -501.822
671.034; -156.764; -872.099; -828.822
671.304;  -33.514;   55.902; -111.823
671.573; -181.189;-1085.098; -957.823
671.842;  -91.489; -380.098; -294.823
672.112; -124.663; -692.098; -586.824
672.381;  -64.838; -239.098; -214.824
672.650; -166.838;-1005.097;-1021.825
672.919; -137.888; -631.097; -507.825
673.188; -129.537; -681.097; -878.825
673.457; -193.537;-1101.097;-1143.826
673.726; -119.662; -579.096; -646.826
673.995; -104.012; -533.096; -479.826
674.265;  -90.411; -263.096; -333.827
674.534;  -81.261; -183.096; -235.827
674.802; -122.161; -618.096; -703.828
675.071; -158.986; -886.095; -801.828
675.340; -101.886; -464.095; -339.828
675.609;  -25.610;  103.905;   82.171
675.878; -156.760; -949.095; -893.829
676.147;  -43.085;  -26.095;   -8.829
676.416;  -77.035; -210.094; -294.830
676.685;  120.891; 1000.906; -622.830
676.953; -117.284; -603.094; -452.831
677.222;  -85.209; -193.094; -273.831
677.491;  -58.984;  -24.094; -127.831
677.759;  -53.683;   11.907;  172.168
678.028;  -80.008; -279.093; -222.832
678.297;  -48.908;   71.907;  197.168
678.565; -158.258; -898.093; -944.833
678.834;  -79.882; -311.093; -268.833
679.102;  -99.507; -411.092; -391.834
679.371; -159.107; -898.092; -727.834
679.639; -146.632; -797.092; -786.834
679.908; -133.231; -794.092; -724.835
680.176; -169.181; -895.091; -941.835
680.445;  -84.106; -346.091; -352.835
680.713;  -34.706;  -58.091;  -23.836
680.982; -107.130; -523.091; -525.836
681.250; -113.080; -578.091; -507.837
681.518; -125.505; -534.090; -751.837
681.787;  -74.030; -204.090; -167.837
682.055; -106.104; -490.090; -422.838
682.323; -173.929; -993.090; -992.838
682.591;  -69.004; -216.090; -538.838
682.859;  -72.754;    9.911;  -35.839
683.128;  -41.129;  232.911;  497.161
683.396; -186.878;-1102.089;-1122.840
683.664;  -64.903; -241.089;   21.160
683.932;  -27.903;  144.911;  -76.840
684.200; -119.178; -576.088; -320.841
684.468;  -55.027;  -73.088; -124.841
684.736;  -67.027; -214.088; -175.841
685.004; -187.752;-1024.088; -982.842
685.272; -150.452; -880.088; -774.842
685.540; -121.401; -499.087; -557.843
685.808; -133.226; -651.087; -682.843
686.076; -170.076; -894.087; -969.843
686.343; -142.876; -601.087; -815.844
686.611;  -58.875; -195.087; -224.844
686.879; -115.050; -530.086; -553.844
687.147; -118.525; -483.086; -480.845
687.414;  -62.500;  -12.086; -169.845
687.682; -142.949; -658.086; -757.846
687.950;    0.326;  259.915;  263.154
688.217; -151.524; -792.085; -760.846
688.485; -123.774; -632.085; -636.847
688.753;  -58.748;  -11.085; -102.847
689.020; -167.698; -820.085; -851.847
689.288; -154.373; -853.084; -787.848
689.555;  -52.998; -195.084; -148.848
689.823;  -80.822; -241.084; -345.849
690.090; -110.447; -546.084; -651.849
690.358; -189.322; -877.084; -897.849
690.625;  -27.722;  120.917;   45.150
690.892; -103.872; -403.083; -369.850
691.160;  -61.371;   72.917;  -35.850
691.427;  -15.921;  141.917;  130.149
691.694; -179.871; -855.083; -929.851
691.962; -187.071;-1177.082;-1060.852
692.229;  -49.620;  127.918;   56.148
692.496;  -46.395;  130.918;  -49.852
692.763;  -71.870; -164.082; -201.853
693.031; -147.095; -739.082; -716.853
693.298; -132.119; -509.081; -368.853
693.565;  -67.194; -155.081; -163.854
693.832;  -60.694;   -5.081;   -9.854
694.099; -130.769; -643.081; -642.855
694.366; -156.118; -882.081; -896.855
694.633; -162.518; -920.080; -633.855
694.900;  611.082; 4367.920; -114.856
695.167;  -76.793; -214.080; -380.856
695.434; -137.142; -646.080; -623.856
695.701;  -10.267;  121.921;  -61.857
695.968; -100.267; -365.079; -361.857
696.234; -124.667; -415.079; -646.858
696.501; -137.641; -776.079; -614.858
696.768; -141.716; -554.079; -617.858
697.035; -142.691; -632.078; -667.859
697.302; -130.841; -448.078; -552.859
697.568; -104.240; -458.078; -497.859
697.835; -143.140; -683.078; -624.860
698.102;  -94.590; -498.078; -407.860
698.368;   -0.015;  384.923;  396.139
698.635;  -97.540;  -47.077; -424.861
698.901;  -82.064; -240.077; -348.861
699.168;  -95.164; -534.077; -456.862
699.435;  -48.714;  -72.077;  -13.862
699.701; -166.939; -868.076; -764.862
699.968;  -99.338;  144.924; -441.863
700.234; -160.613; -783.076; -822.863
700.500; -101.363; -448.076; -539.864
700.767;  -44.588;   -1.075;   26.136
701.033; -192.662;-1015.075; -963.864
701.299; -113.912; -450.075; -483.865
701.566;   63.913;  950.925;  763.135
701.832;  -34.462;  -31.075;  -76.865
702.098; -184.311;-1054.074;-1034.866
702.365; -189.111;-1098.074;-1030.866
702.631; -193.986;-1038.074;-1063.867
702.897; -150.361; -765.074; -676.867
703.163;  -15.585;  348.926;  254.133
703.429;  -92.460; -256.073; -273.868
703.695; -120.135; -796.073; -792.868
703.961;  -70.785; -214.073; -210.868
704.227; -132.809; -630.073; -725.869
704.493;   29.666;  613.927;  510.131
704.759; -120.759; -565.072; -540.870
705.025;  -77.584; -203.072; -194.870
705.291; -129.508; -666.072; -562.870
705.557;   57.292;  719.928;   34.129
705.823; -148.408; -742.072; -694.871
706.089;  -85.633; -307.071; -326.871
706.355;  -65.758; -315.071; -244.872
706.620; -162.932; -776.071; -729.872
706.886;  -95.832; -309.071; -362.873
707.152; -168.332; -818.070; -973.873
707.418; -208.732;-1153.070;-1186.873
707.683; -124.181; -550.070; -530.874
707.949; -107.681; -547.070; -578.874
708.215;  -78.556; -129.070; -207.874
708.480; -103.106; -520.069; -420.875
708.746;  -40.630;   68.931;   28.125
709.011; -135.455; -578.069; -612.876
709.277; -119.855; -538.069; -543.876
709.542; -113.755; -428.069; -387.876
709.808;  -56.479;  -59.068;   89.123
710.073; -133.129; -577.068; -695.877
710.339;  -81.429; -242.068; -228.877
710.604; -155.454; -780.068; -845.878
710.869;  -90.553; -277.068; -366.878
711.135; -136.953; -715.067; -628.879
711.400; -138.678; -507.067; -608.879
711.665;  -99.803; -404.067; -479.879
711.931; -142.702; -661.067; -677.880
712.196; -170.177; -876.067; -954.880
712.461; -109.652; -402.066; -490.880
712.726; -154.727; -727.066; -771.881
712.991; -146.351; -647.066; -664.881
713.256;  -97.576; -350.066; -332.882
713.521; -103.826; -417.065; -381.882
713.787; -116.426; -454.065; -472.882
714.052;  -97.451; -214.065; -400.883
714.317; -194.350;-1045.065; -981.883
714.581;  -94.725; -374.065; -268.883
714.846; -163.775; -822.064; -888.884
715.111;  -16.975;  261.936;  257.116
715.376;  -81.899;  -86.064; -223.885
715.641;  -99.649; -365.064; -367.885
715.906; -112.949;   15.936; -551.885
716.171;  -21.699;  221.937;  209.114
716.436;  -39.748;  -78.063; -104.886
716.700; -154.098; -818.063; -692.886
716.965; -154.448; -794.063; -807.887
717.230;  -94.648; -339.063; -392.887
717.494;  -72.422;  -40.062; -134.888
717.759; -137.872; -784.062; -640.888
718.024;   -7.272;  269.938;  250.112
718.288;   25.328;  685.938;  395.111
718.553; -164.496; -803.062; -977.889
718.817; -160.096; -883.061; -899.889
719.082;  -56.146; -115.061; -125.890
719.346; -172.621;-1000.061; -947.890
719.611;  -61.295; -300.061; -255.891
719.875; -125.295; -568.060; -537.891
720.140; -113.795; -453.060; -603.891
720.404;  -79.870; -136.060; -249.892
720.668;  -94.395; -475.060; -411.892
720.933;  -29.944;  146.940;  137.108
721.197; -142.594; -667.059; -600.893
721.461; -158.344; -851.059; -826.893
721.725;  -38.644;  -21.059; -250.894
721.990;  -92.318; -284.059; -204.894
722.254;  -62.468;  -26.059; -108.894
722.518;  -84.718; -286.058; -442.895
722.782; -117.118; -743.058; -594.895
723.046;   44.983;  614.942;  570.105
723.310;    1.158;  374.942;  210.104
723.574; -114.992; -654.058; -614.896
723.838; -133.942; -576.057; -642.897
724.102;  -77.916; -226.057; -239.897
724.366; -173.291;-1032.057; -978.897
724.630; -152.391; -749.057; -571.898
724.894; -132.641; -722.057; -514.898
725.158;  -63.790;   38.944; -295.898
725.422; -104.065; -394.056; -327.899
725.685; -114.815; -441.056; -349.899
725.949; -133.390; -566.056; -519.900
726.213; -162.289; -732.056; -811.900
726.477; -185.814;-1020.055; -933.900
726.740;  -67.564; -274.055; -104.901
727.004; -113.839; -384.055; -510.901
727.268; -115.063; -442.055; -400.901
727.531; -163.313; -961.055; -775.902
727.795; -137.988; -713.054; -673.902
728.059; -120.588; -552.054; -557.903
728.322; -159.088; -841.054; -669.903
728.586; -130.062; -692.054; -701.903
728.849; -156.112; -695.053; -756.904
729.112; -161.337; -812.053; -912.904
729.376; -169.037; -959.053; -905.904
729.639; -115.886; -536.053; -536.905
729.903; -148.536; -733.053; -699.905
730.166;  -88.611; -437.052; -399.906
730.429;  -66.661; -317.052; -468.906
730.693; -132.035; -355.052; -894.906
730.956;   55.140;  810.948;  651.093
731.219;  -70.735; -310.052; -103.907
731.482; -159.435;-1003.051; -894.907
731.745; -187.809; -794.051; -935.908
732.009;  -32.784;  -30.051;   50.092
732.272; -140.659; -904.051; -771.909
732.535;  -79.634; -300.051; -310.909
732.798; -209.508;-1083.050;-1166.909
733.061; -104.258; -430.050; -456.910
733.324;  -43.658;   31.950; -180.910
733.587;   14.342;  290.950;  365.090
733.850; -137.432; -973.049;-1050.911
734.113;  -34.132;   33.951;   32.089
734.376; -103.132; -328.049; -447.912
734.639;  101.118; 1188.951; 1011.088
734.901;  -82.306; -180.049; -402.912
735.164; -166.831; -883.048; -837.913
735.427;  -62.781; -166.048; -355.913
735.690;  -85.506; -205.048; -234.913
735.952; -193.631; -923.048; -925.914
736.215; -191.230;-1113.048;-1009.914
736.478; -158.805; -771.047; -774.915
736.740;  -48.305;   33.953;  129.085
737.003; -156.030; -658.047; -672.915
737.266;   50.796;  -94.047;   46.084
737.528; -151.004; -682.047; -660.916
737.791; -100.404; -316.046; -327.916
738.053;   -0.829;  465.954;  649.083
738.316;  -92.978; -162.046; -136.917
738.578; -157.578; -770.046; -736.918
738.841; -101.953; -382.046; -446.918
739.103; -161.278; -875.045; -777.918
739.365;  -57.952;   79.955;  -69.919
739.628; -158.327; -884.045; -805.919
739.890; -130.777; -758.045; -710.919
740.152; -135.227; -692.044; -754.920
740.414; -119.051; -408.044; -359.920
740.677; -122.426; -785.044; -634.921
740.939; -145.801; -587.044; -487.921
741.201; -124.451; -432.044; -572.921
741.463; -125.550; -689.043; -745.922
741.725;  -70.850;  -21.043; -199.922
741.987;  -24.250;  220.957;  116.078
742.249; -166.800; -751.043; -859.923
742.511; -152.774; -703.043; -794.923
742.773; -113.799; -546.042; -546.924
743.035;   47.901;  796.958;  533.076
743.297; -190.199; -963.042;-1013.924
743.559;  -72.524; -278.042; -262.925
743.821; -148.723; -735.042; -744.925
744.083;  -75.373;  -44.041; -149.925
744.345; -172.973; -869.041; -892.926
744.607;  -36.973;   75.959;  122.074
744.868; -135.297; -490.041; -554.927
745.130; -198.122; -994.041;-1008.927
745.392;  -56.172;   -1.040;  -44.927
745.653; -102.847; -411.040; -378.928
745.915;   66.329;  896.960;  631.072
746.177;  -74.971;   35.960;  -43.928
746.438; -128.496; -428.040; -543.929
746.700; -184.671; -947.039; -988.929
746.961; -155.045; -659.039; -740.930
747.223;  -76.770; -190.039;  -74.930
747.484; -102.445; -391.039; -471.930
747.746;  -67.945;  -23.038; -106.931
748.007; -140.944; -647.038; -689.931
748.269;  -95.869; -468.038; -440.931
748.530; -140.444; -852.038; -638.932
748.791; -117.294; -354.038; -420.932
749.053;    0.232;  286.963;  163.067
749.314;  -87.468; -236.037; -169.933
749.575; -167.918; -945.037; -905.933
749.836;  -85.418; -217.037;   86.066
750.098;  -53.592;  -60.037;  -21.934
750.359;   13.258;  414.964;  555.066
750.620;  -65.617; -121.036; -220.935
750.881; -140.992; -585.036; -513.935
751.142; -180.692; -950.036; -938.936
751.403; -145.791; -789.036; -705.936
751.664; -201.991;-1034.035; -999.936
751.925;  -75.241; -175.035; -262.937
752.186;  -87.091; -298.035; -278.937
752.447; -114.390; -590.035; -445.937
752.708; -133.615; -532.035; -648.938
752.969; -145.015; -566.034; -576.938
753.230; -164.315; -777.034; -672.939
753.491; -156.339; -650.034; -631.939
753.751;  -53.764;  109.966;   19.061
754.012;  -10.714;  258.967;  181.060
754.273;  -73.739; -174.033;  -71.940
754.534; -116.388; -487.033; -580.940
754.794; -182.138; -926.033; -911.941
755.055;   64.937; 1051.967;  881.059
755.316; -139.913; -700.032; -566.942
755.576; -129.137; -606.032; -576.942
755.837; -127.562; -527.032; -695.942
756.097; -119.212; -530.032; -564.943
756.358; -151.437; -725.032; -770.943
756.618; -142.036; -705.031; -641.943
756.879;  -89.386; -254.031; -349.944
757.139; -209.111;-1098.031;-1116.944
757.400; -130.886; -538.031; -553.945
757.660;  -94.335; -365.031; -401.945
757.920;  -96.585; -266.030; -228.945
758.181; -108.635; -468.030; -351.946
758.441; -166.810; -870.030; -809.946
758.701; -102.710; -308.030; -215.946
758.961;  -94.709; -220.030; -278.947
759.222; -114.559; -574.029; -502.947
759.482; -151.934; -683.029; -723.948
759.742; -150.384; -706.029; -547.948
760.002;  -67.083;  -83.029; -143.948
760.262;  -54.008;   50.972;  182.051
760.522; -124.758; -498.028; -574.949
760.782; -147.408; -738.028; -612.949
761.042; -120.757; -618.028; -573.950
761.302;  -50.382;   55.972;  -18.950
761.562;  -80.582; -164.027; -154.951
761.822; -140.732; -710.027; -551.951
762.082; -213.281;-1104.027;-1093.951
762.342;  -92.956; -328.027; -403.952
762.601; -122.656; -567.027; -506.952
762.861;  -87.806; -281.026; -207.952
763.121;  -97.780; -406.026; -411.953
763.381; -131.230; -499.026; -485.953
763.640;  -72.405; -139.026; -307.954
763.900;  -96.130; -242.026; -203.954
764.160; -119.754; -458.025; -491.954
764.419; -161.054; -726.025; -782.955
764.679; -156.754; -795.025; -726.955
764.939;  -75.029; -124.025; -210.955
765.198; -147.203; -608.025; -563.956
765.458; -142.553; -710.024; -612.956
765.717; -134.153; -454.024; -590.957
765.976; -116.053; -428.024; -411.957
766.236; -135.403; -475.024; -610.957
766.495;  -40.552;  260.977;   73.042
766.755; -209.827;-1090.023; -987.958
767.014; -138.352; -594.023; -665.958
767.273; -119.002; -373.023; -397.959
767.533;  -88.101; -228.023; -307.959
767.792;  -91.926; -151.022; -188.960
768.051;  -96.901; -228.022; -276.960
768.310; -130.451; -546.022; -650.960
768.569;  -54.150; -161.022;    4.039
768.828;  -96.150; -285.022; -363.961
769.088; -193.100;-1050.021; -942.961
769.347; -156.125; -755.021; -599.962
769.606; -193.474; -876.021; -857.962
769.865; -192.849;-1016.021;-1033.963
770.124;  -82.874; -411.021; -336.963
770.383; -176.199; -778.020; -910.963
770.641; -128.798; -398.020; -400.964
770.900; -181.923; -953.020; -846.964
771.159; -178.723; -851.020; -951.964
771.418; -168.898; -917.020; -779.965
771.677;  -70.672; -224.019; -293.965
771.936; -169.922; -794.019; -865.966
772.194; -157.422; -465.019; -437.966
772.453;  -86.697; -213.019; -391.966
772.712;    6.979;  416.982;  329.033
772.970;  -51.871;   32.982;   63.033
773.229;  -46.246;  -22.018;  102.033
773.488; -161.446; -814.018; -770.968
773.746;  -16.771;  296.982;  335.032
774.005;  -43.520;  190.983;  -22.969
774.263;  -55.295;  243.983;  177.031
774.522; -135.920; -422.017; -548.969
774.780; -125.520; -484.017; -417.970
775.039; -123.544; -551.017; -531.970
775.297;  -71.844; -135.016; -351.970
775.555; -139.919; -489.016; -612.971
775.814; -157.069; -618.016; -570.971
776.072; -141.993; -749.016; -740.971
776.330; -142.118; -630.016; -520.972
776.589; -142.218; -703.015; -721.972
776.847; -153.143; -645.015; -624.973
777.105; -193.467;-1016.015;-1032.973
777.363;  -97.467; -459.015; -454.973
777.621; -159.567; -660.015; -717.974
777.879;  -57.142;  -42.014;   32.026
778.138; -137.191; -554.014; -717.974
778.396; -131.116; -585.014; -526.975
778.654; -188.716;-1015.014; -970.975
778.912;  -95.766; -269.014; -371.976
779.170; -162.590; -880.013; -803.976
779.427; -180.065; -922.013; -897.976
779.685; -182.440; -880.013; -832.977
779.943; -159.665; -654.013; -593.977
780.201; -189.664; -964.012; -883.978
780.459; -137.614; -651.012; -610.978
780.717; -109.914; -440.012; -390.978
780.974; -127.389; -449.012; -490.979
781.232;  -94.614; -358.012; -338.979
781.490; -130.688; -551.011; -472.979
781.747; -119.263; -555.011; -476.980
782.005;    1.437;  462.989;  254.020
782.263; -189.313; -542.011;-1004.981
782.520; -112.212; -326.011; -501.981
782.778; -184.562;-1013.010;-1051.981
783.035; -190.762; -962.010; -938.982
783.293;  -80.737; -248.010; -206.982
783.550;  -79.036; -134.010; -198.982
783.808; -164.836; -764.010; -776.983
784.065; -182.611; -745.009; -874.983
784.322;  -74.886;   25.991;  -86.984
784.580; -164.435; -915.009; -771.984
784.837; -120.935; -392.009; -466.984
785.094; -170.710; -783.009; -762.985
785.352; -103.885; -304.008; -404.985
785.609; -181.084; -934.008; -839.985
785.866; -114.859; -345.008; -401.986
786.123; -149.584; -639.008; -583.986
786.380; -142.809; -665.008; -604.987
786.637; -100.733; -225.007; -380.987
786.895; -127.008; -456.007; -543.987
787.152;  -74.583; -135.007; -267.988
787.409;  -67.833; -123.007; -225.988
787.666; -120.657; -299.006; -378.988
787.923; -131.032; -616.006; -695.989
788.179; -125.107; -551.006; -584.989
788.436; -141.907; -585.006; -585.990
788.693;  -86.157;  -92.006;  -87.990
788.950;  -72.681; -125.005; -112.990
789.207; -123.631; -381.005; -372.991
789.464;  -90.981; -161.005; -301.991
789.720;  -43.281;  150.995;  110.009
789.977; -194.105;-1003.005; -671.992
790.234;  -58.005;   44.996;  -66.992
790.490; -193.880; -884.004;-1031.993
790.747;  -57.630;  -85.004;   22.007
791.004; -101.554; -426.004; -348.993
791.260; -126.504; -430.004; -560.994
791.517; -164.354; -843.003; -788.994
791.773; -106.054; -379.003; -342.994
792.030; -157.278; -596.003; -660.995
792.286; -165.328; -686.003; -636.995
792.543;  -58.678;  -74.002; -159.995
792.799; -112.578; -584.002; -382.996
793.055; -224.502;-1179.002;-1210.996
793.312; -181.402; -827.002; -816.997
793.568; -141.002; -746.002; -599.997
793.824;  -94.927; -226.001; -284.997
794.081; -117.501; -447.001; -508.998
794.337; -139.326; -664.001; -561.998
794.593; -102.026; -319.001; -271.999
794.849; -165.226; -746.001; -772.999
795.105; -120.675; -270.000; -261.999
795.361; -120.450; -490.000; -457.000
795.617; -181.425; -875.000; -945.000
795.873; -128.075; -360.000; -407.000
796.129; -110.600; -368.000; -306.000
796.385;  -90.875; -124.000; -156.000
796.641;   10.850;  412.000;  550.000
796.897; -142.125; -666.000; -635.000
797.153;   -2.025;  453.000;  357.000
797.409; -175.800; -785.000; -868.000
797.665; -157.825; -625.000; -732.000
797.921; -180.125; -775.000; -762.000
798.176; -162.625; -744.000; -747.000
798.432; -173.400; -824.000; -596.000
798.688; -193.475;-1174.000;-1078.000
798.943;  -76.425; -165.000; -147.000
799.199; -182.625;-1005.000; -959.000
799.455;   11.875;  369.000;  316.000
799.710; -161.100; -813.000; -380.000
799.966;  -89.125; -162.000; -160.000
800.221; -151.450; -638.000; -721.000
800.477; -151.925; -743.000; -710.000
800.732; -168.650; -773.000; -800.000
800.988;  -24.925;  205.000;  -19.000
801.243; -116.650; -454.000; -344.000
801.498; -166.400; -814.000; -739.000
801.754;  -81.100; -289.000; -163.000
802.009;  -95.250; -257.000; -335.000
802.264; -195.075; -967.000;-1033.000
802.520;  -71.375;  222.000;   -3.000
802.775; -133.700; -524.000; -359.000
803.030;   -4.600;  395.000;  356.000
803.285; -177.250; -840.000; -903.000
803.540; -143.900; -686.000; -699.000
803.795; -138.125; -648.000; -583.000
804.051; -100.175; -279.000; -346.000
804.306;  -40.600;  168.000;  128.000
804.561;  -10.250;  451.000;  362.000
804.816;   60.275;  714.000;  861.000
805.071; -104.550; -185.000; -280.000
805.325; -106.875; -257.000; -427.000
805.580; -188.550; -841.000; -877.000
805.835;  -89.025; -204.000; -297.000
806.090; -148.925; -760.000; -676.000
806.345;  -96.025; -344.000; -264.000
806.600; -140.825; -549.000; -632.000
806.854; -137.675; -408.000; -538.000
807.109; -124.100; -493.000; -577.000
807.364; -114.975; -407.000; -328.000
807.618; -110.150; -415.000; -381.000
807.873; -153.725; -470.000; -494.000
808.128;  -86.675; -257.000; -518.000
808.382;  -98.400; -224.000; -332.000
808.637; -136.625; -440.000; -511.000
808.891;  -76.775; -257.000; -180.000
809.146; -190.400; -902.000; -794.000
809.400; -174.325; -848.000; -923.000
809.654; -158.625; -779.000; -551.000
809.909; -198.300; -841.000; -927.000
810.163; -160.775; -813.000; -651.000
810.418; -185.800; -940.000; -861.000
810.672; -166.400; -685.000; -690.000
810.926; -193.375; -993.000; -973.000
811.180; -117.575; -439.000; -372.000
811.434;  -31.075;  240.000;  135.000
811.689; -115.700; -231.000; -365.000
811.943; -201.475; -936.000; -953.000
812.197; -167.100; -893.000; -671.000
812.451; -127.750; -379.000; -514.000
812.705; -179.525; -809.000; -619.000
812.959; -110.450; -263.000; -388.000
813.213;  -84.125; -283.000; -209.000
813.467;   -2.575;  470.000;  253.000
813.721; -169.300; -764.000; -792.000
813.975; -187.900; -826.000; -877.000
814.229;  -12.850;  430.000;  353.000
814.482; -132.700; -517.000; -566.000
814.736; -173.250; -766.000; -744.000
814.990; -187.550; -779.000; -872.000
815.244;  -94.150; -228.000; -285.000
815.497; -138.150; -636.000; -601.000
815.751;  -65.150; -141.000;   82.000
816.005; -127.175; -470.000; -586.000
816.258; -116.950; -510.000; -363.000
816.512; -160.850; -693.000; -610.000
816.766;  -40.375;  121.000;  157.000
817.019;  -31.325;  148.000;  149.000
817.273; -193.975;-1000.000; -802.000
817.526;  -78.000; -206.000; -173.000
817.779; -196.425;-1049.000; -960.000
818.033; -167.100; -693.000; -807.000
818.286; -170.000; -725.000; -792.000
818.540; -145.900; -403.000; -403.000
818.793; -129.825; -402.000; -489.000
819.046; -146.100; -582.000; -520.000
819.299;  -66.850; -157.000; -166.000
819.553; -135.475; -552.000; -592.000
819.806; -200.225;-1016.000; -838.000
820.059;  -98.500; -334.000; -354.000
820.312;  -54.650;  152.000;  185.000
820.565;  -53.350;  110.000;  -27.000
820.818;  -81.000;  -59.000; -173.000
821.071; -211.400;-1041.000; -957.000
821.324; -141.300; -536.000; -540.000
821.577; -122.375; -457.000; -483.000
821.830; -100.500; -270.000; -172.000
822.083; -172.450; -733.000; -288.000
822.336;  -98.350; -261.000; -167.000
822.589; -171.875; -805.000; -688.000
822.842; -189.725; -875.000; -770.000
823.094; -223.625;-1076.000;-1114.000
823.347; -183.200; -925.000; -729.000
823.600;  -30.975;  402.000;  187.000
823.853;  -96.000; -311.000; -267.000
824.105; -123.125; -331.000; -575.000
824.358; -179.425; -617.000; -716.000
824.611;  -36.250;  234.000;   40.000
824.863; -139.150; -612.000; -591.000
825.116;  -71.000;  -33.000;   27.000
825.368; -122.375; -366.000; -372.000
825.621;  -94.350; -186.000; -240.000
825.873; -166.125; -704.000; -737.000
826.126; -171.575; -669.000; -641.000
826.378; -125.800; -389.000; -505.000
826.630; -195.650; -890.000; -898.000
826.883; -170.400; -754.000; -693.000
827.135; -115.625; -279.000; -270.000
827.387; -199.950; -893.000; -839.000
827.639;  -76.450;  -86.000;   32.000
827.892; -158.125; -742.000; -582.000
828.144; -187.425; -848.000; -804.000
828.396;  -57.175;  104.000;  -80.000
828.648; -123.625; -440.000; -333.000
828.900; -180.725; -702.000; -795.000
829.152; -166.300; -684.000; -683.000
829.404;  -88.475; -215.000; -267.000
829.656;  -81.625;  321.000;  214.000
829.908;  -42.500;  393.000;  229.000
830.160; -195.850;-1064.000;-1047.000
830.412; -124.325; -481.000; -430.000
830.664; -172.025; -557.000; -665.000
830.916; -110.875; -268.000; -206.000
831.167; -202.500;-1073.000; -951.000
831.419; -132.725; -623.000; -566.000
831.671; -175.200; -764.000; -809.000
831.923; -119.900; -311.000; -447.000
832.174;  -96.125; -273.000; -331.000
832.426; -147.325; -493.000; -582.000
832.678; -211.125;-1043.000;-1091.000
832.929; -200.450; -947.000; -935.000
833.181; -156.100; -575.000; -677.000
833.432;  -89.200;  -59.000; -186.000
833.684;  -57.325;  112.000;  -27.000
833.935; -150.875; -610.000; -566.000
834.187; -164.800; -829.000; -823.000
834.438;  -79.450;  -58.000;  -25.000
834.689;  -94.575; -255.000; -123.000
834.941;  -88.050; -343.000; -244.000
835.192; -151.800; -590.000; -533.000
835.443; -152.550; -419.000; -506.000
835.695;  -46.125;  138.000;  -16.000
835.946; -139.450; -608.000; -378.000
836.197; -156.475; -599.000; -622.000
836.448; -140.525; -528.000; -395.000
836.699; -108.525; -253.000; -341.000
836.950;  -61.700;   72.000;    7.000
837.201; -205.225;-1003.000; -987.000
837.452; -107.250; -356.000; -170.000
837.703; -183.450; -791.000; -737.000
837.954; -106.225; -205.000; -365.000
838.205; -209.075;-1029.000;-1008.000
838.456; -106.575; -196.000; -282.000
838.707; -125.725; -423.000; -519.000
838.958; -168.625; -634.000; -647.000
839.209;  -60.025;   18.000;   40.000
839.460;  -97.675; -439.000; -201.000
839.710;  -99.200; -135.000; -297.000
839.961;   20.625;  730.000;  612.000
840.212; -146.250; -382.000; -497.000
840.462; -132.450; -328.000; -277.000
840.713; -144.600; -571.000; -536.000
840.964;  -82.175;  -62.000; -143.000
841.214; -140.875; -384.000; -624.000
841.465;  -93.350; -214.000; -141.000
841.715; -112.575; -417.000; -380.000
841.966; -165.750; -746.000; -685.000
842.216; -129.225; -330.000; -431.000
842.466; -102.825; -169.000; -313.000
842.717; -203.950; -964.000; -952.000
842.967; -155.275; -635.000; -641.000
843.217;  -66.150;   20.000;   28.000
843.468;  -88.650; -104.000; -132.000
843.718; -156.425; -718.000; -726.000
843.968; -189.325; -837.000; -765.000
844.218;  -95.100; -315.000; -262.000
844.469; -142.900; -577.000; -561.000
844.719; -157.900; -537.000; -682.000
844.969; -156.300; -550.000; -580.000
845.219; -181.325; -814.000; -862.000
845.469; -128.900; -392.000; -342.000
845.719; -181.875; -792.000; -884.000
845.969;  -47.450;  119.000;  174.000
846.219; -165.725; -738.000; -720.000
846.469;  -17.725;  464.000;  432.000
846.718;  -90.125; -115.000;   31.000
846.968; -182.300; -827.000; -827.000
847.218;  -94.850; -224.000; -371.000
847.468;  -36.725; -586.000; -555.000
847.718; -200.225; -827.000; -798.000
847.967; -165.900; -826.000; -915.000
848.217; -121.450; -449.000; -569.000
848.467; -108.850; -405.000; -376.000
848.716; -166.225; -708.000; -725.000
848.966; -113.000; -372.000; -358.000
849.215; -122.950; -428.000; -419.000
849.465; -169.025; -785.000; -615.000
849.714; -227.300;-1132.000;-1150.000
849.964; -147.475; -551.000; -613.000
850.213; -126.325; -393.000; -355.000
850.463;  -38.300;  137.000;  340.000
850.712; -137.725; -542.000; -567.000
850.961; -155.700; -739.000; -678.000
851.211; -142.825; -513.000; -504.000
851.460; -165.525; -635.000; -650.000
851.709;  -70.475;  -25.000;   18.000
851.958; -174.600; -912.000; -750.000
852.208; -184.475; -859.000; -879.000
852.457;  -90.775; -181.000;  -13.000
852.706; -172.375; -791.000; -823.000
852.955; -138.950; -507.000; -528.000
853.204; -131.725; -521.000; -461.000
853.453; -134.200; -418.000; -458.000
853.702; -181.025; -660.000; -750.000
853.951; -147.875; -532.000; -520.000
854.200; -148.825; -613.000; -562.000
854.449; -152.450; -695.000; -661.000
854.698; -111.100; -340.000; -279.000
854.946;  -96.150; -181.000; -284.000
855.195; -167.300; -843.000; -868.000
855.444; -109.325; -395.000; -420.000
855.693; -146.150; -345.000; -432.000
855.941; -157.900; -387.000; -516.000
856.190; -109.150; -256.000; -382.000
856.439; -158.325; -652.000; -703.000
856.687;  -87.175;  -99.000;  -72.000
856.936; -131.150; -621.000; -323.000
857.184; -199.775;-1067.000;-1020.000
857.433; -134.275; -423.000; -512.000
857.681; -196.600; -989.000; -953.000
857.930; -117.300; -282.000; -433.000
858.178; -201.325; -856.000; -929.000
858.427; -172.875; -802.000; -781.000
858.675; -141.650; -377.000; -544.000
858.923; -140.125; -527.000; -819.000
859.172; -218.775;-1094.000;-1070.000
859.420; -120.000; -339.000; -239.000
859.668; -169.675; -624.000; -628.000
859.916;  -44.125;  109.000;  115.000
860.164; -146.575; -699.000; -603.000
860.413; -193.975; -878.000; -696.000
860.661; -179.400; -709.000; -577.000
860.909; -129.575; -339.000; -325.000
861.157; -111.400; -277.000; -444.000
861.405; -148.800; -534.000; -670.000
861.653;  -22.375;  310.000;  310.000
861.901; -153.175; -543.000; -613.000
862.149; -197.325; -801.000; -824.000
862.396; -112.500; -297.000; -187.000
862.644; -110.050; -368.000; -347.000
862.892;  -52.900;   98.000;  138.000
863.140; -144.950; -549.000; -530.000
863.388; -183.025; -815.000; -759.000
863.635; -146.150; -642.000; -601.000
863.883;  -23.775;  231.000;  190.000
864.131; -127.150; -288.000; -357.000
864.378; -166.850; -675.000; -540.000
864.626; -129.550; -347.000; -415.000
864.873; -155.250; -556.000; -505.000
865.121; -188.950; -714.000; -799.000
865.368;  -82.700; -173.000;   75.000
865.616;  -89.825;  -33.000;  -40.000
865.863; -136.300; -462.000; -506.000
866.111; -199.225; -795.000; -824.000
866.358; -124.800; -426.000; -420.000
866.605;  -75.175;  -64.000; -804.000
866.853; -135.350; -621.000; -537.000
867.100; -173.650; -728.000; -775.000
867.347; -152.925; -672.000; -611.000
867.594; -171.975; -740.000; -714.000
867.841;  -56.775;   97.000;   17.000
868.089; -193.425; -746.000; -698.000
868.336; -136.675; -477.000; -420.000
868.583; -157.850; -637.000; -741.000
868.830;  -75.125; -131.000; -170.000
869.077; -180.650; -859.000; -787.000
869.324; -150.775; -502.000; -458.000
869.571; -150.275; -398.000; -430.000
869.818; -144.050; -485.000; -439.000
870.065; -142.925; -439.000; -513.000
870.311; -138.700; -456.000; -542.000
870.558; -135.700; -332.000; -311.000
870.805; -101.700; -320.000; -384.000
871.052; -127.325; -494.000; -369.000
871.298;  -95.100; -204.000; -131.000
871.545;  -97.825; -151.000; -185.000
871.792; -102.575; -173.000; -222.000
872.038;  -77.075;   43.000; -126.000
872.285; -155.075; -496.000; -387.000
872.532; -118.800; -357.000; -387.000
872.778;   -8.100;  556.000;  403.000
873.025; -103.075; -384.000; -359.000
873.271;    2.075;  501.000;  578.000
873.517;  -87.550; -133.000; -209.000
873.764;  -87.900; -193.000;  -80.000
874.010; -108.125; -143.000; -230.000
874.257;  -72.250;  123.000;   90.000
874.503; -163.575; -579.000; -479.000
874.749;  -92.675;   31.000;  275.000
874.995;  -94.750;  -80.000;  -20.000
875.242; -162.000; -540.000; -478.000
875.488; -137.250; -414.000; -439.000
875.734; -102.325; -106.000; -234.000
875.980; -209.300; -872.000;-1032.000
876.226; -103.825; -157.000; -255.000
876.472;  -48.475;  343.000;  237.000
876.718;  -60.400;  184.000;  158.000
876.964;  -70.625;   56.000;   55.000
877.210; -187.900; -547.000; -677.000
877.456; -155.125; -630.000; -557.000
877.702; -198.650; -821.000; -832.000
877.948; -124.575; -377.000; -497.000
878.193;  -16.825;  361.000;  255.000
878.439; -139.800; -487.000; -472.000
878.685; -109.975; -272.000; -343.000
878.931; -151.550; -618.000; -676.000
879.176; -103.925; -201.000; -201.000
879.422; -197.450; -933.000; -820.000
879.668;  -58.050;   10.000;   79.000
879.913;  -77.675;   53.000;  137.000
880.159;  -91.250; -112.000;  -17.000
880.404;  -97.400; -152.000; -162.000
880.650;  -63.525;   91.000;  141.000
880.895; -180.825; -670.000; -710.000
881.141; -142.225; -454.000; -428.000
881.386; -173.650; -503.000; -658.000
881.631; -109.375; -311.000; -166.000
881.877;  -57.500;  112.000;  -13.000
882.122; -162.650; -684.000; -600.000
882.367;  -98.450; -136.000; -186.000
882.612;  -93.025;  -80.000; -176.000
882.858; -190.875; -877.000; -823.000
883.103; -115.875; -297.000; -267.000
883.348; -171.075; -759.000; -852.000
883.593; -157.650; -677.000; -602.000
883.838;  -94.100; -311.000;  -24.000
884.083;  -44.100;  353.000;  288.000
884.328; -120.975; -564.000; -545.000
884.573; -104.375; -196.000; -143.000
884.818; -164.125; -694.000; -531.000
885.063; -115.500; -348.000; -315.000
885.308; -147.200; -475.000; -398.000
885.553;  -33.350;  245.000;  325.000
885.797; -152.100; -545.000; -615.000
886.042;  -82.500;    8.000;   58.000
886.287; -102.275; -253.000; -211.000
886.532;  -88.275;   26.000;  204.000
886.776; -113.325; -407.000; -525.000
887.021; -168.800; -621.000; -574.000
887.265; -175.075; -685.000; -689.000
887.510; -164.450; -557.000; -496.000
887.755;  -97.075; -194.000; -164.000
887.999; -147.075; -552.000; -575.000
888.244;  -71.125;  -58.000;  161.000
888.488;  -32.325;  371.000;  393.000
888.732; -139.300; -368.000; -520.000
888.977; -148.475; -622.000; -567.000
889.221; -196.775; -683.000; -659.000
889.465; -155.675; -422.000; -566.000
889.710;  -86.175;  -56.000; -299.000
889.954;  -15.025;  579.000;  467.000
890.198; -161.225; -584.000; -707.000
890.442; -167.225; -716.000; -712.000
890.687; -192.675; -800.000; -753.000
890.931; -114.125; -273.000; -210.000
891.175; -153.850; -502.000; -500.000
891.419;  -93.400; -105.000; -110.000
891.663; -103.425; -239.000; -112.000
891.907; -181.425; -801.000; -545.000
892.151; -200.175; -920.000; -815.000
892.395; -129.125; -274.000; -387.000
892.638;  -27.300;  408.000;  291.000
892.882; -204.175; -780.000; -867.000
893.126;    1.125;  758.000;  558.000
893.370; -111.700; -167.000; -168.000
893.614; -166.725; -714.000; -715.000
893.857; -120.100; -183.000; -197.000
894.101; -149.175; -527.000; -631.000
894.345;  -56.050;  300.000;  150.000
894.588;    2.700;  569.000;  380.000
894.832;  -93.825; -178.000;  -84.000
895.075; -110.600;   15.000;  -92.000
895.319; -147.650; -552.000; -420.000
895.563; -133.800; -413.000; -353.000
895.806; -183.450; -628.000; -741.000
896.049; -147.100; -576.000; -368.000
896.293;  -27.000;  527.000;  405.000
896.536; -142.525; -465.000; -468.000
896.779; -110.075; -149.000;   -1.000
897.023; -167.150; -751.000; -714.000
897.266;  -51.675;  325.000;  269.000
897.509; -195.775; -900.000; -901.000
897.752;  -61.900;  149.000;  171.000
897.996; -205.275; -972.000; -864.000
898.239;  -60.100;  168.000;  102.000
898.482; -135.650; -431.000; -453.000
898.725;  -72.650;  101.000;   53.000
898.968; -182.400; -609.000; -744.000
899.211; -148.325; -513.000; -361.000
899.454; -163.875; -633.000; -539.000
899.697;  -73.025;   90.000;  -43.000
899.940; -187.300; -761.000; -757.000
900.182; -130.300; -335.000; -405.000
900.425; -116.450; -150.000; -298.000
900.668;  -27.550;  491.000;  350.000
900.911; -111.225; -292.000; -345.000
901.154;  -69.950;  141.000;   -3.000
901.396; -152.500; -407.000; -412.000
901.639; -165.350; -430.000; -496.000
901.882; -203.125; -790.000; -809.000
902.124; -106.275;  -29.000; -143.000
902.367; -133.050; -315.000; -361.000
902.609; -144.500; -476.000; -453.000
902.852; -110.700; -108.000; -260.000
903.094; -149.750; -458.000; -337.000
903.337;  -82.550;  -26.000;   53.000
903.579; -131.025; -228.000; -441.000
903.821; -173.150; -597.000; -744.000
904.064;  -67.375;   85.000;  127.000
904.306; -106.400; -126.000; -166.000
904.548; -126.625; -152.000; -366.000
904.790; -124.375; -195.000; -340.000
905.033; -157.975; -625.000; -577.000
905.275; -158.625; -513.000; -524.000
905.517;  -36.275;  468.000;  256.000
905.759; -191.275; -667.000; -761.000
906.001; -141.200; -322.000; -369.000
906.243; -126.175; -162.000; -224.000
906.485; -119.050; -265.000; -207.000
906.727; -159.300; -499.000; -542.000
906.969; -108.425;  -30.000; -135.000
907.211; -135.375; -316.000; -382.000
907.453; -107.375; -188.000; -237.000
907.695; -111.050; -158.000; -385.000
907.936;    3.625;  818.000;  706.000
908.178;  -89.925;   92.000; -135.000
908.420; -107.550; -111.000; -162.000
908.662; -170.700; -633.000; -682.000
908.903; -135.875; -208.000; -123.000
909.145; -108.000; -240.000; -305.000
909.386;  -55.225;  315.000;  280.000
909.628;  -43.175;  363.000;  397.000
909.870;  -76.075;   29.000;  264.000
910.111; -211.950; -809.000; -949.000
910.353; -115.425; -123.000; -161.000
910.594; -173.750; -574.000; -606.000
910.835; -139.900; -265.000; -326.000
911.077; -170.400; -503.000; -604.000
911.318; -161.875; -505.000; -471.000
911.559; -193.900; -577.000; -880.000
911.801; -143.125; -284.000; -280.000
912.042;  -96.200;  -50.000; -159.000
912.283;  -27.850;  404.000;  371.000
912.524; -154.425; -396.000; -457.000
912.765; -106.075; -193.000;   79.000
913.006; -128.375; -307.000; -338.000
913.247; -143.300; -270.000; -290.000
913.488;  -97.700;  -43.000;   30.000
913.729; -145.550; -373.000; -373.000
913.970; -105.075;  -96.000; -292.000
914.211; -112.200; -160.000; -198.000
914.452; -111.300; -118.000;  -11.000
914.693;  -26.225;  510.000;  592.000
914.934;  -11.900;  510.000;  440.000
915.175;  -90.775;   53.000;  -95.000
915.415; -106.475; -137.000;   27.000
915.656; -100.100;  -28.000;  192.000
915.897; -122.775; -252.000;  -82.000
916.137;  -99.400;   74.000;   -9.000
916.378; -162.825; -573.000; -517.000
916.619; -115.925; -159.000;  -63.000
916.859;  -57.500;  303.000;  330.000
917.100;  118.775; 1655.000; 1070.000
917.340;    3.075;  930.000;  728.000
917.581;    6.300;  965.000;  789.000
917.821; -123.250; -171.000;  143.000
918.061; -125.625; -199.000;  -72.000
918.302; -117.025; -152.000; -211.000
918.542;  -99.625;  -22.000;    3.000
918.782;  -55.175;  369.000;  377.000
919.023;  -41.375;  360.000;  427.000
919.263;  983.925; 8131.000;  202.000
919.503; -124.400; -137.000;  -54.000
919.743;  -40.700;  390.000;  266.000
919.983; -115.700; -134.000;  -26.000
920.223;  -81.650;  135.000;   14.000
920.463;  -28.825;  631.000;  554.000
920.703;  -92.100;   84.000;   39.000
920.943;  -98.900; -110.000;   90.000
921.183; -137.700; -414.000; -405.000
921.423;  -41.225;  307.000;  546.000
921.663; -111.725; -174.000; -257.000
921.903;  -67.400;  237.000;  173.000
922.143;  -69.200;  372.000;  389.000
922.383;  -82.000;  158.000;  115.000
922.622; -116.450; -120.000;  -15.000
922.862;   -5.850;  796.000;  785.000
923.102; -111.125;  -51.000;   33.000
923.341;  -93.650;   59.000;   74.000
923.581;  -48.025;  450.000;  360.000
923.821;  -56.875;  301.000;  398.000
924.060;  -59.600;  351.000;  193.000
924.300; -102.050;  -16.000; -128.000
924.539;  -49.250;  584.000;  473.000
924.779;   -7.925;  812.000;  597.000
925.018;  -74.875;  247.000;  353.000
925.257;  -18.975;  595.000;  666.000
925.497;  -55.100;  447.000;  412.000
925.736; -103.075;  -35.000;  102.000
925.975;  -28.900;  687.000;  669.000
926.214;    2.850;  907.000;  850.000
926.454;   -0.675;  706.000;  757.000
926.693;  -60.725;  419.000;  543.000
926.932;   12.975; 1021.000;  825.000
927.171;   53.550; 1107.000; 1044.000
927.410;   38.075; 1144.000;  967.000
927.649;   -0.375;  924.000;  742.000
927.888;  -40.600;  590.000;  564.000
928.127;  -38.900;  680.000;  678.000
928.366;   -7.325;  842.000;  826.000
928.605;   -9.350;  831.000;  737.000
928.844;   70.875; 1451.000; 1393.000
929.083;  -33.600;  770.000;  613.000
929.321;   72.400; 1335.000; 1359.000
929.560;   45.925; 1158.000; 1122.000
929.799;  -63.125;  574.000;  475.000
930.038;   51.525; 1025.000; 1394.000
930.276;  -68.375;  334.000;  397.000
930.515;  -24.425;  827.000;  681.000
930.753;  -30.475;  614.000;  589.000
930.992;  -46.400;  664.000;  717.000
931.230;  -12.625;  847.000;  847.000
931.469;  163.150; 2162.000;  892.000
931.707;   58.400;  840.000;  751.000
931.946;   47.825; 1278.000; 1344.000
932.184;   48.675; 1437.000; 1175.000
932.423;   10.825; 1265.000;  963.000
932.661;   39.950; 1296.000; 1428.000
932.899;  -13.200;  987.000;  821.000
933.137;  -30.800;  754.000;  564.000
933.376;   53.975; 1664.000; 1335.000
933.614;  107.150; 1759.000; 1196.000
933.852;   23.150; 1357.000; 1171.000
934.090;   99.325; 1722.000; 1747.000
934.328;   54.925; 1252.000; 1457.000
934.566;   22.250; 1431.000; 1110.000
934.804;   20.800; 1263.000; 1309.000
935.042;   69.475; 1861.000; 1850.000
935.280;  128.875; 2088.000; 2063.000
935.518;  126.350; 2113.000; 2007.000
935.756;  156.800; 2481.000; 2316.000
935.994;   78.400; 1808.000; 1751.000
936.231;  241.125; 2890.000; 2950.000
936.469;  144.850; 2367.000; 2378.000
936.707;  149.875; 2220.000; 2167.000
936.945;  217.550; 2825.000; 2882.000
937.182;  197.650; 2679.000; 2741.000
937.420;  267.625; 3602.000; 3031.000
937.657;  305.925; 3365.000; 3478.000
937.895;  286.175; 3331.000; 3488.000
938.133;  287.425; 3540.000; 3528.000
938.370;  328.925; 3896.000; 4191.000
938.607;  388.775; 4488.000; 4205.000
938.845;  549.050; 5587.000; 5549.000
939.082;  472.450; 5387.000; 5177.000
939.320;  528.000; 5799.000; 5728.000
939.557;  608.675; 6549.000; 6491.000
939.794;  709.500; 7285.000; 7097.000
940.031;  830.225; 8421.000; 8368.000
940.269;  935.600; 9552.000; 9107.000
940.506; 1097.275;10901.000;10507.000

