
Integration time [ms]: 200.000
Averaging Nr. [scans]: 10
Smoothing Nr. [pixels]: 0
Data measured with spectrometer [name]: 2101013U2
Wave   ;Sample   ;Dark     ;Reference
[nm]   ;[counts] ;[counts] ;[counts] 

394.013;  106.881; -450.257; -315.536
394.305;  430.578; -461.258; -419.536
394.596; 1798.449; -676.269; -527.514
394.887; 4215.370; -796.268; -654.518
395.178; 1656.608;  145.736;   11.476
395.470;  150.422; -210.263; -356.526
395.761;  431.789;  305.734;  394.479
396.052;  771.493; -545.284; -306.489
396.343;  693.480; -557.276; -454.503
396.634;  201.641; -200.279; -290.497
396.926;  185.367; -618.268; -565.517
397.217;  208.086;   11.725;  -17.504
397.508;   45.306; -366.273; -154.507
397.799;   19.741; -555.279; -571.497
398.090;  -63.266; -973.280; -902.495
398.381;  178.199;   11.708;  -11.473
398.672;  -55.899; -585.292; -742.473
398.963;   49.949; -348.279; -373.498
399.254;  176.312;   54.709; -209.475
399.545;  -82.515;-1017.266; -883.520
399.836;   77.367; -407.277; -343.501
400.127;  117.169; -205.295; -209.468
400.418;  100.899; -423.274; -392.506
400.709;   99.118; -359.281; -333.493
401.000;   88.417; -268.291; -309.476
401.290;  199.890;  225.698;  115.545
401.581;  137.871; -166.286; -228.485
401.872;   11.434; -542.298; -486.462
402.163;   83.460; -313.296; -252.467
402.454;  149.913; -123.291; -163.475
402.744;   84.449; -844.297; -813.465
403.035;  676.188; -226.293;  -86.471
403.326;  929.604; -366.292; -384.474
403.617;  680.127;  204.701;  165.539
403.907;  323.000; -593.283; -679.490
404.198; 3600.333; -545.307; -599.446
404.489; 9648.906; -618.283; -588.491
404.779; 3277.194; -618.302; -660.456
405.070;  407.268;  -67.304; -174.451
405.360;  517.591; -259.293; -238.472
405.651;  611.508;  125.699;   98.542
405.942;  290.965;  209.714;  127.516
406.232;  409.784; -432.285; -413.487
406.523;  875.082;  641.706;  758.530
406.813;  133.868; -579.286; -644.484
407.104;  639.398;  261.708;  144.527
407.394;  289.429; -604.299; -591.462
407.685;  301.582;  336.715;  222.513
407.975;   97.404; -400.283; -382.490
408.265;  183.131; -134.289; -190.478
408.556;   86.209; -472.291; -459.475
408.846;  339.283;  474.706;  429.530
409.137;  146.941;   -1.288; -216.480
409.427;   90.383; -193.285; -271.487
409.717;   -0.790; -776.273; -692.508
410.007;  235.175;    4.715; -170.486
410.298;  170.373; -360.295; -342.469
410.588;   84.580; -495.285; -510.486
410.878;   -6.445; -792.287; -873.482
411.168;  155.337; -481.298; -478.463
411.459;  187.698; -295.283; -242.489
411.749;   70.007; -609.292; -507.474
412.039;   44.039; -755.289; -386.480
412.329;  350.258;   40.722;  132.501
412.619;  310.069;  -62.286; -148.485
412.909;  633.134;  639.711;  594.521
413.199;  533.934; -130.280; -251.495
413.490;  734.322;  521.710;  352.523
413.780;  149.039;-1013.279; -913.496
414.070;  550.881;  -46.276;  235.497
414.360;  549.353; -729.278; -666.498
414.650;  590.850; -726.288; -688.482
414.940;  797.339; -538.280; -441.496
415.230; 1394.646;   50.712;   74.519
415.520; 8988.348;  155.730;   66.486
415.809;35947.217; -305.281; -125.493
416.099;28654.969; -388.277; -229.501
416.389; 7670.596;  435.726;  236.494
416.679; 4690.527;   91.738;   85.473
416.969;  807.361; -527.287; -503.483
417.259;  936.242;  341.721;  171.503
417.549; 1061.116;  522.718;  318.508
417.838; 2435.070; -205.268; -147.518
418.128; 8101.529;  650.710;  492.522
418.418; 6897.718; -491.272; -579.509
418.708; 4550.896;    9.726;  -48.506
418.997;16805.291; -474.275; -480.505
419.287;18012.105; -733.273; -790.507
419.577;16374.897; -160.283; -123.489
419.866;53752.667; -588.277; -498.501
420.156;56330.743; -242.270;  -55.513
420.446;10573.818; -112.263;  -26.526
420.735; 1416.036; -376.271; -446.512
421.025; 1454.652; 1830.722;  315.502
421.314; 1056.833; -203.271; -226.512
421.604; 2418.461;   89.732;  233.484
421.893; 1367.029; -705.271; -602.511
422.183;  372.818; -487.263; -461.526
422.472;  590.131;  -36.271; -107.511
422.762;  723.992; -416.266; -379.521
423.051;  301.982; -916.276; -916.503
423.341;  502.707; -491.273; -439.507
423.630;  615.699; -121.265;   15.477
423.919;  585.990;   58.725;   49.495
424.209;  565.725;  -31.263;   56.473
424.498;  750.666;   68.732;  161.483
424.787; 1522.674; -535.267; -601.518
425.077; 4796.198;   34.735;   29.478
425.366; 6968.832; -734.262; -744.528
425.655;13953.008;  639.727;  259.493
425.945;30543.693; -313.247; -268.554
426.234;17514.360;  117.741;  300.467
426.523; 7317.466;  -86.259; -350.534
426.812;10286.187;  107.734;  159.480
427.101;14678.856; -127.269; -323.515
427.390;19123.048;  -55.270;  -86.514
427.680; 4435.991; -624.257; -411.538
427.969;  779.005; -330.255; -301.540
428.258;  477.781; -385.257; -477.536
428.547;  836.923;  449.728;  397.490
428.836; 1825.825; -421.253; -398.543
429.125; 2735.869; -199.259;  -72.534
429.414; 1244.453; -330.251; -294.548
429.703; 4473.853; -231.251; -213.548
429.992;13466.658; -938.250; -828.549
430.281; 9091.109; -397.264; -331.524
430.570;  965.041;  -21.252;   32.454
430.859;  976.766;  279.741;  352.466
431.148;  797.988;  636.752;  631.446
431.437;  545.741;  391.748;  367.454
431.725;  227.582; -544.257; -481.536
432.014;  118.434; -845.253; -756.545
432.303;  544.182; -149.239; -105.569
432.592;  906.417; -460.263; -178.525
432.881; 1448.089; -601.248; -437.554
433.169; 8683.506; -343.255;  -61.540
433.458;17893.925;  445.765;  540.424
433.747; 7743.639; -397.261; -289.529
434.036; 1323.352; -275.242; -280.564
434.324; 2966.473; -395.249; -379.551
434.613; 5298.444;   40.757;  159.437
434.902; 1863.870;  333.760;  439.433
435.190;  966.481;   75.761;  295.431
435.479;  547.621;  -52.245;   83.441
435.767;  143.931; -411.244; -427.561
436.056;  302.947; -340.242; -294.563
436.345;  531.573; -372.240; -223.568
436.633;  612.467;   60.750;  383.450
436.922;  500.076;  208.760;  414.432
437.210;  986.412; -194.236;    1.426
437.499; 3155.222; -583.235; -432.576
437.787; 3607.511; -339.236;  -10.574
438.075;  876.088;   56.761;  162.430
438.364; 1187.891;  -44.238;  250.429
438.652;  721.122; -286.226; -138.592
438.941;  209.977;    3.770;  269.415
439.229;  -18.262; -665.252; -466.545
439.517;   94.732; -160.234;  -85.577
439.806;  -53.759; -501.225; -290.595
440.094;  327.542;  377.766;  650.421
440.382;  238.247; -653.233; -302.580
440.670;  275.922; -361.235; -285.576
440.959;   -5.137; -347.223; -170.599
441.247;  134.991; -151.229; -109.587
441.535;  162.830; -266.235;   31.423
441.823;   37.839; -497.234; -305.578
442.111;  322.496;  173.771;  327.412
442.400;  812.820; -628.245; -335.559
442.688; 2241.042; -111.234; -620.579
442.976; 1603.073; -786.213; -450.617
443.264;  178.150; -324.224; -364.597
443.552;  130.323; -258.226;   51.408
443.840;  301.929;  602.765;  876.423
444.128;  233.246;  265.767;  269.420
444.416;  -12.300; -694.228; -312.588
444.704;   42.500; -465.219;  -92.605
444.992;  126.327;   -0.226;  240.407
445.280;   47.678; -517.230;  -94.585
445.568;   24.777; -694.212; -396.618
445.856;  539.480; -174.221;  357.398
446.143; 1221.295;  -54.220;   -7.604
446.431; 1053.304;  -25.228;  625.411
446.719;  426.224;  489.783;  675.391
447.007;  301.671;  481.769;  705.416
447.295;  301.259;  597.777;  871.402
447.583;  106.588; -464.229;  -34.587
447.870;  203.576; -434.221; -202.601
448.158;  687.576; -104.230;  129.415
448.446;  456.597; -800.219; -338.604
448.733;  275.451;   13.776;  269.403
449.021;  420.377;   60.788;  341.382
449.309;  260.295; -296.210;  208.379
449.596;  368.619;  128.783;   59.392
449.884;  227.568; -571.222; -325.600
450.172;  162.911; -756.227; -406.590
450.459;  702.652;  645.786;  780.387
450.747; 3110.118; -411.218; -147.608
451.034;10397.106;  493.772;  889.411
451.322; 8745.756; -413.214; -170.614
451.609;  758.153;  292.777;  508.403
451.897;  741.874; -550.203; -183.634
452.184; 2333.860; -622.223; -400.598
452.472; 2378.122;   97.792;  269.375
452.759;  590.098;  512.781;  864.395
453.047;  172.074; -407.212; -125.617
453.334;  101.307; -732.219; -216.606
453.621;  118.658; -438.214; -161.615
453.909;  236.664;   13.796;  384.368
454.196;  190.921; -299.199; -123.641
454.483;  377.590;  317.798;  540.364
454.771;  225.726; -215.208;  196.374
455.058;   73.630; -316.207;  102.374
455.345;  206.189;   71.807;  344.347
455.632;  132.934; -128.207;  235.373
455.919;  103.449;  -82.196;  182.354
456.207; -155.874; -774.198; -450.642
456.494;  -16.495; -475.200;  -66.639
456.781;   -1.215; -399.202; -198.635
457.068;  100.542; -253.206;  -29.628
457.355;  -30.656; -698.206; -401.629
457.642;  -42.650; -552.205; -290.630
457.929;  -56.822; -778.194; -417.651
458.216;   60.074; -575.212; -354.617
458.503;  330.884; -173.193;  -19.652
458.790;  280.023; -864.208; -630.625
459.077;  386.591;  -77.202;  110.364
459.364; 1069.470; -350.195; -210.649
459.651; 2312.640;  -46.206;  220.372
459.938; 1057.711; -864.209; -665.623
460.225;  242.495;  132.799;  276.363
460.512;  -96.855; -836.197; -688.645
460.799;  193.816;  -32.218;  320.392
461.086;   91.611; -370.200; -251.640
461.372;   48.027; -509.198; -279.642
461.659;  223.850; -165.196;  108.354
461.946;   98.682; -445.193;  -54.651
462.233;  422.808;  842.800;  888.361
462.519;  410.804; -814.201; -464.639
462.806; 1305.046; -768.197; -497.645
463.093; 1202.308; -445.191;  -66.656
463.380;  -84.840; -920.186; -824.664
463.666;   94.348; -259.197;  -18.646
463.953;  115.963; -406.195; -243.648
464.239;  258.563; -173.195;  -77.648
464.526;  619.976;  413.806;  743.350
464.813;  456.323; -565.190; -304.658
465.099;  605.984;  606.807;  607.348
465.386;  584.689;  903.807;  921.348
465.672;   19.746; -694.197; -522.645
465.959;   19.345; -598.188; -520.662
466.245;   -5.011; -468.193; -359.652
466.532;  142.760; -109.195;   63.352
466.818;  112.059; -357.186; -216.664
467.104;  -44.190; -488.182; -415.672
467.391;  -43.275; -628.189; -459.658
467.677;   72.064; -289.186;    9.335
467.964;   -3.967; -682.189; -471.660
468.250;  143.567; -331.186; -160.665
468.536;  175.227;   90.811;  180.341
468.822;  -85.818; -821.184; -574.668
469.109;  303.610;  351.827;  471.311
469.395;  356.501;  729.808;  787.346
469.681;  290.630;   46.811;  156.341
469.967; 1638.636; -699.188; -382.660
470.254; 3619.746; -494.188; -306.662
470.540; 2365.949; -601.196; -476.646
470.826;  313.523; -488.181; -397.675
471.112;  444.086;  288.816;  113.331
471.398;  166.092; -253.183;  -58.670
471.684;   90.559; -626.177; -447.680
471.970;  -76.572; -918.180; -981.675
472.256;    9.999; -521.192; -441.654
472.542;    5.324; -499.171; -434.691
472.828;    3.604; -743.182; -607.672
473.114;   51.978; -380.166; -283.700
473.400;   13.379; -504.175; -293.684
473.686;   32.386; -452.166; -400.701
473.972;   81.498; -230.174; -131.687
474.258; -102.490; -925.173; -843.689
474.544;  246.248; -183.178;   -2.679
474.830;  455.981;  -65.175;   45.316
475.116;  630.625; -123.190; -196.658
475.401;  815.231; -558.180; -467.676
475.687;  243.130; -725.180; -718.676
475.973;  -19.786; -673.181; -770.673
476.259;  452.884;  736.825;  764.315
476.544;  497.169; -539.176; -437.682
476.830; 1073.319; -398.172; -322.690
477.116;  956.567; -430.177; -336.682
477.401;  250.530;  346.820;  358.324
477.687;  -41.621; -289.175; -405.684
477.973;   83.419;   21.819;   28.326
478.258;  -32.788; -448.163; -348.706
478.544;  105.974;   21.815;   61.334
478.829; -121.069; -818.171; -738.692
479.115; -106.682; -749.172; -651.690
479.401;    3.692; -444.174; -449.686
479.686;   47.329; -253.180;  -74.676
479.972; -110.245; -886.178; -776.680
480.257;   68.180; -258.166;  -65.700
480.542;  -15.464; -614.170; -469.693
480.828;  504.877; 1288.824; 1392.317
481.113;  -43.326; -464.176; -426.683
481.399;    8.741; -236.161; -202.711
481.684;  -95.521; -620.166; -462.700
481.969;   70.058; -158.159;  -73.713
482.255;  -31.651; -439.169; -285.695
482.540;  -43.345; -569.178; -441.680
482.825;  -29.347; -395.187; -404.663
483.110;  134.353;  -85.169; -105.696
483.396;  180.085; -840.157; -652.718
483.681;  717.898;  543.826;  730.313
483.966;  164.851; -696.160; -700.712
484.251;    9.596; -404.174; -310.687
484.536;    3.993; -356.165; -378.703
484.822;   21.000; -205.173; -218.687
485.107;  -57.767; -599.152; -502.726
485.392;  289.200;  662.836;  541.296
485.677;  129.065;  354.832;  163.302
485.962;  231.182;  160.843;  270.283
486.247;  157.221;  -14.162;   -8.707
486.532;   39.381; -178.166; -325.701
486.817;  281.834;  381.839;  431.291
487.102;  119.011; -453.154; -514.722
487.387;  838.187; -637.156; -652.718
487.672; 1481.906; -154.164;  -38.705
487.957;  951.043; -394.160; -286.711
488.241;  306.553; -290.150; -314.729
488.526;  953.134; -280.152; -148.726
488.811; 1440.557; -881.177; -818.680
489.096; 1123.715; -666.154; -702.723
489.381;  687.530;    3.847;  162.275
489.666;  476.141; -428.161; -510.710
489.950;  344.219;  558.846;  627.277
490.235;  -52.553; -480.151; -458.728
490.520; -118.260; -756.161; -723.710
490.804; -131.810; -827.156; -736.719
491.089;    6.873; -469.149; -299.732
491.374;   69.105; -132.164;  -75.704
491.658;  -68.413; -817.147; -717.735
491.943;  192.640; -657.152; -609.727
492.227;  336.906; -178.155;  -38.721
492.512;   69.581; -294.157; -341.717
492.797; -148.535; -713.149; -716.731
493.081;  -98.809; -588.147; -598.735
493.366; -108.658; -751.161; -635.711
493.650;  382.457;  831.859;  917.254
493.935;    6.087; -648.147; -447.734
494.219; -104.559; -778.142; -687.743
494.503;  -82.741; -585.150; -487.730
494.788;   66.671;   46.842;   74.285
495.072;  205.455;  184.850;  434.271
495.356;  179.477; -463.148; -343.733
495.641;  588.599; -812.146; -736.736
495.925;  537.796; -976.156; -903.719
496.209;   13.672; -599.149; -451.732
496.494; -111.358; -763.142; -544.744
496.778;    3.711; -364.154; -360.722
497.062; -127.805; -819.156; -627.719
497.346;  -98.555; -869.160; -640.711
497.631;  233.081;  580.852;  560.266
497.915;  159.912;  -64.145;  175.261
498.199;   85.985; -341.157; -277.718
498.483;   36.032; -562.152; -508.725
498.767;  319.956;  301.850;  300.271
499.051;  266.569; -126.149; -100.732
499.335;    6.667; -693.149; -739.731
499.619;  -77.617; -381.129; -423.767
499.903;   96.505; -272.155;  -65.721
500.187;    7.420; -588.153; -316.724
500.471;  -50.461; -796.152; -595.727
500.755;  183.140;   62.839;  -96.710
501.039;   17.305; -270.155; -357.721
501.323;  192.559;  -21.141;  264.254
501.607;   28.112; -447.163; -503.706
501.891;   -6.513; -607.156; -512.718
502.174; -104.874; -726.144; -585.741
502.458;  149.544;   89.849;  370.273
502.742;   36.189; -180.138; -191.751
503.026;  111.286; -412.147; -254.734
503.310;  164.757; -437.159; -375.713
503.593;  144.588; -464.147; -325.735
503.877;  156.939; -232.133; -156.760
504.161;  240.523;    2.847;  -50.724
504.444;   60.474; -841.158; -710.716
504.728;  579.803; -487.164; -522.704
505.012;  890.553; -257.150;  -76.729
505.295;  745.941; -417.161; -212.711
505.579;  707.795; -256.156; -496.719
505.862;  961.608; -555.145; -333.738
506.146;  888.760; -681.159; -758.714
506.429;  630.660;  568.841;  461.286
506.713;   64.049; -732.151; -667.728
506.996;  454.811;   90.846;  295.278
507.280;  423.997; -633.165; -474.703
507.563;  312.003; -469.155; -261.721
507.847;  102.621; -423.153; -112.724
508.130;   92.442; -665.161; -456.711
508.413;  105.075; -758.167; -577.700
508.697;  345.075; -151.167;   12.300
508.980;  193.123; -422.153; -312.724
509.263;  -40.102; -466.155; -450.720
509.547;   22.952; -124.150;   82.271
509.830;   77.545; -172.160;  140.289
510.113;  149.495;  128.844;  298.281
510.396;   25.430; -530.152; -300.725
510.680;  197.109; -818.145; -812.738
510.963; 1030.516;  184.846;  180.277
511.246;  823.662; -493.150; -357.730
511.529;  374.115; -482.145;  -83.739
511.812;  496.335; -250.134;   10.241
512.095;  328.545; -740.151; -396.728
512.378;   81.293; -317.147; -245.736
512.661;  -24.201; -703.137; -623.753
512.944;  -28.956; -750.142; -637.744
513.227;   84.495; -170.137; -171.752
513.510;   16.726; -479.144; -671.741
513.793;   17.865; -485.140; -435.747
514.076;  195.509;  -43.127;  -39.771
514.359;  155.973; -294.149; -135.732
514.642;   44.347; -442.142; -567.744
514.925; 1047.863;  581.860;  561.253
515.208; 1205.430; -498.134; -443.758
515.491;  862.248; -276.133; -182.761
515.773;  432.231; -410.143; -337.742
516.056; 2752.806;  249.864;  409.246
516.339; 3613.411; -754.136; -652.755
516.622; 2654.259; -518.150; -488.730
516.904; 1996.339;  882.857;  975.257
517.187;  841.293; -730.138; -523.752
517.470;  527.938; -568.143; -510.743
517.752;  536.315; -624.136; -470.756
518.035;  376.378; -708.139; -725.749
518.318;  438.212; -799.136; -744.755
518.600; 3075.452; -300.132; -325.762
518.883; 4183.147;  310.858;   88.256
519.165; 2037.584; -585.138; -426.751
519.448;  523.452;  -61.132;  -19.762
519.730;  224.919; -573.126; -415.773
520.013;  518.343;  588.867;  664.240
520.295; 1256.937;  -94.134;  -15.759
520.578; 2746.068; -335.131; -305.764
520.860; 3045.952; -254.132;   56.238
521.143; 1489.818; -763.135; -584.756
521.425;  659.035; -251.125; -279.775
521.707;  867.210; -622.127; -380.771
521.990; 2282.310; -199.127;  167.229
522.272; 2572.267; -116.140;   -4.748
522.554; 1244.932; -237.143; -157.742
522.836;  557.834;  -24.134;   99.241
523.119;  279.885; -496.148; -189.734
523.401;  199.877; -448.130; -314.766
523.683;   44.799; -865.137; -693.753
523.965;  421.191;  408.862;  260.248
524.247;  355.461;   54.878;  170.220
524.529;  231.737; -451.134; -367.759
524.812;  500.379;   -3.130;  191.234
525.094; 1059.090; -773.138; -631.751
525.376; 1695.546; -143.124;   78.223
525.658; 1066.308; -441.136; -339.754
525.940;  -18.336; -805.131; -671.764
526.222;   32.812; -188.136;  -88.755
526.504;  169.561; -190.131;   32.237
526.786;  181.740; -960.133; -647.760
527.068;  436.353; -124.123;  -67.778
527.349;  144.004; -865.137; -774.754
527.631;  188.151; -137.132;   22.238
527.913;  121.009; -664.127; -450.771
528.195;  132.326; -761.125; -639.774
528.477;  323.731;  -93.134;  -30.758
528.759;  143.579; -648.130; -522.766
529.040;   34.251; -569.123; -293.778
529.322;   76.629; -235.125;  -10.774
529.604;  214.581;  -47.130;   93.233
529.886;  146.718; -546.126; -302.773
530.167;  184.971;  232.870;  192.235
530.449;  106.192;    1.853;   63.265
530.731;  -43.840; -572.122; -459.779
531.012;   56.686; -513.120; -216.784
531.294;  109.735; -118.116;  -43.792
531.575;  228.835;  290.875;  538.225
531.857;   24.124; -548.135; -266.757
532.138;  186.857; -113.141;   40.254
532.420;  278.320;  294.865;  403.244
532.701;  228.043; -722.133; -751.760
532.983;  500.447;  232.867;  182.239
533.264;  179.116; -243.126;  175.228
533.546;  -77.988; -491.136; -508.755
533.827;   76.839;  173.867;   -1.759
534.109;   48.624; -352.135;  -80.757
534.390;   70.057; -725.132; -582.762
534.671;  325.719; -270.135;  -82.756
534.953;  121.555; -751.123; -611.779
535.234;  -15.584; -426.117; -255.789
535.515; -139.004; -891.119; -735.785
535.796;  -35.596; -431.128; -193.770
536.078; -247.155;-1050.124; -904.777
536.359;   32.856;  -22.123;    3.221
536.640;  -55.472; -480.125; -197.774
536.921;  250.588;  225.871;  143.232
537.202;  453.386;  -87.138;  -16.751
537.483;  592.967;  251.869;  377.236
537.764;  262.771;   17.870;   98.235
538.045;  -68.270; -543.134; -371.758
538.326;  -84.310; -596.129; -447.768
538.607;  -33.389; -686.127; -476.771
538.888;  242.075;   98.879;    5.218
539.169;  171.368; -704.122; -535.781
539.450;  470.787;  236.871;   16.233
539.731;  271.280; -361.121; -182.783
540.012;  203.986;  199.880;  412.216
540.293;  160.239;   82.876;  158.224
540.574;  -56.140; -895.113; -717.796
540.855;  656.178;  435.879;  377.218
541.136;  733.365;   47.878;  139.220
541.416;  341.380; -161.130; -220.766
541.697;  224.562; -274.131; -170.763
541.978; 1289.222; -270.135; -315.757
542.259; 1618.610; -211.127; -236.771
542.539;  848.827; -191.116; -186.790
542.820;  248.634;  461.875;  480.225
543.101;  194.411;  -52.145;  -77.738
543.381;  -53.590; -638.127; -591.771
543.662;  371.507;  159.873; -254.771
543.942;  599.305; -751.127; -830.770
544.223; 1356.767;  193.878;  161.219
544.504;  870.645; -275.124; -182.777
544.784;  746.618; -592.126; -408.773
545.065; 2039.032;  104.884; -254.791
545.345; 2479.696;  227.881;   14.215
545.626; 1674.059;  -14.113; -108.796
545.906; 1106.971;   77.869;   98.235
546.186;  441.124;   92.874;  -95.773
546.467;  230.048;   99.877;  -95.778
546.747;  440.327;  264.884;  327.210
547.027;  521.243;   91.876;  111.223
547.308;  358.604; -376.127; -530.770
547.588;  517.291;  299.871;  371.232
547.868;  329.372;  458.870;  588.235
548.149;  307.541;  609.885;  593.207
548.429;  149.708; -347.127; -299.771
548.709;  190.785; -645.120; -461.784
548.989;  606.908;   84.882;   88.213
549.269; 2635.750;   10.868;  139.239
549.550; 6020.254;  215.877;  117.222
549.830; 5260.282; -758.111; -556.799
550.110; 1136.791; -468.110; -320.801
550.390; 1099.960; -128.122;  -56.779
550.670; 1321.354; -868.114; -783.795
550.950; 1008.977; -509.121; -471.782
551.230;  305.773;  549.879;  460.218
551.510;  -59.724; -381.121; -326.782
551.790;   39.601; -173.109; -127.803
552.070;  506.348;  940.877; 1181.223
552.350;  457.101; -492.119; -377.786
552.630;  773.970;   -2.121;   77.219
552.909;  492.832;  181.884;   73.209
553.189;  357.058;  -49.132;   33.237
553.469;  171.601; -703.119; -514.786
553.749;  182.512; -469.127; -357.772
554.029;  208.421;   33.883;  -24.790
554.308;  205.346; -154.115;  -37.794
554.588;   56.102; -196.128; -204.770
554.868;   34.178; -366.121;  -47.782
555.147;  172.843; -114.115;  -46.793
555.427;  744.035; -260.116; -250.792
555.707; 4809.340; -284.115; -200.793
555.986; 5744.886; -719.111; -538.800
556.266; 3129.825;   23.884;   72.210
556.546;   73.176; -888.121; -675.782
556.825;  241.352; -657.114; -556.794
557.105; 2241.500; -125.128;   17.230
557.384; 2640.031;  122.884;  187.209
557.664;  924.134; -717.116; -508.792
557.943;  114.277; -557.121; -411.782
558.222;  192.112; -345.118; -344.788
558.502;  356.444; -116.115;  -76.793
558.781;  659.639;  194.885;  499.208
559.061;  464.012; -232.118; -227.788
559.340;  447.018;  302.883;  353.211
559.619;  897.225;   93.884;  148.210
559.899; 1229.520; -239.117; -266.789
560.178; 1079.244; -778.115; -593.793
560.457; 3942.622; -623.117; -562.790
560.736; 5209.488; -472.111; -482.800
561.015; 3619.997; -500.128; -502.769
561.295;  518.226;  180.893;  215.193
561.574;  446.341;  119.885;  116.207
561.853;  684.206;  274.891;  303.197
562.132;  625.347;  -45.114;  182.206
562.411;  617.170;  396.879;  553.219
562.690;  139.638; -592.115; -458.792
562.969;  267.968;  472.888;  630.203
563.248; 1040.267; 2966.878; 2487.219
563.527;  291.487; -290.111; -408.800
563.806;  482.608; -650.127; -521.771
564.085;  466.845; -297.105; -206.810
564.364;  246.224; -594.117; -405.790
564.643;  598.471; -276.121; -223.781
564.922; 2326.699;  221.890;  397.198
565.201; 2194.603; -640.109; -700.803
565.479;  968.537; -297.115; -219.792
565.758;  353.500; -810.128; -712.770
566.037;  592.505; -155.109; -100.803
566.316;  248.031; -286.116;  -28.791
566.595;   67.140;  -17.115;  -12.793
566.873;  211.789; -166.111;  -79.801
567.152; -107.732; -490.113; -590.797
567.431;    9.726; -113.116;    6.210
567.709;   -3.874; -344.107; -212.807
567.988;  257.851; -810.114; -769.794
568.266;  643.540; -160.115;  -68.793
568.545;  442.103; -644.100; -514.819
568.824;  763.636;  160.885;  356.208
569.102;  631.851; -351.114; -235.794
569.381;  247.235; -492.116; -407.792
569.659;  -88.737; -553.113; -553.796
569.938;  -30.135; -743.122; -465.780
570.216;  130.308; -225.109; -225.804
570.494;  -81.245; -632.114; -572.795
570.773;   98.776;  202.879;  114.218
571.051;    2.152; -373.123; -357.778
571.330;   62.760; -221.113; -174.796
571.608;   40.725; -181.098; -173.823
571.886; -125.921; -671.111; -581.799
572.164; -127.422; -739.121; -621.782
572.443; -118.351; -562.105; -512.811
572.721;  -59.577; -399.117; -289.790
572.999;  -63.885; -280.117; -168.788
573.277;  190.241;  379.894;  620.191
573.555;  335.344;   94.894;   37.190
573.834; 1616.414;  -86.117; -114.788
574.112; 2012.329;  880.893;  811.193
574.390;  574.188; -143.111;  -96.801
574.668;   17.569;  -91.112;  -61.797
574.946;   -0.756; -165.106; -187.810
575.224;    7.603;   71.891;  -16.803
575.502;  -26.772; -200.116; -204.791
575.780; -185.930; -767.112; -829.798
576.058;  393.487; 1589.889; 1004.200
576.336;  -23.506; -210.110; -129.801
576.614; -104.529; -511.112; -340.798
576.891;   10.346; -711.115; -823.794
577.169;  576.418; -158.108; -285.805
577.447;  769.528;  169.893;  202.193
577.725;  444.676;  629.888;  854.201
578.003;   22.274;  -71.112; -371.798
578.280;  135.960; -208.104; -242.812
578.558;   60.644; -450.115; -422.793
578.836;  143.555; -210.114; -145.795
579.114;   23.169; -630.112; -670.797
579.391;  111.716;   -6.117;  -18.789
579.669; -151.953; -595.114; -704.794
579.947;  190.924; -326.107; -127.806
580.224;  307.024; -692.107; -524.806
580.502;  369.529;  127.893;   76.193
580.779;   41.524;  -42.117;   75.210
581.057; -130.292; -584.109; -470.804
581.334; -186.021; -726.102; -695.815
581.612;  103.345;   54.895;  511.190
581.889;  -55.905;  -83.101; -129.818
582.167;  -50.787; -298.099; -190.821
582.444; -192.811; -845.102; -814.817
582.721;  230.689;  657.899;  715.183
582.999;   69.310; -326.100; -167.821
583.276;  580.757; -812.123; -713.779
583.553;  840.783; -364.102; -294.816
583.831;  253.956; -607.104; -631.812
584.108;  129.415;  349.892;  174.195
584.385;   -8.922; -122.102;  -98.815
584.662; -130.710; -651.111; -828.801
584.940;   52.889;  204.889;  204.199
585.217;  -48.437;  -73.113; -303.796
585.494;   70.900;   71.890;  118.198
585.771;  221.809; -250.109; -354.804
586.048;  627.062; -196.113;  -76.796
586.325;  343.493; -721.110; -773.801
586.602;  176.461;  230.896;  213.188
586.879;  -88.095; -499.100; -580.820
587.156;   54.146; -156.105; -331.810
587.433;  -96.014; -701.102; -667.817
587.710;   88.471;  152.888;  234.202
587.987;  326.653; -264.105; -236.811
588.264; 1030.574;  315.888;  387.202
588.541; 1778.564;  -61.104;   26.187
588.818; 3327.212;   72.892;  171.196
589.095; 2897.658; -163.104; -174.812
589.371;  426.607; -459.109; -414.804
589.648;  -54.171; -581.107; -437.807
589.925;  -11.944; -517.114; -621.795
590.202;  -65.029; -741.112; -607.798
590.478;   64.755; -166.105;  -73.811
590.755;  353.320; -241.108; -132.806
591.032; 3061.895; -741.110; -699.802
591.308; 4060.475; -732.094; -790.831
591.585; 2162.195; -573.110; -560.802
591.862;   87.088;-1056.102; -950.817
592.138;   41.317; -475.108; -474.805
592.415;  156.762; -486.104; -495.813
592.691; 1951.259;  460.896;  518.188
592.968; 2240.528; -208.098; -123.824
593.244; 1095.527; -695.116; -595.790
593.521;   79.688; -105.102;  -42.817
593.797; -109.638; -810.122; -720.780
594.074;  390.744; -611.096; -588.826
594.350;  905.657;  828.905;  729.172
594.626;  332.490; -303.111; -283.801
594.903;   36.489; -643.101; -645.817
595.179;  276.767;  243.896;  418.187
595.455;   22.730; -136.107; -150.807
595.731;   -0.632;  -19.103;  -38.814
596.008;  -70.517; -464.111; -434.800
596.284;   40.608; -187.100; -242.820
596.560;   37.683; -501.093; -493.833
596.836;  218.348; -173.105;  -70.810
597.112;  374.718; -582.108; -437.805
597.388;  350.641;  -49.097;  -48.826
597.665;  210.866;  437.887;  530.203
597.941; -135.180; -572.089; -658.839
598.217;   37.599; -323.110; -293.802
598.493;  320.011;   61.891; -204.804
598.769;  606.101; -175.100;  -50.819
599.045;  300.421; -490.108; -562.806
599.321;   43.407; -193.100; -261.820
599.597;  154.110; -355.109; -476.804
599.872;  599.564;  409.896;  429.187
600.148;  460.243;  -61.097; -172.826
600.424;  400.327;   91.893;  202.193
600.700;  283.730; -170.107; -280.807
600.976;   97.536; -442.097; -464.825
601.252;  276.706; -226.109; -272.803
601.527;  176.665; -833.104; -840.813
601.803;  151.455; -453.105; -404.812
602.079;  201.501; -124.100; -118.819
602.354;  619.096; -620.092; -531.835
602.630;  998.763; -140.113; -482.796
602.906; 2958.595; -910.101; -863.818
603.181; 7923.301; -627.119; -534.786
603.457; 6866.440;   98.903; -278.826
603.733;  988.281; -605.120; -626.783
604.008; 1302.645; -245.106; -164.810
604.284; 3589.191; -636.101; -580.817
604.559; 3308.376;   -3.112;  -42.799
604.835;  600.448; -163.105; -225.810
605.110;  456.414; -732.099; -892.821
605.385;  840.287;  224.907;  267.167
605.661;  763.361; -625.095; -729.829
605.936; 1299.521; -664.108; -737.806
606.211; 1231.177;  -17.103; -170.815
606.487;  216.149; -329.114; -376.794
606.762;  -73.999; -791.119; -745.786
607.037;  -42.252; -501.105; -433.810
607.313; -133.748; -589.096; -574.828
607.588;  -25.856; -375.106; -137.810
607.863;   80.995;  -28.101; -143.818
608.138;  306.098;  513.890;  516.198
608.413;  -29.881; -576.099; -592.822
608.688;   31.617; -203.108; -267.805
608.964;  210.637; -509.106; -218.809
609.239;  285.145; -107.105; -212.810
609.514;  379.055;  281.895;  240.188
609.789;  769.160; -187.104; -716.812
610.064; 1020.051; -435.096; -609.827
610.339; 1046.207; -855.109; -799.804
610.614; 1377.208; -131.100; -315.820
610.889;  771.255;  215.895;  107.188
611.163;   13.756; -407.104; -591.812
611.438;   88.051;   81.886; -167.794
611.713;  -43.209; -467.101; -499.817
611.988;   14.694; -144.101; -328.818
612.263; -104.621; -771.102; -717.815
612.538;  334.562;  385.887;  251.204
612.812;  114.409; -832.100; -911.820
613.087;  138.925; -358.098; -338.823
613.362;  -86.570; -497.107; -557.807
613.637;   95.672;  261.897;  138.186
613.911;  -21.704; -256.092; -345.835
614.186;  136.028; -249.107; -292.807
614.460;  702.513; -842.081; -758.854
614.735;  935.749;  -55.087;  -17.843
615.010;  240.236;   43.912;  -82.841
615.284;  398.716;  360.892;  246.195
615.559;  342.295; -792.092; -955.835
615.833;  362.016;  -76.099;  -87.822
616.108;  -10.690; -225.090; -390.837
616.382;  237.251;  274.913;  402.156
616.656;  191.510; -241.090; -232.837
616.931;  545.617; -785.099; -700.822
617.205; 1193.666; -973.104; -979.813
617.480; 1173.432;  -91.125;    6.225
617.754;  153.429; -396.125; -128.774
618.028;    8.692; -369.129; -382.768
618.302;  110.914;   73.892;  -25.805
618.577; -109.627; -371.103; -518.815
618.851; -143.198; -399.109; -600.803
619.125; -110.363; -335.134; -378.759
619.399;  -33.834; -244.104; -374.813
619.673;  -80.364; -330.115; -515.792
619.947;  -59.046; -333.114; -448.795
620.222;  -48.809; -198.110; -204.801
620.496;    3.778;  -47.121;  -96.782
620.770;   16.668; -187.122;  -93.781
621.044;  316.546;  323.895;  346.190
621.318;  849.181; -653.120; -614.783
621.592;  776.579; -430.121; -409.783
621.866;  353.877; -476.112; -572.799
622.140;    7.628; -207.116; -356.791
622.413;   98.282;  138.889;  112.200
622.687;  -86.009; -746.101; -492.817
622.961;   36.814; -130.108; -143.805
623.235; -143.316; -633.111; -661.800
623.509; -213.245; -816.105; -848.811
623.783;   23.225;  -12.107;   48.193
624.056;  -39.617; -254.120; -280.783
624.330;   65.169;   63.888;   -3.797
624.604;   74.424; -271.116; -355.790
624.877;   88.996;  180.890;   26.198
625.151;   43.348; -249.114; -238.794
625.425;  -61.232; -150.103; -283.814
625.698; -109.606; -367.119; -374.785
625.972; -182.801; -799.110; -765.802
626.245;  159.427;  685.884;  484.210
626.519;  -98.812; -426.120; -340.784
626.792;  -43.370; -192.107; -380.807
627.066; -175.341; -485.122; -662.779
627.339; -160.006; -736.110; -663.802
627.613;   69.486;  351.880;  148.216
627.886;  109.602;  187.891; -612.803
628.160;  -62.019;  312.880; -161.783
628.433; -177.365; -695.125; -703.775
628.706; -151.612; -517.120; -615.784
628.979;   69.943;  296.876;  117.223
629.253; -159.000; -785.119; -833.786
629.526;  427.416; -334.126; -253.772
629.799;  321.952; -641.123; -479.778
630.072;  146.194; -497.128; -516.769
630.346; -185.873;-1115.116;-1080.790
630.619;  476.331; -467.107; -545.808
630.892;  804.384;  709.889;  593.200
631.165;  500.466;  790.896;  679.187
631.438; -193.126;-1092.112;-1055.798
631.711;  116.356;  453.877;  257.221
631.984; -131.579; -523.117; -624.789
632.257; -150.684; -636.117; -681.789
632.530;  -77.405; -412.119; -433.785
632.803;   67.745; -109.115;    7.207
633.076; -135.552; -360.123; -422.777
633.349;   70.699;  173.872;  121.231
633.622;  -88.207; -187.119; -240.785
633.895; -235.117; -903.120; -823.783
634.167; -136.781; -496.126; -525.773
634.440;    1.734;  -19.116; -137.792
634.713;   32.899;  -22.119; -120.786
634.986;  180.586;  593.871;  453.233
635.258; -147.257; -507.115; -597.793
635.531;  219.811;  742.882; -343.788
635.804;  -37.781; -303.117; -318.789
636.077; -209.370; -830.116; -852.791
636.349;  -52.959; -586.115; -474.793
636.622;  712.815; 1695.874; 1392.228
636.894;  214.388; -474.120; -909.784
637.167;  128.208; -836.127; -789.771
637.439;   49.303; -278.128; -213.770
637.712;  -87.083; -312.126; -293.772
637.984; -185.669; -635.116; -707.791
638.257;  565.149;  515.877;  488.222
638.529;  590.537; -881.125; -924.776
638.802;  272.894; -508.128; -449.769
639.074; -238.434; -927.122; -952.781
639.346; -246.674; -942.135; -930.757
639.619;   29.445;  -79.142; -319.744
639.891;    6.059;  -83.122; -168.779
640.163; -146.939; -689.122; -756.780
640.435;   76.363;  273.878;  103.220
640.708;   18.366;  -72.122; -132.780
640.980;  -79.332; -366.122; -362.781
641.252;  253.770;  -25.121;  -71.781
641.524; 2363.172;  580.879;  573.219
641.796; 2148.075;-1094.121; -907.782
642.068;  404.377; -191.121; -300.782
642.340; -125.021; -486.121; -566.783
642.613;   86.182;  294.880;  323.217
642.885; -210.616; -787.120; -878.783
643.157; -152.814; -810.120; -658.784
643.428;  117.088;  170.880;  218.216
643.700; -117.909; -498.120; -425.784
643.972;  -45.607;  -16.119; -133.785
644.244; -173.305; -474.119; -559.785
644.516;  -69.203; -250.119; -114.786
644.788;  180.800;  662.881;  548.214
645.060;  -32.998;  -12.119; -124.786
645.332; -189.996; -525.118; -535.787
645.603;  137.907;  479.882;  342.213
645.875; -121.991; -334.118; -369.787
646.147;  338.611; 1487.882; 1242.212
646.418; -141.787; -931.117; -918.788
646.690;   70.716; -714.117; -715.789
646.962;  -12.082; -413.117; -451.789
647.233;   15.220;   15.883;   11.211
647.505; -168.677; -595.117; -475.790
647.776;   63.825;  328.884;  229.210
648.048;  -24.673; -248.116; -418.790
648.320; -139.571; -752.116; -679.791
648.591; -278.168;-1055.116; -958.791
648.862; -148.366; -505.116; -577.792
649.134;   55.536;  115.885;  198.208
649.405; -110.062; -661.115; -618.792
649.677;  -99.559; -475.115; -598.793
649.948;  -27.557; -181.115; -296.793
650.219;   -1.255;  -37.115; -147.793
650.491; -130.452; -431.114; -520.794
650.762; -223.450; -705.114; -731.794
651.033; -140.848; -437.114; -424.795
651.304; -205.846; -743.114; -728.795
651.576; -153.043; -680.114; -645.795
651.847;  -39.241; -250.113; -140.796
652.118;  -21.139;  -32.113; -189.796
652.389; -198.736; -639.113; -722.796
652.660;  -17.834; -147.113;  -89.797
652.931; -252.932; -897.112; -871.797
653.202; -140.130; -382.112; -541.798
653.473; -117.427; -633.112; -533.798
653.744;  133.375; -595.112; -590.798
654.015;  145.077; -356.112; -303.799
654.286; -135.221; -642.111; -663.799
654.557; -103.218; -586.111; -521.799
654.828; -310.616;-1114.111;-1088.800
655.099; -106.514; -404.111; -291.800
655.370; -116.811; -427.111; -543.801
655.641; -204.609; -656.110; -714.801
655.911; -172.007; -618.110; -638.801
656.182;  143.995;  437.890;  387.198
656.453;  254.798;  830.890;  746.198
656.724; -106.700; -466.110; -426.802
656.994; -135.898; -553.109; -568.803
657.265; -214.995; -862.109; -873.803
657.536; -143.093; -500.109; -377.804
657.806; -155.991; -561.109; -593.804
658.077; -228.589; -866.109; -950.804
658.347; -132.486; -523.108; -598.805
658.618; -225.884; -646.108; -694.805
658.888;  -45.182;  -41.108;  112.195
659.159; -116.080; -432.108; -548.806
659.429;  -32.977; -292.108; -349.806
659.700;  -44.775; -435.107; -390.807
659.970;  -45.173; -370.107; -359.807
660.241;  -31.270; -754.107; -921.807
660.511;  598.232; -147.107; -174.808
660.781;   63.234; -793.106; -748.808
661.052;  -59.864; -222.106; -381.808
661.322;   12.739;   21.894;   -9.809
661.592;   74.241;  257.894;  148.191
661.862; -121.357; -369.106; -382.810
662.133; -173.355; -551.105; -502.810
662.403; -246.052; -770.105; -676.810
662.673;  -66.850; -256.105; -213.811
662.943; -141.948; -612.105; -551.811
663.213;   16.655;  -85.105;  -81.811
663.483; -152.043; -593.104; -568.812
663.753;  -63.841; -194.104; -152.812
664.023;   35.161;   68.896;  -32.813
664.293;  -82.536; -319.104; -126.813
664.563; -211.534; -694.104; -648.813
664.833; -211.532; -743.103; -608.814
665.103; -266.229; -730.103; -793.814
665.373; -214.427; -766.103; -806.814
665.643; -200.825; -863.103; -918.815
665.913;    0.177; -534.103; -714.815
666.182;   99.680; -685.102; -719.816
666.452;  284.482;  -22.102;  -89.816
666.722;  -79.616; -724.102; -784.816
666.992; -248.914; -948.102; -921.817
667.261; -191.711; -824.102; -808.817
667.531;  256.891;  134.899;   45.183
667.801;  626.293; -440.101; -412.818
668.070;  426.196;  714.899;  697.182
668.340; -224.702; -883.101; -840.819
668.609;  192.800;  588.900;  301.181
668.879; -153.798; -490.100; -558.819
669.149; -147.195; -539.100; -516.820
669.418; -183.193; -698.100; -726.820
669.688;  -93.391; -482.100; -666.820
669.957;   21.112; -423.099; -546.821
670.226;  -53.986; -268.099; -331.821
670.496; -156.284; -431.099; -635.822
670.765; -115.782; -418.099; -501.822
671.034; -242.679; -872.099; -828.822
671.304;  -12.377;   55.902; -111.823
671.573; -322.275;-1085.098; -957.823
671.842;   78.127; -380.098; -294.823
672.112;  -38.070; -692.098; -586.824
672.381;    0.432; -239.098; -214.824
672.650; -227.966;-1005.097;-1021.825
672.919; -155.663; -631.097; -507.825
673.188; -190.361; -681.097; -878.825
673.457; -306.559;-1101.097;-1143.826
673.726; -155.157; -579.096; -646.826
673.995;  -62.954; -533.096; -479.826
674.265;  -28.352; -263.096; -333.827
674.534;   11.650; -183.096; -235.827
674.802;  -39.947; -618.096; -703.828
675.071; 1268.255; -886.095; -801.828
675.340; 4540.457; -464.095; -339.828
675.609; 1586.959;  103.905;   82.171
675.878;  -24.838; -949.095; -893.829
676.147;   64.564;  -26.095;   -8.829
676.416;  103.166; -210.094; -294.830
676.685; 1027.268; 1000.906; -622.830
676.953;   69.971; -603.094; -452.831
677.222;  -20.927; -193.094; -273.831
677.491;    5.375;  -24.094; -127.831
677.759;  -16.422;   11.907;  172.168
678.028;  -16.420; -279.093; -222.832
678.297;   31.882;   71.907;  197.168
678.565; -248.816; -898.093; -944.833
678.834;  -94.213; -311.093; -268.833
679.102; -123.311; -411.092; -391.834
679.371; -251.809; -898.092; -727.834
679.639; -258.806; -797.092; -786.834
679.908; -214.604; -794.092; -724.835
680.176; -304.902; -895.091; -941.835
680.445; -130.200; -346.091; -352.835
680.713;   38.103;  -58.091;  -23.836
680.982; -170.195; -523.091; -525.836
681.250; -196.493; -578.091; -507.837
681.518; -171.891; -534.090; -751.837
681.787;  -25.988; -204.090; -167.837
682.055; -107.286; -490.090; -422.838
682.323; -287.884; -993.090; -992.838
682.591;   53.719; -216.090; -538.838
682.859;  127.721;    9.911;  -35.839
683.128;   71.523;  232.911;  497.161
683.396; -333.975;-1102.089;-1122.840
683.664;  -70.572; -241.089;   21.160
683.932;   45.630;  144.911;  -76.840
684.200;  -95.468; -576.088; -320.841
684.468;  -30.666;  -73.088; -124.841
684.736;  -62.563; -214.088; -175.841
685.004; -242.061;-1024.088; -982.842
685.272; -153.959; -880.088; -774.842
685.540; -154.056; -499.087; -557.843
685.808; -188.454; -651.087; -682.843
686.076; -238.152; -894.087; -969.843
686.343; -107.750; -601.087; -815.844
686.611;   60.653; -195.087; -224.844
686.879;  637.555; -530.086; -553.844
687.147; 3863.057; -483.086; -480.845
687.414; 1085.460;  -12.086; -169.845
687.682;  -54.238; -658.086; -757.846
687.950;  458.664;  259.915;  263.154
688.217;  -48.834; -792.085; -760.846
688.485;   -1.831; -632.085; -636.847
688.753;  620.371;  -11.085; -102.847
689.020;   58.873; -820.085; -851.847
689.288; -184.725; -853.084; -787.848
689.555;   -7.822; -195.084; -148.848
689.823;  -61.720; -241.084; -345.849
690.090; -142.218; -546.084; -651.849
690.358; -293.115; -877.084; -897.849
690.625;   60.487;  120.917;   45.150
690.892; -141.211; -403.083; -369.850
691.160;   19.391;   72.917;  -35.850
691.427;   36.494;  141.917;  130.149
691.694; -248.504; -855.083; -929.851
691.962; -285.202;-1177.082;-1060.852
692.229;   31.201;  127.918;   56.148
692.496;  117.103;  130.918;  -49.852
692.763;  -10.995; -164.082; -201.853
693.031; -135.993; -739.082; -716.853
693.298;  -73.490; -509.081; -368.853
693.565;  419.812; -155.081; -163.854
693.832; 1401.914;   -5.081;   -9.854
694.099;   99.916; -643.081; -642.855
694.366; -155.281; -882.081; -896.855
694.633; -141.479; -920.080; -633.855
694.900; 1574.623; 4367.920; -114.856
695.167;  534.326; -214.080; -380.856
695.434;  101.528; -646.080; -623.856
695.701;  320.630;  121.921;  -61.857
695.968;  568.832; -365.079; -361.857
696.234; 1375.335; -415.079; -646.858
696.501;13708.737; -776.079; -614.858
696.768; 6387.639; -554.079; -617.858
697.035;  383.042; -632.078; -667.859
697.302;   21.044; -448.078; -552.859
697.568;  -14.154; -458.078; -497.859
697.835;  -94.152; -683.078; -624.860
698.102;  -33.349; -498.078; -407.860
698.368;  190.453;  384.923;  396.139
698.635;  -48.045;  -47.077; -424.861
698.901;  -23.943; -240.077; -348.861
699.168;   77.160; -534.077; -456.862
699.435;  108.862;  -72.077;  -13.862
699.701; -248.336; -868.076; -764.862
699.968;  -67.333;  144.924; -441.863
700.234; -204.131; -783.076; -822.863
700.500; -112.329; -448.076; -539.864
700.767;   38.473;   -1.075;   26.136
701.033; -233.724;-1015.075; -963.864
701.299;  -84.222; -450.075; -483.865
701.566;  278.680;  950.925;  763.135
701.832;   98.083;  -31.075;  -76.865
702.098; -196.515;-1054.074;-1034.866
702.365; -216.713;-1098.074;-1030.866
702.631; -101.511;-1038.074;-1063.867
702.897; 1785.492; -765.074; -676.867
703.163; 2656.394;  348.926;  254.133
703.429;  167.396; -256.073; -273.868
703.695; -100.302; -796.073; -792.868
703.961;   31.001; -214.073; -210.868
704.227;  -92.697; -630.073; -725.869
704.493;  273.705;  613.927;  510.131
704.759;  -46.292; -565.072; -540.870
705.025;   66.710; -203.072; -194.870
705.291;  -18.788; -666.072; -562.870
705.557;  370.614;  719.928;   34.129
705.823;   15.017; -742.072; -694.871
706.089;  195.219; -307.071; -326.871
706.355;  566.521; -315.071; -244.872
706.620; 7813.223; -776.071; -729.872
706.886; 9839.726; -309.071; -362.873
707.152;  858.328; -818.070; -973.873
707.418; -129.670;-1153.070;-1186.873
707.683;    3.433; -550.070; -530.874
707.949;  -64.365; -547.070; -578.874
708.215;   12.837; -129.070; -207.874
708.480;  -66.061; -520.069; -420.875
708.746;  146.842;   68.931;   28.125
709.011; -112.956; -578.069; -612.876
709.277; -112.654; -538.069; -543.876
709.542;  -74.451; -428.069; -387.876
709.808;   35.251;  -59.068;   89.123
710.073; -177.147; -577.068; -695.877
710.339;  -20.545; -242.068; -228.877
710.604;   70.258; -780.068; -845.878
710.869;  359.260; -277.068; -366.878
711.135; -121.138; -715.067; -628.879
711.400; -144.236; -507.067; -608.879
711.665;  -92.533; -404.067; -479.879
711.931; -138.931; -661.067; -677.880
712.196; -243.929; -876.067; -954.880
712.461;  110.674; -402.066; -490.880
712.726;  100.676; -727.066; -771.881
712.991; -131.322; -647.066; -664.881
713.256;  -33.120; -350.066; -332.882
713.521;  -81.417; -417.065; -381.882
713.787;  -92.515; -454.065; -472.882
714.052;  -75.813; -214.065; -400.883
714.317; -219.510;-1045.065; -981.883
714.581; 1442.492; -374.065; -268.883
714.846; 1718.594; -822.064; -888.884
715.111;  229.096;  261.936;  257.116
715.376;  -45.901;  -86.064; -223.885
715.641;  -12.699; -365.064; -367.885
715.906;  291.903;   15.936; -551.885
716.171;  227.605;  221.937;  209.114
716.436;   61.808;  -78.063; -104.886
716.700; -204.690; -818.063; -692.886
716.965; -222.988; -794.063; -807.887
717.230; -120.185; -339.063; -392.887
717.494;    1.617;  -40.062; -134.888
717.759; -160.481; -784.062; -640.888
718.024;   50.321;  269.938;  250.112
718.288;  175.524;  685.938;  395.111
718.553; -286.374; -803.062; -977.889
718.817; -237.272; -883.061; -899.889
719.082;  -25.969; -115.061; -125.890
719.346; -266.367;-1000.061; -947.890
719.611;  -63.365; -300.061; -255.891
719.875; -194.763; -568.060; -537.891
720.140;  -96.060; -453.060; -603.891
720.404;   97.142; -136.060; -249.892
720.668; 1020.444; -475.060; -411.892
720.933;  373.346;  146.940;  137.108
721.197; -170.351; -667.059; -600.893
721.461; -239.549; -851.059; -826.893
721.725;   34.253;  -21.059; -250.894
721.990;  -64.944; -284.059; -204.894
722.254;  -32.842;  -26.059; -108.894
722.518; -105.040; -286.058; -442.895
722.782; -167.938; -743.058; -594.895
723.046;  246.765;  614.942;  570.105
723.310;  120.567;  374.942;  210.104
723.574; -179.131; -654.058; -614.896
723.838; -171.428; -576.057; -642.897
724.102;  -50.326; -226.057; -239.897
724.366; -239.024;-1032.057; -978.897
724.630; -195.022; -749.057; -571.898
724.894; -145.619; -722.057; -514.898
725.158;  -11.617;   38.944; -295.898
725.422;  -67.815; -394.056; -327.899
725.685; -104.013; -441.056; -349.899
725.949; -135.210; -566.056; -519.900
726.213; -170.508; -732.056; -811.900
726.477;  146.494;-1020.055; -933.900
726.740;  182.997; -274.055; -104.901
727.004;  477.999; -384.055; -510.901
727.268; 4261.401; -442.055; -400.901
727.531;  989.603; -961.055; -775.902
727.795;  -92.594; -713.054; -673.902
728.059; -112.792; -552.054; -557.903
728.322; -152.890; -841.054; -669.903
728.586;  -24.488; -692.054; -701.903
728.849; -169.185; -695.053; -756.904
729.112; -215.083; -812.053; -912.904
729.376; -229.981; -959.053; -905.904
729.639; -125.478; -536.053; -536.905
729.903; -197.276; -733.053; -699.905
730.166;  -73.174; -437.052; -399.906
730.429;  -21.172; -317.052; -468.906
730.693; -110.169; -355.052; -894.906
730.956;  397.633;  810.948;  651.093
731.219;  840.735; -310.052; -103.907
731.482;   60.438;-1003.051; -894.907
731.745;   20.340; -794.051; -935.908
732.009;   40.742;  -30.051;   50.092
732.272; -184.956; -904.051; -771.909
732.535;  -35.353; -300.051; -310.909
732.798; -294.551;-1083.050;-1166.909
733.061; -114.049; -430.050; -456.910
733.324;   13.153;   31.950; -180.910
733.587;  176.056;  290.950;  365.090
733.850; -100.442; -973.049;-1050.911
734.113;   92.160;   33.951;   32.089
734.376;   -6.137; -328.049; -447.912
734.639;  455.465; 1188.951; 1011.088
734.901;  101.767; -180.049; -402.912
735.164;  674.569; -883.048; -837.913
735.427; 1501.872; -166.048; -355.913
735.690;  163.274; -205.048; -234.913
735.952; -126.424; -923.048; -925.914
736.215; -122.021;-1113.048;-1009.914
736.478;    3.681; -771.047; -774.915
736.740;  316.883;   33.953;  129.085
737.003;  956.085; -658.047; -672.915
737.266; 4895.088;  -94.047;   46.084
737.528;  460.890; -682.047; -660.916
737.791;  422.092; -316.046; -327.916
738.053; 1203.394;  465.954;  649.083
738.316;14862.397; -162.046; -136.917
738.578; 8903.699; -770.046; -736.918
738.841;  528.801; -382.046; -446.918
739.103;  223.504; -875.045; -777.918
739.365;  670.306;   79.955;  -69.919
739.628;  -47.192; -884.045; -805.919
739.890;  -78.290; -758.045; -710.919
740.152;  -94.787; -692.044; -754.920
740.414;  -10.385; -408.044; -359.920
740.677;  -92.783; -785.044; -634.921
740.939;  -73.780; -587.044; -487.921
741.201;  331.022; -432.044; -572.921
741.463;   15.224; -689.043; -745.922
741.725;   55.026;  -21.043; -199.922
741.987;  106.029;  220.957;  116.078
742.249;  -39.169; -751.043; -859.923
742.511;  224.833; -703.043; -794.923
742.773;  -50.865; -546.042; -546.924
743.035;  268.338;  796.958;  533.076
743.297; -145.360; -963.042;-1013.924
743.559;  946.942; -278.042; -262.925
743.821;   26.745; -735.042; -744.925
744.083;    5.647;  -44.041; -149.925
744.345; -184.551; -869.041; -892.926
744.607;   92.151;   75.959;  122.074
744.868;  -88.046; -490.041; -554.927
745.130; -204.644; -994.041;-1008.927
745.392;  100.658;   -1.040;  -44.927
745.653;  -29.439; -411.040; -378.928
745.915;  323.563;  896.960;  631.072
746.177;  108.165;   35.960;  -43.928
746.438;  -36.433; -428.040; -543.929
746.700; -113.830; -947.039; -988.929
746.961;  -10.328; -659.039; -740.930
747.223;  198.374; -190.039;  -74.930
747.484;  122.876; -391.039; -471.930
747.746;  185.579;  -23.038; -106.931
748.007;   81.681; -647.038; -689.931
748.269;  375.583; -468.038; -440.931
748.530;  494.786; -852.038; -638.932
748.791;  322.088; -354.038; -420.932
749.053;  640.490;  286.963;  163.067
749.314;  641.392; -236.037; -169.933
749.575;  588.295; -945.037; -905.933
749.836; 1141.397; -217.037;   86.066
750.098; 3793.199;  -60.037;  -21.934
750.359;46717.602;  414.964;  555.066
750.620;10284.204; -121.036; -220.935
750.881; 1286.706; -585.036; -513.935
751.142; 1848.208; -950.036; -938.936
751.403;22577.811; -789.036; -705.936
751.664; 8201.913;-1034.035; -999.936
751.925;  664.915; -175.035; -262.937
752.186;  393.517; -298.035; -278.937
752.447;  165.020; -590.035; -445.937
752.708;   34.822; -532.035; -648.938
752.969;   -0.376; -566.034; -576.938
753.230;  -48.573; -777.034; -672.939
753.491;  -19.671; -650.034; -631.939
753.751;  110.831;  109.966;   19.061
754.012;  216.333;  258.967;  181.060
754.273;   89.936; -174.033;  -71.940
754.534;   -0.362; -487.033; -580.940
754.794; -196.360; -926.033; -911.941
755.055;  329.242; 1051.967;  881.059
755.316;  -68.855; -700.032; -566.942
755.576;  -65.053; -606.032; -576.942
755.837; -101.651; -527.032; -695.942
756.097;  -50.848; -530.032; -564.943
756.358; -150.646; -725.032; -770.943
756.618;  -88.044; -705.031; -641.943
756.879;   19.758; -254.031; -349.944
757.139; -238.939;-1098.031;-1116.944
757.400; -116.037; -538.031; -553.945
757.660;  -22.635; -365.031; -401.945
757.920;    3.068; -266.030; -228.945
758.181;  -17.630; -468.030; -351.946
758.441; -185.128; -870.030; -809.946
758.701;  -26.826; -308.030; -215.946
758.961;  -14.223; -220.030; -278.947
759.222;  -73.821; -574.029; -502.947
759.482; -134.619; -683.029; -723.948
759.742; -149.417; -706.029; -547.948
760.002;   30.786;  -83.029; -143.948
760.262;   79.688;   50.972;  182.051
760.522;  -87.510; -498.028; -574.949
760.782;  -90.407; -738.028; -612.949
761.042;  -75.505; -618.028; -573.950
761.302;   98.997;   55.972;  -18.950
761.562;   90.499; -164.027; -154.951
761.822;  102.902; -710.027; -551.951
762.082; -126.396;-1104.027;-1093.951
762.342;  118.106; -328.027; -403.952
762.601;   77.409; -567.027; -506.952
762.861;  475.211; -281.026; -207.952
763.121;  626.413; -406.026; -411.953
763.381;10993.715; -499.026; -485.953
763.640; 9793.618; -139.026; -307.954
763.900;  468.320; -242.026; -203.954
764.160;  122.322; -458.025; -491.954
764.419;  -48.576; -726.025; -782.955
764.679; -147.973; -795.025; -726.955
764.939;   -3.571; -124.025; -210.955
765.198; -117.569; -608.025; -563.956
765.458; -132.666; -710.024; -612.956
765.717; -150.764; -454.024; -590.957
765.976;  -89.362; -428.024; -411.957
766.236; -130.060; -475.024; -610.957
766.495;   80.143;  260.977;   73.042
766.755; -220.155;-1090.023; -987.958
767.014;  -33.953; -594.023; -665.958
767.273;  -66.450; -373.023; -397.959
767.533;  -53.848; -228.023; -307.959
767.792;  -25.346; -151.022; -188.960
768.051;  -71.844; -228.022; -276.960
768.310; -167.241; -546.022; -650.960
768.569;   30.161; -161.022;    4.039
768.828;  -27.037; -285.022; -363.961
769.088; -225.535;-1050.021; -942.961
769.347; -169.332; -755.021; -599.962
769.606; -176.330; -876.021; -857.962
769.865; -235.928;-1016.021;-1033.963
770.124;    3.775; -411.021; -336.963
770.383; -110.823; -778.020; -910.963
770.641;  -11.321; -398.020; -400.964
770.900; -172.319; -953.020; -846.964
771.159; -123.516; -851.020; -951.964
771.418;  -70.314; -917.020; -779.965
771.677;  171.588; -224.019; -293.965
771.936;  118.891; -794.019; -865.966
772.194; 3700.693; -465.019; -437.966
772.453;13977.495; -213.019; -391.966
772.712; 1067.897;  416.982;  329.033
772.970;  193.900;   32.982;   63.033
773.229;  206.702;  -22.018;  102.033
773.488; -147.096; -814.018; -770.968
773.746;  171.206;  296.982;  335.032
774.005;   55.909;  190.983;  -22.969
774.263;   76.511;  243.983;  177.031
774.522; -123.887; -422.017; -548.969
774.780; -107.484; -484.017; -417.970
775.039; -116.982; -551.017; -531.970
775.297;   26.920; -135.016; -351.970
775.555; -174.678; -489.016; -612.971
775.814; -184.275; -618.016; -570.971
776.072; -182.573; -749.016; -740.971
776.330; -175.371; -630.016; -520.972
776.589; -197.769; -703.015; -721.972
776.847; -216.066; -645.015; -624.973
777.105; -303.064;-1016.015;-1032.973
777.363; -106.262; -459.015; -454.973
777.621; -227.659; -660.015; -717.974
777.879;   33.843;  -42.014;   32.026
778.138; -152.155; -554.014; -717.974
778.396; -180.953; -585.014; -526.975
778.654; -284.850;-1015.014; -970.975
778.912;  -80.948; -269.014; -371.976
779.170; -202.846; -880.013; -803.976
779.427; -250.643; -922.013; -897.976
779.685; -259.441; -880.013; -832.977
779.943; -165.139; -654.013; -593.977
780.201; -258.137; -964.012; -883.978
780.459; -174.534; -651.012; -610.978
780.717; -118.732; -440.012; -390.978
780.974; -154.530; -449.012; -490.979
781.232; -125.028; -358.012; -338.979
781.490; -123.825; -551.011; -472.979
781.747; -160.923; -555.011; -476.980
782.005;  125.579;  462.989;  254.020
782.263; -277.318; -542.011;-1004.981
782.520; -108.016; -326.011; -501.981
782.778; -318.314;-1013.010;-1051.981
783.035; -289.412; -962.010; -938.982
783.293;  -77.609; -248.010; -206.982
783.550;  -73.807; -134.010; -198.982
783.808; -230.705; -764.010; -776.983
784.065; -264.202; -745.009; -874.983
784.322;  -26.700;   25.991;  -86.984
784.580; -240.898; -915.009; -771.984
784.837; -153.296; -392.009; -466.984
785.094; -228.493; -783.009; -762.985
785.352;  -98.891; -304.008; -404.985
785.609; -231.389; -934.008; -839.985
785.866; -120.487; -345.008; -401.986
786.123; -141.584; -639.008; -583.986
786.380; -184.582; -665.008; -604.987
786.637;  -32.080; -225.007; -380.987
786.895;  -41.477; -456.007; -543.987
787.152;  -27.575; -135.007; -267.988
787.409;  -27.173; -123.007; -225.988
787.666; -103.671; -299.006; -378.988
787.923; -162.468; -616.006; -695.989
788.179; -137.366; -551.006; -584.989
788.436; -181.264; -585.006; -585.990
788.693;   -2.761;  -92.006;  -87.990
788.950;  241.841; -125.005; -112.990
789.207;  195.243; -381.005; -372.991
789.464;  -78.055; -161.005; -301.991
789.720;   27.148;  150.995;  110.009
789.977; -302.050;-1003.005; -671.992
790.234;   -7.648;   44.996;  -66.992
790.490; -265.246; -884.004;-1031.993
790.747;    1.557;  -85.004;   22.007
791.004;  -43.541; -426.004; -348.993
791.260; -119.739; -430.004; -560.994
791.517; -170.936; -843.003; -788.994
791.773;  -54.134; -379.003; -342.994
792.030; -192.532; -596.003; -660.995
792.286; -150.630; -686.003; -636.995
792.543;   40.373;  -74.002; -159.995
792.799;  -57.425; -584.002; -382.996
793.055; -323.823;-1179.002;-1210.996
793.312; -155.820; -827.002; -816.997
793.568; -129.418; -746.002; -599.997
793.824;   36.384; -226.001; -284.997
794.081;    3.486; -447.001; -508.998
794.337;   78.089; -664.001; -561.998
794.593; 2250.891; -319.001; -271.999
794.849; 8311.093; -746.001; -772.999
795.105;  381.795; -270.000; -261.999
795.361;   18.298; -490.000; -457.000
795.617; -118.800; -875.000; -945.000
795.873;  -40.200; -360.000; -407.000
796.129;  -51.100; -368.000; -306.000
796.385;   13.400; -124.000; -156.000
796.641;  176.400;  412.000;  550.000
796.897; -123.500; -666.000; -635.000
797.153;  174.000;  453.000;  357.000
797.409; -181.600; -785.000; -868.000
797.665; -144.100; -625.000; -732.000
797.921; -166.900; -775.000; -762.000
798.176; -135.600; -744.000; -747.000
798.432; -119.700; -824.000; -596.000
798.688; -176.300;-1174.000;-1078.000
798.943;  165.800; -165.000; -147.000
799.199;  -59.100;-1005.000; -959.000
799.455;  434.000;  369.000;  316.000
799.710;  129.000; -813.000; -380.000
799.966;  388.700; -162.000; -160.000
800.221;  633.800; -638.000; -721.000
800.477;15235.600; -743.000; -710.000
800.732;10323.200; -773.000; -800.000
800.988;  876.800;  205.000;  -19.000
801.243; 3191.400; -454.000; -344.000
801.498;10485.600; -814.000; -739.000
801.754;  629.700; -289.000; -163.000
802.009;  115.200; -257.000; -335.000
802.264; -130.500; -967.000;-1033.000
802.520;   64.000;  222.000;   -3.000
802.775; -103.500; -524.000; -359.000
803.030;  136.200;  395.000;  356.000
803.285; -216.700; -840.000; -903.000
803.540; -115.300; -686.000; -699.000
803.795; -117.500; -648.000; -583.000
804.051;  -35.600; -279.000; -346.000
804.306;  105.500;  168.000;  128.000
804.561;  255.400;  451.000;  362.000
804.816;  301.700;  714.000;  861.000
805.071;   25.100; -185.000; -280.000
805.325;  255.500; -257.000; -427.000
805.580; -173.800; -841.000; -877.000
805.835;  -18.100; -204.000; -297.000
806.090; -118.200; -760.000; -676.000
806.345;  -23.400; -344.000; -264.000
806.600;  -85.800; -549.000; -632.000
806.854;  -73.300; -408.000; -538.000
807.109;  -47.200; -493.000; -577.000
807.364;   68.000; -407.000; -328.000
807.618;   -7.400; -415.000; -381.000
807.873;    1.800; -470.000; -494.000
808.128;  119.700; -257.000; -518.000
808.382;  112.200; -224.000; -332.000
808.637;   82.700; -440.000; -511.000
808.891;  286.800; -257.000; -180.000
809.146;   52.400; -902.000; -794.000
809.400;  300.200; -848.000; -923.000
809.654;  433.700; -779.000; -551.000
809.909;  610.300; -841.000; -927.000
810.163;10045.300; -813.000; -651.000
810.418;20034.400; -940.000; -861.000
810.672; 1224.000; -685.000; -690.000
810.926;  891.200; -993.000; -973.000
811.180; 2102.100; -439.000; -372.000
811.434;45584.500;  240.000;  135.000
811.689;13728.700; -231.000; -365.000
811.943;  675.700; -936.000; -953.000
812.197;  417.100; -893.000; -671.000
812.451;  159.600; -379.000; -514.000
812.705;  -65.600; -809.000; -619.000
812.959;  -89.900; -263.000; -388.000
813.213;   24.700; -283.000; -209.000
813.467;  187.900;  470.000;  253.000
813.721; -204.700; -764.000; -792.000
813.975; -190.300; -826.000; -877.000
814.229;  128.700;  430.000;  353.000
814.482; -148.000; -517.000; -566.000
814.736; -194.400; -766.000; -744.000
814.990; -227.600; -779.000; -872.000
815.244;  -50.300; -228.000; -285.000
815.497; -135.600; -636.000; -601.000
815.751;   21.500; -141.000;   82.000
816.005; -153.200; -470.000; -586.000
816.258;  -96.900; -510.000; -363.000
816.512; -179.400; -693.000; -610.000
816.766;   59.700;  121.000;  157.000
817.019;   78.600;  148.000;  149.000
817.273; -214.900;-1000.000; -802.000
817.526;  -15.100; -206.000; -173.000
817.779; -136.000;-1049.000; -960.000
818.033; -135.200; -693.000; -807.000
818.286; -217.700; -725.000; -792.000
818.540; -136.700; -403.000; -403.000
818.793; -118.500; -402.000; -489.000
819.046; -153.800; -582.000; -520.000
819.299;   10.400; -157.000; -166.000
819.553; -144.900; -552.000; -592.000
819.806; -241.800;-1016.000; -838.000
820.059;  -50.200; -334.000; -354.000
820.312;   57.100;  152.000;  185.000
820.565;   -8.800;  110.000;  -27.000
820.818;  -37.700;  -59.000; -173.000
821.071; -266.700;-1041.000; -957.000
821.324; -154.500; -536.000; -540.000
821.577; -183.800; -457.000; -483.000
821.830;  -60.300; -270.000; -172.000
822.083; -216.200; -733.000; -288.000
822.336;  -46.100; -261.000; -167.000
822.589; -229.800; -805.000; -688.000
822.842; -245.500; -875.000; -770.000
823.094; -308.500;-1076.000;-1114.000
823.347; -222.800; -925.000; -729.000
823.600;  100.600;  402.000;  187.000
823.853;  -43.000; -311.000; -267.000
824.105; -100.000; -331.000; -575.000
824.358; -195.100; -617.000; -716.000
824.611;   87.000;  234.000;   40.000
824.863;  -81.100; -612.000; -591.000
825.116;  127.300;  -33.000;   27.000
825.368;   83.000; -366.000; -372.000
825.621;  177.700; -186.000; -240.000
825.873;   60.400; -704.000; -737.000
826.126;  938.700; -669.000; -641.000
826.378;15897.700; -389.000; -505.000
826.630; 2616.500; -890.000; -898.000
826.883;   -5.700; -754.000; -693.000
827.135;   67.000; -279.000; -270.000
827.387; -206.600; -893.000; -839.000
827.639;  -30.600;  -86.000;   32.000
827.892; -187.700; -742.000; -582.000
828.144; -229.600; -848.000; -804.000
828.396;    9.700;  104.000;  -80.000
828.648; -135.100; -440.000; -333.000
828.900; -229.200; -702.000; -795.000
829.152; -184.800; -684.000; -683.000
829.404;  -85.900; -215.000; -267.000
829.656;   56.700;  321.000;  214.000
829.908;   10.300;  393.000;  229.000
830.160; -300.700;-1064.000;-1047.000
830.412; -155.500; -481.000; -430.000
830.664; -198.900; -557.000; -665.000
830.916;  -98.800; -268.000; -206.000
831.167; -316.100;-1073.000; -951.000
831.419; -167.900; -623.000; -566.000
831.671; -259.800; -764.000; -809.000
831.923;  -93.800; -311.000; -447.000
832.174;  -95.200; -273.000; -331.000
832.426; -167.800; -493.000; -582.000
832.678; -342.400;-1043.000;-1091.000
832.929; -282.700; -947.000; -935.000
833.181; -111.000; -575.000; -677.000
833.432;   -9.700;  -59.000; -186.000
833.684;   35.700;  112.000;  -27.000
833.935; -187.500; -610.000; -566.000
834.187; -202.700; -829.000; -823.000
834.438;  -33.600;  -58.000;  -25.000
834.689;  -50.200; -255.000; -123.000
834.941;  -77.400; -343.000; -244.000
835.192; -149.800; -590.000; -533.000
835.443; -148.300; -419.000; -506.000
835.695;   45.100;  138.000;  -16.000
835.946; -111.200; -608.000; -378.000
836.197; -163.500; -599.000; -622.000
836.448; -132.700; -528.000; -395.000
836.699;  -82.900; -253.000; -341.000
836.950;   56.000;   72.000;    7.000
837.201; -269.100;-1003.000; -987.000
837.452;  -94.100; -356.000; -170.000
837.703; -177.000; -791.000; -737.000
837.954;  -50.000; -205.000; -365.000
838.205; -174.500;-1029.000;-1008.000
838.456;  209.100; -196.000; -282.000
838.707;  -32.500; -423.000; -519.000
838.958;  -15.500; -634.000; -647.000
839.209;  420.500;   18.000;   40.000
839.460;  148.700; -439.000; -201.000
839.710;  257.300; -135.000; -297.000
839.961;  646.100;  730.000;  612.000
840.212;  396.000; -382.000; -497.000
840.462; 1646.300; -328.000; -277.000
840.713;25216.100; -571.000; -536.000
840.964; 7418.900;  -62.000; -143.000
841.214;  588.000; -384.000; -624.000
841.465;  736.200; -214.000; -141.000
841.715;  598.700; -417.000; -380.000
841.966;  804.400; -746.000; -685.000
842.216;14030.600; -330.000; -431.000
842.466;40192.700; -169.000; -313.000
842.717; 1552.700; -964.000; -952.000
842.967;  389.400; -635.000; -641.000
843.217;  365.500;   20.000;   28.000
843.468;   95.700; -104.000; -132.000
843.718;  -76.500; -718.000; -726.000
843.968; -170.700; -837.000; -765.000
844.218;   39.400; -315.000; -262.000
844.469;  -98.600; -577.000; -561.000
844.719; -153.500; -537.000; -682.000
844.969; -114.800; -550.000; -580.000
845.219; -226.300; -814.000; -862.000
845.469;  -90.200; -392.000; -342.000
845.719; -213.400; -792.000; -884.000
845.969;   26.600;  119.000;  174.000
846.219; -188.700; -738.000; -720.000
846.469;  105.700;  464.000;  432.000
846.718;  -11.800; -115.000;   31.000
846.968; -245.500; -827.000; -827.000
847.218;  -71.500; -224.000; -371.000
847.468; -171.400; -586.000; -555.000
847.718; -262.700; -827.000; -798.000
847.967; -205.400; -826.000; -915.000
848.217; -135.800; -449.000; -569.000
848.467;  -89.400; -405.000; -376.000
848.716; -181.500; -708.000; -725.000
848.966;   -3.800; -372.000; -358.000
849.215;  -99.600; -428.000; -419.000
849.465; -154.000; -785.000; -615.000
849.714; -287.400;-1132.000;-1150.000
849.964; -116.900; -551.000; -613.000
850.213;  -34.100; -393.000; -355.000
850.463;  164.000;  137.000;  340.000
850.712;  -35.600; -542.000; -567.000
850.961;  -15.500; -739.000; -678.000
851.211;  107.100; -513.000; -504.000
851.460;  167.500; -635.000; -650.000
851.709;  834.600;  -25.000;   18.000
851.958;15402.300; -912.000; -750.000
852.208;14064.700; -859.000; -879.000
852.457;  567.400; -181.000;  -13.000
852.706;   27.100; -791.000; -823.000
852.955;  -13.800; -507.000; -528.000
853.204; -111.100; -521.000; -461.000
853.453; -117.900; -418.000; -458.000
853.702; -220.100; -660.000; -750.000
853.951; -111.100; -532.000; -520.000
854.200; -184.800; -613.000; -562.000
854.449; -196.600; -695.000; -661.000
854.698; -135.900; -340.000; -279.000
854.946;  -77.700; -181.000; -284.000
855.195; -258.700; -843.000; -868.000
855.444; -129.900; -395.000; -420.000
855.693; -188.400; -345.000; -432.000
855.941; -157.600; -387.000; -516.000
856.190;  -80.400; -256.000; -382.000
856.439; -203.800; -652.000; -703.000
856.687;  -46.800;  -99.000;  -72.000
856.936; -180.500; -621.000; -323.000
857.184; -317.400;-1067.000;-1020.000
857.433; -147.600; -423.000; -512.000
857.681; -272.700; -989.000; -953.000
857.930;  -83.600; -282.000; -433.000
858.178; -278.100; -856.000; -929.000
858.427; -244.100; -802.000; -781.000
858.675; -179.800; -377.000; -544.000
858.923; -141.200; -527.000; -819.000
859.172; -317.200;-1094.000;-1070.000
859.420; -124.600; -339.000; -239.000
859.668; -221.400; -624.000; -628.000
859.916;   29.900;  109.000;  115.000
860.164; -193.100; -699.000; -603.000
860.413;  361.900; -878.000; -696.000
860.661;  111.400; -709.000; -577.000
860.909;  -98.000; -339.000; -325.000
861.157; -125.000; -277.000; -444.000
861.405; -210.700; -534.000; -670.000
861.653;  102.400;  310.000;  310.000
861.901;  202.200; -543.000; -613.000
862.149;  -61.900; -801.000; -824.000
862.396; -101.500; -297.000; -187.000
862.644; -121.100; -368.000; -347.000
862.892;   10.800;   98.000;  138.000
863.140; -171.900; -549.000; -530.000
863.388; -265.400; -815.000; -759.000
863.635; -235.800; -642.000; -601.000
863.883;   55.600;  231.000;  190.000
864.131; -124.100; -288.000; -357.000
864.378; -231.300; -675.000; -540.000
864.626; -143.000; -347.000; -415.000
864.873; -193.400; -556.000; -505.000
865.121; -194.900; -714.000; -799.000
865.368;  -18.100; -173.000;   75.000
865.616;   -1.800;  -33.000;  -40.000
865.863; -107.900; -462.000; -506.000
866.111; -189.800; -795.000; -824.000
866.358;   58.500; -426.000; -420.000
866.605; 3806.800;  -64.000; -804.000
866.853; 2695.900; -621.000; -537.000
867.100;  -99.900; -728.000; -775.000
867.347; -189.600; -672.000; -611.000
867.594; -141.300; -740.000; -714.000
867.841;  174.100;   97.000;   17.000
868.089; -255.000; -746.000; -698.000
868.336; -140.300; -477.000; -420.000
868.583; -194.500; -637.000; -741.000
868.830;   -9.700; -131.000; -170.000
869.077; -284.100; -859.000; -787.000
869.324; -205.100; -502.000; -458.000
869.571; -200.000; -398.000; -430.000
869.818; -203.700; -485.000; -439.000
870.065; -175.900; -439.000; -513.000
870.311; -141.900; -456.000; -542.000
870.558; -119.300; -332.000; -311.000
870.805;  -77.500; -320.000; -384.000
871.052; -165.700; -494.000; -369.000
871.298;  -12.000; -204.000; -131.000
871.545; -102.600; -151.000; -185.000
871.792; -106.900; -173.000; -222.000
872.038;  -92.200;   43.000; -126.000
872.285; -200.100; -496.000; -387.000
872.532; -121.100; -357.000; -387.000
872.778;  106.400;  556.000;  403.000
873.025; -137.500; -384.000; -359.000
873.271;  113.000;  501.000;  578.000
873.517;  -22.900; -133.000; -209.000
873.764;  -35.600; -193.000;  -80.000
874.010;  -77.900; -143.000; -230.000
874.257;   11.700;  123.000;   90.000
874.503; -214.700; -579.000; -479.000
874.749;  -83.600;   31.000;  275.000
874.995;  -61.400;  -80.000;  -20.000
875.242; -195.000; -540.000; -478.000
875.488; -153.500; -414.000; -439.000
875.734;  -50.700; -106.000; -234.000
875.980;  241.100; -872.000;-1032.000
876.226;  349.600; -157.000; -255.000
876.472;   48.700;  343.000;  237.000
876.718;   -7.100;  184.000;  158.000
876.964;    4.400;   56.000;   55.000
877.210; -221.000; -547.000; -677.000
877.456; -220.100; -630.000; -557.000
877.702; -273.700; -821.000; -832.000
877.948; -148.500; -377.000; -497.000
878.193;   91.200;  361.000;  255.000
878.439; -139.300; -487.000; -472.000
878.685; -131.900; -272.000; -343.000
878.931; -184.800; -618.000; -676.000
879.176;  -75.300; -201.000; -201.000
879.422; -312.800; -933.000; -820.000
879.668;  128.800;   10.000;   79.000
879.913;  196.600;   53.000;  137.000
880.159;  -39.100; -112.000;  -17.000
880.404;  -18.000; -152.000; -162.000
880.650;  -20.900;   91.000;  141.000
880.895; -254.200; -670.000; -710.000
881.141; -185.700; -454.000; -428.000
881.386; -220.400; -503.000; -658.000
881.631; -144.900; -311.000; -166.000
881.877;   -6.500;  112.000;  -13.000
882.122; -210.600; -684.000; -600.000
882.367; -113.300; -136.000; -186.000
882.612;  -52.500;  -80.000; -176.000
882.858; -293.700; -877.000; -823.000
883.103; -124.700; -297.000; -267.000
883.348; -241.000; -759.000; -852.000
883.593; -240.300; -677.000; -602.000
883.838;  -67.700; -311.000;  -24.000
884.083;   57.000;  353.000;  288.000
884.328; -115.500; -564.000; -545.000
884.573;  -64.400; -196.000; -143.000
884.818;  311.200; -694.000; -531.000
885.063;  153.400; -348.000; -315.000
885.308; -156.400; -475.000; -398.000
885.553;   58.700;  245.000;  325.000
885.797; -209.100; -545.000; -615.000
886.042;  -27.300;    8.000;   58.000
886.287; -117.000; -253.000; -211.000
886.532;   -1.500;   26.000;  204.000
886.776; -112.400; -407.000; -525.000
887.021; -235.900; -621.000; -574.000
887.265; -244.500; -685.000; -689.000
887.510; -195.200; -557.000; -496.000
887.755;  -94.900; -194.000; -164.000
887.999; -208.400; -552.000; -575.000
888.244;  -35.800;  -58.000;  161.000
888.488;   56.200;  371.000;  393.000
888.732; -191.600; -368.000; -520.000
888.977; -198.200; -622.000; -567.000
889.221; -274.900; -683.000; -659.000
889.465; -201.800; -422.000; -566.000
889.710;  -86.500;  -56.000; -299.000
889.954;   80.500;  579.000;  467.000
890.198; -213.300; -584.000; -707.000
890.442; -223.500; -716.000; -712.000
890.687; -252.500; -800.000; -753.000
890.931; -123.100; -273.000; -210.000
891.175; -188.000; -502.000; -500.000
891.419;  -69.500; -105.000; -110.000
891.663; -116.200; -239.000; -112.000
891.907; -270.400; -801.000; -545.000
892.151; -299.200; -920.000; -815.000
892.395; -155.900; -274.000; -387.000
892.638;   54.300;  408.000;  291.000
892.882; -275.600; -780.000; -867.000
893.126;  115.300;  758.000;  558.000
893.370; -111.300; -167.000; -168.000
893.614; -236.100; -714.000; -715.000
893.857; -127.100; -183.000; -197.000
894.101; -177.500; -527.000; -631.000
894.345;  -43.000;  300.000;  150.000
894.588;   68.200;  569.000;  380.000
894.832;  -88.600; -178.000;  -84.000
895.075;  -90.000;   15.000;  -92.000
895.319; -211.200; -552.000; -420.000
895.563; -179.800; -413.000; -353.000
895.806; -236.800; -628.000; -741.000
896.049;  -99.900; -576.000; -368.000
896.293;  221.600;  527.000;  405.000
896.536; -159.200; -465.000; -468.000
896.779;  -44.200; -149.000;   -1.000
897.023; -210.200; -751.000; -714.000
897.266;    9.400;  325.000;  269.000
897.509; -294.400; -900.000; -901.000
897.752;  -17.100;  149.000;  171.000
897.996; -294.000; -972.000; -864.000
898.239;  -36.400;  168.000;  102.000
898.482; -198.900; -431.000; -453.000
898.725;  -28.000;  101.000;   53.000
898.968; -250.200; -609.000; -744.000
899.211; -161.600; -513.000; -361.000
899.454; -214.900; -633.000; -539.000
899.697;  -53.500;   90.000;  -43.000
899.940; -280.200; -761.000; -757.000
900.182; -129.500; -335.000; -405.000
900.425;  -83.300; -150.000; -298.000
900.668;   55.200;  491.000;  350.000
900.911; -160.900; -292.000; -345.000
901.154;  -51.600;  141.000;   -3.000
901.396; -223.400; -407.000; -412.000
901.639; -192.800; -430.000; -496.000
901.882; -312.500; -790.000; -809.000
902.124;  -92.500;  -29.000; -143.000
902.367; -157.100; -315.000; -361.000
902.609; -173.600; -476.000; -453.000
902.852; -105.900; -108.000; -260.000
903.094; -168.100; -458.000; -337.000
903.337;  -10.500;  -26.000;   53.000
903.579; -154.600; -228.000; -441.000
903.821; -254.300; -597.000; -744.000
904.064;  -52.800;   85.000;  127.000
904.306; -109.900; -126.000; -166.000
904.548; -123.300; -152.000; -366.000
904.790; -124.000; -195.000; -340.000
905.033; -192.300; -625.000; -577.000
905.275; -209.100; -513.000; -524.000
905.517;  138.400;  468.000;  256.000
905.759; -168.300; -667.000; -761.000
906.001; -134.200; -322.000; -369.000
906.243;  -77.100; -162.000; -224.000
906.485;  176.100; -265.000; -207.000
906.727;   55.900; -499.000; -542.000
906.969;  -54.500;  -30.000; -135.000
907.211;  160.800; -316.000; -382.000
907.453;  326.900; -188.000; -237.000
907.695;   -6.000; -158.000; -385.000
907.936;  202.700;  818.000;  706.000
908.178;  -57.900;   92.000; -135.000
908.420;  -69.200; -111.000; -162.000
908.662; -226.000; -633.000; -682.000
908.903; -121.100; -208.000; -123.000
909.145;  -70.100; -240.000; -305.000
909.386;   87.300;  315.000;  280.000
909.628;  109.600;  363.000;  397.000
909.870;   83.600;   29.000;  264.000
910.111; -211.300; -809.000; -949.000
910.353;   34.800; -123.000; -161.000
910.594;  -37.900; -574.000; -606.000
910.835;  135.600; -265.000; -326.000
911.077;  181.300; -503.000; -604.000
911.318;  366.100; -505.000; -471.000
911.559;  581.400; -577.000; -880.000
911.801; 2078.000; -284.000; -280.000
912.042;18499.400;  -50.000; -159.000
912.283;37715.800;  404.000;  371.000
912.524; 4349.200; -396.000; -457.000
912.765;  694.200; -193.000;   79.000
913.006;  361.800; -307.000; -338.000
913.247;   33.500; -270.000; -290.000
913.488;    0.500;  -43.000;   30.000
913.729; -116.000; -373.000; -373.000
913.970;  -89.000;  -96.000; -292.000
914.211;  -60.400; -160.000; -198.000
914.452;  -84.200; -118.000;  -11.000
914.693;  111.700;  510.000;  592.000
914.934;   86.400;  510.000;  440.000
915.175;  -35.500;   53.000;  -95.000
915.415;  -88.900; -137.000;   27.000
915.656;  -65.600;  -28.000;  192.000
915.897; -138.000; -252.000;  -82.000
916.137;  -62.700;   74.000;   -9.000
916.378; -237.200; -573.000; -517.000
916.619; -108.000; -159.000;  -63.000
916.859;   20.300;  303.000;  330.000
917.100;  404.500; 1655.000; 1070.000
917.340;  174.000;  930.000;  728.000
917.581;  135.400;  965.000;  789.000
917.821;  -44.500; -171.000;  143.000
918.061;    8.000; -199.000;  -72.000
918.302;  -79.300; -152.000; -211.000
918.542;    7.700;  -22.000;    3.000
918.782;  121.000;  369.000;  377.000
919.023;  211.800;  360.000;  427.000
919.263; 2477.400; 8131.000;  202.000
919.503; 1403.500; -137.000;  -54.000
919.743;  893.100;  390.000;  266.000
919.983;  292.300; -134.000;  -26.000
920.223;  123.900;  135.000;   14.000
920.463;  303.100;  631.000;  554.000
920.703;  225.500;   84.000;   39.000
920.943;  199.600; -110.000;   90.000
921.183;  245.800; -414.000; -405.000
921.423;  722.000;  307.000;  546.000
921.663;  987.700; -174.000; -257.000
921.903; 2333.600;  237.000;  173.000
922.143;14151.700;  372.000;  389.000
922.383;48503.900;  158.000;  115.000
922.622;12337.100; -120.000;  -15.000
922.862; 1574.700;  796.000;  785.000
923.102;  606.700;  -51.000;   33.000
923.341;  272.800;   59.000;   74.000
923.581;  135.800;  450.000;  360.000
923.821;   80.200;  301.000;  398.000
924.060;   67.700;  351.000;  193.000
924.300;  -67.300;  -16.000; -128.000
924.539;   30.800;  584.000;  473.000
924.779;   83.900;  812.000;  597.000
925.018;    1.800;  247.000;  353.000
925.257;   51.100;  595.000;  666.000
925.497;   -5.100;  447.000;  412.000
925.736;  -89.400;  -35.000;  102.000
925.975;   92.900;  687.000;  669.000
926.214;  122.900;  907.000;  850.000
926.454;   99.800;  706.000;  757.000
926.693;  -12.300;  419.000;  543.000
926.932;  161.400; 1021.000;  825.000
927.171;  231.800; 1107.000; 1044.000
927.410;  244.200; 1144.000;  967.000
927.649;  108.600;  924.000;  742.000
927.888;   41.800;  590.000;  564.000
928.127;   59.600;  680.000;  678.000
928.366;  135.300;  842.000;  826.000
928.605;  131.700;  831.000;  737.000
928.844;  509.200; 1451.000; 1393.000
929.083;  916.700;  770.000;  613.000
929.321;  502.800; 1335.000; 1359.000
929.560;  270.900; 1158.000; 1122.000
929.799;   29.300;  574.000;  475.000
930.038;  263.600; 1025.000; 1394.000
930.276;  -19.400;  334.000;  397.000
930.515;   68.500;  827.000;  681.000
930.753;   49.500;  614.000;  589.000
930.992;   24.400;  664.000;  717.000
931.230;   67.100;  847.000;  847.000
931.469;  464.600; 2162.000;  892.000
931.707;  260.300;  840.000;  751.000
931.946;  227.800; 1278.000; 1344.000
932.184;  207.600; 1437.000; 1175.000
932.423;  162.000; 1265.000;  963.000
932.661;  255.200; 1296.000; 1428.000
932.899;  138.800;  987.000;  821.000
933.137;   54.500;  754.000;  564.000
933.376;  353.800; 1664.000; 1335.000
933.614;  370.000; 1759.000; 1196.000
933.852;  184.500; 1357.000; 1171.000
934.090;  351.500; 1722.000; 1747.000
934.328;  254.800; 1252.000; 1457.000
934.566;  280.400; 1431.000; 1110.000
934.804;  317.100; 1263.000; 1309.000
935.042;  871.100; 1861.000; 1850.000
935.280; 3248.200; 2088.000; 2063.000
935.518; 2423.200; 2113.000; 2007.000
935.756;  619.400; 2481.000; 2316.000
935.994;  376.200; 1808.000; 1751.000
936.231;  730.800; 2890.000; 2950.000
936.469;  459.900; 2367.000; 2378.000
936.707;  421.300; 2220.000; 2167.000
936.945;  539.600; 2825.000; 2882.000
937.182;  515.900; 2679.000; 2741.000
937.420;  657.100; 3602.000; 3031.000
937.657;  858.900; 3365.000; 3478.000
937.895;  753.300; 3331.000; 3488.000
938.133;  684.800; 3540.000; 3528.000
938.370;  791.400; 3896.000; 4191.000
938.607;  895.000; 4488.000; 4205.000
938.845; 1251.900; 5587.000; 5549.000
939.082; 1040.600; 5387.000; 5177.000
939.320; 1206.800; 5799.000; 5728.000
939.557; 1386.800; 6549.000; 6491.000
939.794; 1529.000; 7285.000; 7097.000
940.031; 1972.600; 8421.000; 8368.000
940.269; 2192.000; 9552.000; 9107.000
940.506; 2331.600;10901.000;10507.000

