
Integration time [ms]: 100.000
Averaging Nr. [scans]: 40
Smoothing Nr. [pixels]: 0
Data measured with spectrometer [name]: 2101013U2
Wave   ;Sample   ;Dark     ;Reference
[nm]   ;[counts] ;[counts] ;[counts] 

394.013;   72.723; -450.257; -315.536
394.305;  296.171; -461.258; -419.536
394.596;  995.646; -676.269; -527.514
394.887; 2218.838; -796.268; -654.518
395.178;  881.417;  145.736;   11.476
395.470;  115.728; -210.263; -356.526
395.761;  251.277;  305.734;  394.479
396.052;  508.176; -545.284; -306.489
396.343;  489.093; -557.276; -454.503
396.634;  174.388; -200.279; -290.497
396.926;  203.760; -618.268; -565.517
397.217;  183.447;   11.725;  -17.504
397.508;   87.388; -366.273; -154.507
397.799;  101.188; -555.279; -571.497
398.090;   39.657; -973.280; -902.495
398.381;  174.103;   11.708;  -11.473
398.672;   30.304; -585.292; -742.473
398.963;   77.819; -348.279; -373.498
399.254;  152.263;   54.709; -209.475
399.545;    2.649;-1017.266; -883.520
399.836;  109.357; -407.277; -343.501
400.127;   92.105; -205.295; -209.468
400.418;   95.482; -423.274; -392.506
400.709;  122.795; -359.281; -333.493
401.000;   81.292; -268.291; -309.476
401.290;  137.969;  225.698;  115.545
401.581;   76.484; -166.286; -228.485
401.872;   55.378; -542.298; -486.462
402.163;   77.273; -313.296; -252.467
402.454;  114.589; -123.291; -163.475
402.744;  127.414; -844.297; -813.465
403.035;  624.720; -226.293;  -86.471
403.326;  800.482; -366.292; -384.474
403.617;  472.348;  204.701;  165.539
403.907;  251.206; -593.283; -679.490
404.198; 2071.550; -545.307; -599.446
404.489; 5451.361; -618.283; -588.491
404.779; 2037.147; -618.302; -660.456
405.070;  246.452;  -67.304; -174.451
405.360;  324.596; -259.293; -238.472
405.651;  362.958;  125.699;   98.542
405.942;  246.279;  209.714;  127.516
406.232;  425.368; -432.285; -413.487
406.523;  669.465;  641.706;  758.530
406.813;  160.281; -579.286; -644.484
407.104;  503.377;  261.708;  144.527
407.394;  303.324; -604.299; -591.462
407.685;  195.342;  336.715;  222.513
407.975;   96.684; -400.283; -382.490
408.265;  154.177; -134.289; -190.478
408.556;   96.836; -472.291; -459.475
408.846;  192.590;  474.706;  429.530
409.137;   96.836;   -1.288; -216.480
409.427;   80.343; -193.285; -271.487
409.717;   46.241; -776.273; -692.508
410.007;  152.562;    4.715; -170.486
410.298;  114.608; -360.295; -342.469
410.588;   96.765; -495.285; -510.486
410.878;   51.896; -792.287; -873.482
411.168;  142.105; -481.298; -478.463
411.459;  144.029; -295.283; -242.489
411.749;   71.584; -609.292; -507.474
412.039;   87.509; -755.289; -386.480
412.329;  233.300;   40.722;  132.501
412.619;  215.332;  -62.286; -148.485
412.909;  411.080;  639.711;  594.521
413.199;  406.132; -130.280; -251.495
413.490;  470.796;  521.710;  352.523
413.780;  166.036;-1013.279; -913.496
414.070;  343.194;  -46.276;  235.497
414.360;  417.722; -729.278; -666.498
414.650;  426.817; -726.288; -688.482
414.940;  503.836; -538.280; -441.496
415.230;  880.490;   50.712;   74.519
415.520; 5402.871;  155.730;   66.486
415.809;21274.994; -305.281; -125.493
416.099;16109.935; -388.277; -229.501
416.389; 4248.355;  435.726;  236.494
416.679; 2477.481;   91.738;   85.473
416.969;  479.076; -527.287; -503.483
417.259;  445.238;  341.721;  171.503
417.549;  686.268;  522.718;  318.508
417.838; 1416.237; -205.268; -147.518
418.128; 4593.101;  650.710;  492.522
418.418; 3788.422; -491.272; -579.509
418.708; 2608.030;    9.726;  -48.506
418.997; 9565.876; -474.275; -480.505
419.287; 9794.537; -733.273; -790.507
419.577; 8896.453; -160.283; -123.489
419.866;30444.283; -588.277; -498.501
420.156;32280.742; -242.270;  -55.513
420.446; 5957.074; -112.263;  -26.526
420.735; 1028.136; -376.271; -446.512
421.025;  839.071; 1830.722;  315.502
421.314;  920.034; -203.271; -226.512
421.604; 2225.405;   89.732;  233.484
421.893; 1255.506; -705.271; -602.511
422.183;  251.324; -487.263; -461.526
422.472;  404.557;  -36.271; -107.511
422.762;  516.004; -416.266; -379.521
423.051;  295.944; -916.276; -916.503
423.341;  374.639; -491.273; -439.507
423.630;  480.335; -121.265;   15.477
423.919;  402.651;   58.725;   49.495
424.209;  366.129;  -31.263;   56.473
424.498;  478.759;   68.732;  161.483
424.787;  980.916; -535.267; -601.518
425.077; 3119.284;   34.735;   29.478
425.366; 5023.835; -734.262; -744.528
425.655; 8542.789;  639.727;  259.493
425.945;15874.909; -313.247; -268.554
426.234; 8850.207;  117.741;  300.467
426.523; 4494.737;  -86.259; -350.534
426.812; 6095.925;  107.734;  159.480
427.101; 8682.526; -127.269; -323.515
427.390;11514.845;  -55.270;  -86.514
427.680; 3305.906; -624.257; -411.538
427.969;  544.316; -330.255; -301.540
428.258;  370.198; -385.257; -477.536
428.547;  605.801;  449.728;  397.490
428.836; 1695.332; -421.253; -398.543
429.125; 2440.439; -199.259;  -72.534
429.414;  955.954; -330.251; -294.548
429.703; 2712.804; -231.251; -213.548
429.992; 7936.707; -938.250; -828.549
430.281; 5116.392; -397.264; -331.524
430.570;  644.769;  -21.252;   32.454
430.859;  750.436;  279.741;  352.466
431.148;  542.155;  636.752;  631.446
431.437;  335.369;  391.748;  367.454
431.725;  170.099; -544.257; -481.536
432.014;  124.514; -845.253; -756.545
432.303;  433.703; -149.239; -105.569
432.592;  759.199; -460.263; -178.525
432.881;  983.431; -601.248; -437.554
433.169; 4991.042; -343.255;  -61.540
433.458;10253.611;  445.765;  540.424
433.747; 4499.265; -397.261; -289.529
434.036; 1110.555; -275.242; -280.564
434.324; 1984.094; -395.249; -379.551
434.613; 3227.399;   40.757;  159.437
434.902; 1247.319;  333.760;  439.433
435.190;  949.477;   75.761;  295.431
435.479;  520.256;  -52.245;   83.441
435.767;  170.664; -411.244; -427.561
436.056;  301.676; -340.242; -294.563
436.345;  389.571; -372.240; -223.568
436.633;  407.715;   60.750;  383.450
436.922;  398.998;  208.760;  414.432
437.210; 1066.976; -194.236;    1.426
437.499; 3415.284; -583.235; -432.576
437.787; 3686.226; -339.236;  -10.574
438.075;  856.033;   56.761;  162.430
438.364; 1159.760;  -44.238;  250.429
438.652;  717.911; -286.226; -138.592
438.941;  186.676;    3.770;  269.415
439.229;   41.192; -665.252; -466.545
439.517;   57.517; -160.234;  -85.577
439.806;   31.626; -501.225; -290.595
440.094;  249.850;  377.766;  650.421
440.382;  320.978; -653.233; -302.580
440.670;  352.234; -361.235; -285.576
440.959;   67.193; -347.223; -170.599
441.247;  115.237; -151.229; -109.587
441.535;  177.966; -266.235;   31.423
441.823;   93.172; -497.234; -305.578
442.111;  236.942;  173.771;  327.412
442.400;  803.781; -628.245; -335.559
442.688; 2310.399; -111.234; -620.579
442.976; 1763.378; -786.213; -450.617
443.264;  180.508; -324.224; -364.597
443.552;  147.887; -258.226;   51.408
443.840;  198.214;  602.765;  876.423
444.128;  148.152;  265.767;  269.420
444.416;   39.494; -694.228; -312.588
444.704;   46.522; -465.219;  -92.605
444.992;  110.940;   -0.226;  240.407
445.280;  103.452; -517.230;  -94.585
445.568;   95.356; -694.212; -396.618
445.856;  520.031; -174.221;  357.398
446.143; 1165.543;  -54.220;   -7.604
446.431;  953.348;  -25.228;  625.411
446.719;  313.065;  489.783;  675.391
447.007;  218.772;  481.769;  705.416
447.295;  193.415;  597.777;  871.402
447.583;  119.110; -464.229;  -34.587
447.870;  194.703; -434.221; -202.601
448.158;  569.501; -104.230;  129.415
448.446;  472.144; -800.219; -338.604
448.733;  215.934;   13.776;  269.403
449.021;  304.681;   60.788;  341.382
449.309;  225.595; -296.210;  208.379
449.596;  237.812;  128.783;   59.392
449.884;  185.272; -571.222; -325.600
450.172;  128.303; -756.227; -406.590
450.459;  389.337;  645.786;  780.387
450.747; 1805.435; -411.218; -147.608
451.034; 5854.324;  493.772;  889.411
451.322; 4747.664; -413.214; -170.614
451.609;  454.610;  292.777;  508.403
451.897;  475.856; -550.203; -183.634
452.184; 1480.690; -622.223; -400.598
452.472; 1421.841;   97.792;  269.375
452.759;  374.795;  512.781;  864.395
453.047;  160.453; -407.212; -125.617
453.334;  142.602; -732.219; -216.606
453.621;  152.217; -438.214; -161.615
453.909;  139.298;   13.796;  384.368
454.196;  143.817; -299.199; -123.641
454.483;  269.018;  317.798;  540.364
454.771;  180.144; -215.208;  196.374
455.058;   64.122; -316.207;  102.374
455.345;  101.145;   71.807;  344.347
455.632;   80.050; -128.207;  235.373
455.919;   51.864;  -82.196;  182.354
456.207;  -37.679; -774.198; -450.642
456.494;    6.555; -475.200;  -66.639
456.781;   21.314; -399.202; -198.635
457.068;   90.731; -253.206;  -29.628
457.355;   18.757; -698.206; -401.629
457.642;   20.338; -552.205; -290.630
457.929;   36.611; -778.194; -417.651
458.216;   72.529; -575.212; -354.617
458.503;  180.491; -173.193;  -19.652
458.790;  175.692; -864.208; -630.625
459.077;  258.194;  -77.202;  110.364
459.364;  664.380; -350.195; -210.649
459.651; 1387.929;  -46.206;  220.372
459.938;  676.457; -864.209; -665.623
460.225;  203.847;  132.799;  276.363
460.512;  -12.464; -836.197; -688.645
460.799;  139.284;  -32.218;  320.392
461.086;  127.134; -370.200; -251.640
461.372;  104.322; -509.198; -279.642
461.659;  167.540; -165.196;  108.354
461.946;  107.840; -445.193;  -54.651
462.233;  272.257;  842.800;  888.361
462.519;  345.054; -814.201; -464.639
462.806;  880.786; -768.197; -497.645
463.093;  753.560; -445.191;  -66.656
463.380;  -18.251; -920.186; -824.664
463.666;   81.363; -259.197;  -18.646
463.953;  106.200; -406.195; -243.648
464.239;  167.600; -173.195;  -77.648
464.526;  431.785;  413.806;  743.350
464.813;  424.371; -565.190; -304.658
465.099;  420.516;  606.807;  607.348
465.386;  412.769;  903.807;  921.348
465.672;   90.637; -694.197; -522.645
465.959;   71.113; -598.188; -520.662
466.245;   57.094; -468.193; -359.652
466.532;  149.898; -109.195;   63.352
466.818;  101.249; -357.186; -216.664
467.104;   25.388; -488.182; -415.672
467.391;   -6.427; -628.189; -459.658
467.677;   46.253; -289.186;    9.335
467.964;   33.929; -682.189; -471.660
468.250;  108.655; -331.186; -160.665
468.536;  110.799;   90.811;  180.341
468.822;   -6.533; -821.184; -574.668
469.109;  162.166;  351.827;  471.311
469.395;  196.479;  729.808;  787.346
469.681;  200.577;   46.811;  156.341
469.967; 1052.256; -699.188; -382.660
470.254; 2224.339; -494.188; -306.662
470.540; 1409.438; -601.196; -476.646
470.826;  205.774; -488.181; -397.675
471.112;  261.545;  288.816;  113.331
471.398;  111.599; -253.183;  -58.670
471.684;   60.901; -626.177; -447.680
471.970;   -2.448; -918.180; -981.675
472.256;   33.803; -521.192; -441.654
472.542;   33.376; -499.171; -434.691
472.828;   50.934; -743.182; -607.672
473.114;   49.518; -380.166; -283.700
473.400;   40.092; -504.175; -293.684
473.686;   69.424; -452.166; -400.701
473.972;   81.806; -230.174; -131.687
474.258;  -43.809; -925.173; -843.689
474.544;  142.768; -183.178;   -2.679
474.830;  227.793;  -65.175;   45.316
475.116;  352.722; -123.190; -196.658
475.401;  484.279; -558.180; -467.676
475.687;  176.553; -725.180; -718.676
475.973;   46.467; -673.181; -770.673
476.259;  293.120;  736.825;  764.315
476.544;  360.883; -539.176; -437.682
476.830;  625.547; -398.172; -322.690
477.116;  480.357; -430.177; -336.682
477.401;  122.629;  346.820;  358.324
477.687;    0.417; -289.175; -405.684
477.973;   52.345;   21.819;   28.326
478.258;    4.744; -448.163; -348.706
478.544;   68.585;   21.815;   61.334
478.829;  -38.169; -818.171; -738.692
479.115;  -18.528; -749.172; -651.690
479.401;   -5.474; -444.174; -449.686
479.686;   25.253; -253.180;  -74.676
479.972;  -40.402; -886.178; -776.680
480.257;   36.420; -258.166;  -65.700
480.542;   13.185; -614.170; -469.693
480.828;  244.240; 1288.824; 1392.317
481.113;  -17.187; -464.176; -426.683
481.399;    6.542; -236.161; -202.711
481.684;  -33.731; -620.166; -462.700
481.969;   32.030; -158.159;  -73.713
482.255;   11.196; -439.169; -285.695
482.540;    4.823; -569.178; -441.680
482.825;    4.820; -395.187; -404.663
483.110;   87.249;  -85.169; -105.696
483.396;  108.126; -840.157; -652.718
483.681;  381.181;  543.826;  730.313
483.966;  107.349; -696.160; -700.712
484.251;   30.830; -404.174; -310.687
484.536;   20.429; -356.165; -378.703
484.822;   35.308; -205.173; -218.687
485.107;  -25.538; -599.152; -502.726
485.392;  134.435;  662.836;  541.296
485.677;   78.333;  354.832;  163.302
485.962;  113.748;  160.843;  270.283
486.247;  105.502;  -14.162;   -8.707
486.532;   51.196; -178.166; -325.701
486.817;  156.486;  381.839;  431.291
487.102;  116.646; -453.154; -514.722
487.387;  481.102; -637.156; -652.718
487.672;  815.665; -154.164;  -38.705
487.957;  544.893; -394.160; -286.711
488.241;  186.128; -290.150; -314.729
488.526;  541.289; -280.152; -148.726
488.811;  867.725; -881.177; -818.680
489.096;  671.724; -666.154; -702.723
489.381;  404.785;    3.847;  162.275
489.666;  267.167; -428.161; -510.710
489.950;  172.176;  558.846;  627.277
490.235;  -15.501; -480.151; -458.728
490.520;  -26.084; -756.161; -723.710
490.804;  -49.296; -827.156; -736.719
491.089;   -2.356; -469.149; -299.732
491.374;   41.413; -132.164;  -75.704
491.658;   -5.720; -817.147; -717.735
491.943;  192.593; -657.152; -609.727
492.227;  316.892; -178.155;  -38.721
492.512;   72.073; -294.157; -341.717
492.797;  -54.087; -713.149; -716.731
493.081;  -49.568; -588.147; -598.735
493.366;  -27.758; -751.161; -635.711
493.650;  205.583;  831.859;  917.254
493.935;   25.979; -648.147; -447.734
494.219;  -27.254; -778.142; -687.743
494.503;  -39.667; -585.150; -487.730
494.788;   37.290;   46.842;   74.285
495.072;  105.680;  184.850;  434.271
495.356;  155.022; -463.148; -343.733
495.641;  472.639; -812.146; -736.736
495.925;  470.284; -976.156; -903.719
496.209;   60.418; -599.149; -451.732
496.494;  -31.103; -763.142; -544.744
496.778;   25.771; -364.154; -360.722
497.062;  -51.566; -819.156; -627.719
497.346;  -36.655; -869.160; -640.711
497.631;  124.875;  580.852;  560.266
497.915;   78.599;  -64.145;  175.261
498.199;   81.051; -341.157; -277.718
498.483;   65.937; -562.152; -508.725
498.767;  157.106;  301.850;  300.271
499.051;  164.816; -126.149; -100.732
499.335;   26.864; -693.149; -739.731
499.619;  -15.969; -381.129; -423.767
499.903;   43.041; -272.155;  -65.721
500.187;   52.978; -588.153; -316.724
500.471;   36.117; -796.152; -595.727
500.755;  139.641;   62.839;  -96.710
501.039;   37.791; -270.155; -357.721
501.323;  113.385;  -21.141;  264.254
501.607;   72.794; -447.163; -503.706
501.891;   17.702; -607.156; -512.718
502.174;   -6.815; -726.144; -585.741
502.458;   74.696;   89.849;  370.273
502.742;   46.908; -180.138; -191.751
503.026;   69.954; -412.147; -254.734
503.310;  108.729; -437.159; -375.713
503.593;   92.380; -464.147; -325.735
503.877;  134.522; -232.133; -156.760
504.161;  215.305;    2.847;  -50.724
504.444;  121.542; -841.158; -710.716
504.728;  330.588; -487.164; -522.704
505.012;  544.978; -257.150;  -76.729
505.295;  440.417; -417.161; -212.711
505.579;  393.733; -256.156; -496.719
505.862;  521.595; -555.145; -333.738
506.146;  514.331; -681.159; -758.714
506.429;  321.032;  568.841;  461.286
506.713;   59.400; -732.151; -667.728
506.996;  267.620;   90.846;  295.278
507.280;  248.833; -633.165; -474.703
507.563;  184.639; -469.155; -261.721
507.847;   74.579; -423.153; -112.724
508.130;   67.143; -665.161; -456.711
508.413;   66.615; -758.167; -577.700
508.697;  181.765; -151.167;   12.300
508.980;  100.705; -422.153; -312.724
509.263;   11.111; -466.155; -450.720
509.547;   50.178; -124.150;   82.271
509.830;   44.970; -172.160;  140.289
510.113;   88.233;  128.844;  298.281
510.396;   56.210; -530.152; -300.725
510.680;  307.772; -818.145; -812.738
510.963; 1070.750;  184.846;  180.277
511.246;  991.935; -493.150; -357.730
511.529;  307.501; -482.145;  -83.739
511.812;  268.644; -250.134;   10.241
512.095;  177.272; -740.151; -396.728
512.378;   59.859; -317.147; -245.736
512.661;   38.440; -703.137; -623.753
512.944;   12.998; -750.142; -637.744
513.227;   59.313; -170.137; -171.752
513.510;   33.434; -479.144; -671.741
513.793;   47.864; -485.140; -435.747
514.076;  130.726;  -43.127;  -39.771
514.359;  103.944; -294.149; -135.732
514.642;   66.876; -442.142; -567.744
514.925;  580.838;  581.860;  561.253
515.208;  701.315; -498.134; -443.758
515.491;  476.353; -276.133; -182.761
515.773;  261.863; -410.143; -337.742
516.056; 1529.947;  249.864;  409.246
516.339; 2223.225; -754.136; -652.755
516.622; 2074.258; -518.150; -488.730
516.904; 1888.270;  882.857;  975.257
517.187;  894.262; -730.138; -523.752
517.470;  418.994; -568.143; -510.743
517.752;  327.803; -624.136; -470.756
518.035;  248.749; -708.139; -725.749
518.318;  247.325; -799.136; -744.755
518.600; 1687.757; -300.132; -325.762
518.883; 2354.050;  310.858;   88.256
519.165; 1149.130; -585.138; -426.751
519.448;  416.131;  -61.132;  -19.762
519.730;  223.533; -573.126; -415.773
520.013;  378.600;  588.867;  664.240
520.295; 1283.195;  -94.134;  -15.759
520.578; 2910.469; -335.131; -305.764
520.860; 3176.457; -254.132;   56.238
521.143; 1554.805; -763.135; -584.756
521.425;  476.996; -251.125; -279.775
521.707;  549.401; -622.127; -380.771
521.990; 1333.527; -199.127;  167.229
522.272; 1529.991; -116.140;   -4.748
522.554;  826.739; -237.143; -157.742
522.836;  473.493;  -24.134;   99.241
523.119;  278.177; -496.148; -189.734
523.401;  177.976; -448.130; -314.766
523.683;   80.166; -865.137; -693.753
523.965;  201.785;  408.862;  260.248
524.247;  228.916;   54.878;  170.220
524.529;  164.870; -451.134; -367.759
524.812;  309.478;   -3.130;  191.234
525.094;  617.784; -773.138; -631.751
525.376;  966.529; -143.124;   78.223
525.658;  599.748; -441.136; -339.754
525.940;   14.741; -805.131; -671.764
526.222;   64.051; -188.136;  -88.755
526.504;  168.764; -190.131;   32.237
526.786;  324.373; -960.133; -647.760
527.068;  475.210; -124.123;  -67.778
527.349;  252.744; -865.137; -774.754
527.631;  136.906; -137.132;   22.238
527.913;   92.901; -664.127; -450.771
528.195;  101.139; -761.125; -639.774
528.477;  200.615;  -93.134;  -30.758
528.759;   84.977; -648.130; -522.766
529.040;   32.608; -569.123; -293.778
529.322;   50.541; -235.125;  -10.774
529.604;  198.904;  -47.130;   93.233
529.886;  190.833; -546.126; -302.773
530.167;  155.647;  232.870;  192.235
530.449;   61.084;    1.853;   63.265
530.731;    2.665; -572.122; -459.779
531.012;   44.460; -513.120; -216.784
531.294;   43.548; -118.116;  -43.792
531.575;  118.971;  290.875;  538.225
531.857;   18.460; -548.135; -266.757
532.138;   97.309; -113.141;   40.254
532.420;  216.007;  294.865;  403.244
532.701;  315.600; -722.133; -751.760
532.983;  458.853;  232.867;  182.239
533.264;  158.481; -243.126;  175.228
533.546;  -14.749; -491.136; -508.755
533.827;   79.947;  173.867;   -1.759
534.109;   82.860; -352.135;  -80.757
534.390;  140.585; -725.132; -582.762
534.671;  252.057; -270.135;  -82.756
534.953;  131.561; -751.123; -611.779
535.234;   23.283; -426.117; -255.789
535.515;  -83.457; -891.119; -735.785
535.796;  -11.728; -431.128; -193.770
536.078; -107.196;-1050.124; -904.777
536.359;   -3.763;  -22.123;    3.221
536.640;   -5.585; -480.125; -197.774
536.921;  169.285;  225.871;  143.232
537.202;  302.356;  -87.138;  -16.751
537.483;  362.119;  251.869;  377.236
537.764;  132.972;   17.870;   98.235
538.045;  -43.586; -543.134; -371.758
538.326;  -38.164; -596.129; -447.768
538.607;    1.177; -686.127; -476.771
538.888;  139.802;   98.879;    5.218
539.169;  144.771; -704.122; -535.781
539.450;  301.659;  236.871;   16.233
539.731;  201.680; -361.121; -182.783
540.012;  135.485;  199.880;  412.216
540.293;  100.924;   82.876;  158.224
540.574;   39.343; -895.113; -717.796
540.855;  460.829;  435.879;  377.218
541.136;  502.919;   47.878;  139.220
541.416;  236.753; -161.130; -220.766
541.697;  147.039; -274.131; -170.763
541.978;  751.984; -270.135; -315.757
542.259;  975.252; -211.127; -236.771
542.539;  482.667; -191.116; -186.790
542.820;  179.720;  461.875;  480.225
543.101;  135.473;  -52.145;  -77.738
543.381;   58.427; -638.127; -591.771
543.662;  226.699;  159.873; -254.771
543.942;  410.373; -751.127; -830.770
544.223;  763.470;  193.878;  161.219
544.504;  488.904; -275.124; -182.777
544.784;  454.183; -592.126; -408.773
545.065; 1290.695;  104.884; -254.791
545.345; 1550.343;  227.881;   14.215
545.626;  962.492;  -14.113; -108.796
545.906;  638.696;   77.869;   98.235
546.186;  254.337;   92.874;  -95.773
546.467;  160.106;   99.877;  -95.778
546.747;  260.617;  264.884;  327.210
547.027;  272.577;   91.876;  111.223
547.308;  219.697; -376.127; -530.770
547.588;  315.087;  299.871;  371.232
547.868;  167.997;  458.870;  588.235
548.149;  171.628;  609.885;  593.207
548.429;   74.150; -347.127; -299.771
548.709;  120.810; -645.120; -461.784
548.989;  333.903;   84.882;   88.213
549.269; 1502.730;   10.868;  139.239
549.550; 3456.010;  215.877;  117.222
549.830; 3112.684; -758.111; -556.799
550.110;  589.716; -468.110; -320.801
550.390;  602.290; -128.122;  -56.779
550.670;  829.263; -868.114; -783.795
550.950;  563.404; -509.121; -471.782
551.230;  161.400;  549.879;  460.218
551.510;   -3.998; -381.121; -326.782
551.790;   15.274; -173.109; -127.803
552.070;  212.506;  940.877; 1181.223
552.350;  262.147; -492.119; -377.786
552.630;  429.048;   -2.121;   77.219
552.909;  246.571;  181.884;   73.209
553.189;  164.736;  -49.132;   33.237
553.469;  100.322; -703.119; -514.786
553.749;  128.678; -469.127; -357.772
554.029;  113.737;   33.883;  -24.790
554.308;  106.132; -154.115;  -37.794
554.588;   42.421; -196.128; -204.770
554.868;   43.429; -366.121;  -47.782
555.147;   89.479; -114.115;  -46.793
555.427;  394.623; -260.116; -250.792
555.707; 2762.902; -284.115; -200.793
555.986; 3346.412; -719.111; -538.800
556.266; 1728.415;   23.884;   72.210
556.546;   58.427; -888.121; -675.782
556.825;  155.236; -657.114; -556.794
557.105; 1271.619; -125.128;   17.230
557.384; 1500.370;  122.884;  187.209
557.664;  538.598; -717.116; -508.792
557.943;   54.004; -557.121; -411.782
558.222;  109.056; -345.118; -344.788
558.502;  208.505; -116.115;  -76.793
558.781;  372.976;  194.885;  499.208
559.061;  282.955; -232.118; -227.788
559.340;  220.085;  302.883;  353.211
559.619;  471.815;   93.884;  148.210
559.899;  687.237; -239.117; -266.789
560.178;  640.405; -778.115; -593.793
560.457; 2190.463; -623.117; -562.790
560.736; 3115.814; -472.111; -482.800
561.015; 2031.567; -500.128; -502.769
561.295;  301.193;  180.893;  215.193
561.574;  285.802;  119.885;  116.207
561.853;  396.053;  274.891;  303.197
562.132;  347.657;  -45.114;  182.206
562.411;  317.923;  396.879;  553.219
562.690;   85.976; -592.115; -458.792
562.969;  118.349;  472.888;  630.203
563.248;  463.696; 2966.878; 2487.219
563.527;  177.563; -290.111; -408.800
563.806;  240.875; -650.127; -521.771
564.085;  266.533; -297.105; -206.810
564.364;  145.390; -594.117; -405.790
564.643;  315.723; -276.121; -223.781
564.922; 1282.622;  221.890;  397.198
565.201; 1280.276; -640.109; -700.803
565.479;  547.899; -297.115; -219.792
565.758;  207.719; -810.128; -712.770
566.037;  344.427; -155.109; -100.803
566.316;  172.320; -286.116;  -28.791
566.595;   37.352;  -17.115;  -12.793
566.873;   76.590; -166.111;  -79.801
567.152;  -55.052; -490.113; -590.797
567.431;   -0.084; -113.116;    6.210
567.709;    3.293; -344.107; -212.807
567.988;  167.111; -810.114; -769.794
568.266;  379.777; -160.115;  -68.793
568.545;  258.328; -644.100; -514.819
568.824;  404.674;  160.885;  356.208
569.102;  358.510; -351.114; -235.794
569.381;  126.573; -492.116; -407.792
569.659;  -45.205; -553.113; -553.796
569.938;    5.294; -743.122; -465.780
570.216;   76.179; -225.109; -225.804
570.494;  -28.962; -632.114; -572.795
570.773;   22.777;  202.879;  114.218
571.051;  -17.841; -373.123; -357.778
571.330;   25.918; -221.113; -174.796
571.608;    3.820; -181.098; -173.823
571.886;  -77.693; -671.111; -581.799
572.164;  -67.096; -739.121; -621.782
572.443;  -53.414; -562.105; -512.811
572.721;  -34.136; -399.117; -289.790
572.999;  -30.118; -280.117; -168.788
573.277;   78.230;  379.894;  620.191
573.555;  195.582;   94.894;   37.190
573.834;  929.557;  -86.117; -114.788
574.112; 1099.671;  880.893;  811.193
574.390;  319.289; -143.111;  -96.801
574.668;    9.325;  -91.112;  -61.797
574.946;  -11.893; -165.106; -187.810
575.224;    4.801;   71.891;  -16.803
575.502;  -33.532; -200.116; -204.791
575.780;  -89.150; -767.112; -829.798
576.058;  231.288; 1589.889; 1004.200
576.336;  -21.381; -210.110; -129.801
576.614;  -40.524; -511.112; -340.798
576.891;   -3.794; -711.115; -823.794
577.169;  325.562; -158.108; -285.805
577.447;  406.820;  169.893;  202.193
577.725;  203.780;  629.888;  854.201
578.003;   -2.047;  -71.112; -371.798
578.280;   87.345; -208.104; -242.812
578.558;   76.755; -450.115; -422.793
578.836;  129.913; -210.114; -145.795
579.114;   52.299; -630.112; -670.797
579.391;   78.984;   -6.117;  -18.789
579.669;  -69.243; -595.114; -704.794
579.947;  121.192; -326.107; -127.806
580.224;  204.442; -692.107; -524.806
580.502;  232.921;  127.893;   76.193
580.779;    9.939;  -42.117;   75.210
581.057;  -79.870; -584.109; -470.804
581.334;  -86.316; -726.102; -695.815
581.612;   31.108;   54.895;  511.190
581.889;  -26.753;  -83.101; -129.818
582.167;  -31.114; -298.099; -190.821
582.444; -105.608; -845.102; -814.817
582.721;  109.742;  657.899;  715.183
582.999;    5.058; -326.100; -167.821
583.276;  318.763; -812.123; -713.779
583.553;  457.487; -364.102; -294.816
583.831;  139.442; -607.104; -631.812
584.108;   37.360;  349.892;  174.195
584.385;    8.559; -122.102;  -98.815
584.662;  -84.935; -651.111; -828.801
584.940;   23.915;  204.889;  204.199
585.217;  -18.531;  -73.113; -303.796
585.494;   36.748;   71.890;  118.198
585.771;  136.330; -250.109; -354.804
586.048;  390.769; -196.113;  -76.796
586.325;  207.293; -721.110; -773.801
586.602;   76.545;  230.896;  213.188
586.879;  -39.970; -499.100; -580.820
587.156;   22.684; -156.105; -331.810
587.433;  -50.885; -701.102; -667.817
587.710;   61.601;  152.888;  234.202
587.987;  224.864; -264.105; -236.811
588.264;  650.053;  315.888;  387.202
588.541; 1044.673;  -61.104;   26.187
588.818; 2099.908;   72.892;  171.196
589.095; 1813.743; -163.104; -174.812
589.371;  280.253; -459.109; -414.804
589.648;   -1.754; -581.107; -437.807
589.925;    2.139; -517.114; -621.795
590.202;   -8.274; -741.112; -607.798
590.478;   51.866; -166.105;  -73.811
590.755;  172.763; -241.108; -132.806
591.032; 1661.220; -741.110; -699.802
591.308; 2373.509; -732.094; -790.831
591.585; 1195.019; -573.110; -560.802
591.862;   43.491;-1056.102; -950.817
592.138;   13.961; -475.108; -474.805
592.415;   82.921; -486.104; -495.813
592.691; 1101.569;  460.896;  518.188
592.968; 1381.872; -208.098; -123.824
593.244;  656.892; -695.116; -595.790
593.521;   60.592; -105.102;  -42.817
593.797;  -48.533; -810.122; -720.780
594.074;  229.309; -611.096; -588.826
594.350;  511.545;  828.905;  729.172
594.626;  211.215; -303.111; -283.801
594.903;   47.092; -643.101; -645.817
595.179;  141.300;  243.896;  418.187
595.455;    5.297; -136.107; -150.807
595.731;    4.601;  -19.103;  -38.814
596.008;  -31.090; -464.111; -434.800
596.284;   15.807; -187.100; -242.820
596.560;    9.340; -501.093; -493.833
596.836;  136.636; -173.105;  -70.810
597.112;  240.137; -582.108; -437.805
597.388;  215.482;  -49.097;  -48.826
597.665;   92.647;  437.887;  530.203
597.941;  -71.957; -572.089; -658.839
598.217;    2.273; -323.110; -293.802
598.493;  173.432;   61.891; -204.804
598.769;  367.826; -175.100;  -50.819
599.045;  208.665; -490.108; -562.806
599.321;   17.256; -193.100; -261.820
599.597;   84.531; -355.109; -476.804
599.872;  332.848;  409.896;  429.187
600.148;  263.683;  -61.097; -172.826
600.424;  205.169;   91.893;  202.193
600.700;  152.446; -170.107; -280.807
600.976;   69.428; -442.097; -464.825
601.252;  167.903; -226.109; -272.803
601.527;  126.548; -833.104; -840.813
601.803;   96.341; -453.105; -404.812
602.079;  126.051; -124.100; -118.819
602.354;  379.874; -620.092; -531.835
602.630;  589.969; -140.113; -482.796
602.906; 1588.672; -910.101; -863.818
603.181; 4922.972; -627.119; -534.786
603.457; 4152.656;   98.903; -278.826
603.733;  571.081; -605.120; -626.783
604.008;  690.608; -245.106; -164.810
604.284; 2282.768; -636.101; -580.817
604.559; 1947.005;   -3.112;  -42.799
604.835;  349.011; -163.105; -225.810
605.110;  278.586; -732.099; -892.821
605.385;  542.392;  224.907;  267.167
605.661;  417.922; -625.095; -729.829
605.936;  787.265; -664.108; -737.806
606.211;  699.783;  -17.103; -170.815
606.487;  132.984; -329.114; -376.794
606.762;  -21.278; -791.119; -745.786
607.037;  -42.114; -501.105; -433.810
607.313;  -58.459; -589.096; -574.828
607.588;  -26.493; -375.106; -137.810
607.863;   22.222;  -28.101; -143.818
608.138;  139.622;  513.890;  516.198
608.413;  -17.660; -576.099; -592.822
608.688;    8.311; -203.108; -267.805
608.964;  108.427; -509.106; -218.809
609.239;  166.608; -107.105; -212.810
609.514;  177.466;  281.895;  240.188
609.789;  463.720; -187.104; -716.812
610.064;  620.765; -435.096; -609.827
610.339;  569.103; -855.109; -799.804
610.614;  785.956; -131.100; -315.820
610.889;  435.991;  215.895;  107.188
611.163;    7.217; -407.104; -591.812
611.438;   51.685;   81.886; -167.794
611.713;  -24.632; -467.101; -499.817
611.988;   12.771; -144.101; -328.818
612.263;  -57.941; -771.102; -717.815
612.538;  147.044;  385.887;  251.204
612.812;   72.958; -832.100; -911.820
613.087;   64.170; -358.098; -338.823
613.362;  -73.353; -497.107; -557.807
613.637;   28.179;  261.897;  138.186
613.911;  -26.625; -256.092; -345.835
614.186;   61.870; -249.107; -292.807
614.460;  422.890; -842.081; -758.854
614.735;  521.290;  -55.087;  -17.843
615.010;  104.231;   43.912;  -82.841
615.284;  190.586;  360.892;  246.195
615.559;  238.399; -792.092; -955.835
615.833;  206.263;  -76.099;  -87.822
616.108;  -21.440; -225.090; -390.837
616.382;  112.617;  274.913;  402.156
616.656;   86.686; -241.090; -232.837
616.931;  360.639; -785.099; -700.822
617.205;  725.849; -973.104; -979.813
617.480;  690.018;  -91.125;    6.225
617.754;   99.591; -396.125; -128.774
618.028;   -3.187; -369.129; -382.768
618.302;   40.559;   73.892;  -25.805
618.577;  -51.020; -371.103; -518.815
618.851;  -61.750; -399.109; -600.803
619.125;  -56.830; -335.134; -378.759
619.399;  -45.626; -244.104; -374.813
619.673;  -51.001; -330.115; -515.792
619.947;  -50.512; -333.114; -448.795
620.222;  -33.734; -198.110; -204.801
620.496;  -13.296;  -47.121;  -96.782
620.770;    5.821; -187.122;  -93.781
621.044;  159.209;  323.895;  346.190
621.318;  554.882; -653.120; -614.783
621.592;  451.230; -430.121; -409.783
621.866;  216.456; -476.112; -572.799
622.140;   -5.757; -207.116; -356.791
622.413;   13.610;  138.889;  112.200
622.687;  -54.706; -746.101; -492.817
622.961;   22.259; -130.108; -143.805
623.235;  -65.814; -633.111; -661.800
623.509; -117.285; -816.105; -848.811
623.783;   -9.032;  -12.107;   48.193
624.056;  -26.967; -254.120; -280.783
624.330;   35.500;   63.888;   -3.797
624.604;   12.090; -271.116; -355.790
624.877;   42.796;  180.890;   26.198
625.151;   17.533; -249.114; -238.794
625.425;  -40.224; -150.103; -283.814
625.698;  -56.833; -367.119; -374.785
625.972;  -92.677; -799.110; -765.802
626.245;   71.792;  685.884;  484.210
626.519;  -50.763; -426.120; -340.784
626.792;  -32.779; -192.107; -380.807
627.066; -101.936; -485.122; -662.779
627.339;  -99.231; -736.110; -663.802
627.613;   37.135;  351.880;  148.216
627.886;   65.050;  187.891; -612.803
628.160;  -16.394;  312.880; -161.783
628.433;  -90.629; -695.125; -703.775
628.706;  -79.513; -517.120; -615.784
628.979;    9.127;  296.876;  117.223
629.253; -112.279; -785.119; -833.786
629.526;  228.206; -334.126; -253.772
629.799;  195.259; -641.123; -479.778
630.072;   83.164; -497.128; -516.769
630.346;  -90.283;-1115.116;-1080.790
630.619;  281.522; -467.107; -545.808
630.892;  450.286;  709.889;  593.200
631.165;  247.249;  790.896;  679.187
631.438; -110.722;-1092.112;-1055.798
631.711;   43.037;  453.877;  257.221
631.984;  -64.788; -523.117; -624.789
632.257;  -65.291; -636.117; -681.789
632.530;  -73.183; -412.119; -433.785
632.803;   18.181; -109.115;    7.207
633.076;  -75.469; -360.123; -422.777
633.349;   -3.807;  173.872;  121.231
633.622;  -52.134; -187.119; -240.785
633.895; -123.017; -903.120; -823.783
634.167;  -68.942; -496.126; -525.773
634.440;   -6.727;  -19.116; -137.792
634.713;  -18.480;  -22.119; -120.786
634.986;   67.333;  593.871;  453.233
635.258;  -86.571; -507.115; -597.793
635.531;  101.955;  742.882; -343.788
635.804;  -22.014; -303.117; -318.789
636.077;  -83.431; -830.116; -852.791
636.349;  -32.247; -586.115; -474.793
636.622;  338.731; 1695.874; 1392.228
636.894;  139.962; -474.120; -909.784
637.167;   74.875; -836.127; -789.771
637.439;    1.471; -278.128; -213.770
637.712;  -43.293; -312.126; -293.772
637.984;  -84.105; -635.116; -707.791
638.257;  303.307;  515.877;  488.222
638.529;  438.297; -881.125; -924.776
638.802;  172.389; -508.128; -449.769
639.074; -122.105; -927.122; -952.781
639.346; -119.763; -942.135; -930.757
639.619;  -11.326;  -79.142; -319.744
639.891;  -16.036;  -83.122; -168.779
640.163;  -82.934; -689.122; -756.780
640.435;   18.268;  273.878;  103.220
640.708;   -1.256;  -72.122; -132.780
640.980;  -32.054; -366.122; -362.781
641.252;  149.423;  -25.121;  -71.781
641.524; 1489.125;  580.879;  573.219
641.796; 1491.577;-1094.121; -907.782
642.068;  248.853; -191.121; -300.782
642.340;  -70.645; -486.121; -566.783
642.613;   35.682;  294.880;  323.217
642.885; -111.341; -787.120; -878.783
643.157;  -67.015; -810.120; -658.784
643.428;   44.287;  170.880;  218.216
643.700;  -55.236; -498.120; -425.784
643.972;  -22.884;  -16.119; -133.785
644.244;  -86.333; -474.119; -559.785
644.516;  -49.131; -250.119; -114.786
644.788;   56.771;  662.881;  548.214
645.060;  -18.677;  -12.119; -124.786
645.332;  -95.501; -525.118; -535.787
645.603;   21.051;  479.882;  342.213
645.875;  -67.897; -334.118; -369.787
646.147;  148.330; 1487.882; 1242.212
646.418;  -91.844; -931.117; -918.788
646.690;   38.983; -714.117; -715.789
646.962;   -0.340; -413.117; -451.789
647.233;  -14.988;   15.883;   11.211
647.505; -116.337; -595.117; -475.790
647.776;   16.690;  328.884;  229.210
648.048;  -18.633; -248.116; -418.790
648.320;  -82.406; -752.116; -679.791
648.591; -149.755;-1055.116; -958.791
648.862;  -84.278; -505.116; -577.792
649.134;    1.874;  115.885;  198.208
649.405;  -62.174; -661.115; -618.792
649.677;  -57.797; -475.115; -598.793
649.948;  -12.696; -181.115; -296.793
650.219;  -19.319;  -37.115; -147.793
650.491;  -72.667; -431.114; -520.794
650.762; -111.640; -705.114; -731.794
651.033;  -73.514; -437.114; -424.795
651.304;  -96.562; -743.114; -728.795
651.576;  -84.785; -680.114; -645.795
651.847;  -38.358; -250.113; -140.796
652.118;  -39.382;  -32.113; -189.796
652.389;  -85.830; -639.113; -722.796
652.660;  -29.428; -147.113;  -89.797
652.931; -126.851; -897.112; -871.797
653.202;  -72.850; -382.112; -541.798
653.473;  -70.448; -633.112; -533.798
653.744;   82.229; -595.112; -590.798
654.015;   87.481; -356.112; -303.799
654.286;  -70.718; -642.111; -663.799
654.557;  -70.066; -586.111; -521.799
654.828; -153.839;-1114.111;-1088.800
655.099;  -69.887; -404.111; -291.800
655.370;  -95.111; -427.111; -543.801
655.641; -120.134; -656.110; -714.801
655.911; -114.807; -618.110; -638.801
656.182;   55.695;  437.890;  387.198
656.453;  110.296;  830.890;  746.198
656.724;  -75.902; -466.110; -426.802
656.994;  -79.875; -553.109; -568.803
657.265; -104.148; -862.109; -873.803
657.536;  -83.521; -500.109; -377.804
657.806; -105.445; -561.109; -593.804
658.077; -133.943; -866.109; -950.804
658.347;  -97.891; -523.108; -598.805
658.618; -116.789; -646.108; -694.805
658.888;  -28.863;  -41.108;  112.195
659.159;  -83.036; -432.108; -548.806
659.429;  -23.359; -292.108; -349.806
659.700;   -5.782; -435.107; -390.807
659.970;  -32.506; -370.107; -359.807
660.241;  -10.229; -754.107; -921.807
660.511;  382.473; -147.107; -174.808
660.781;   40.675; -793.106; -748.808
661.052;  -45.249; -222.106; -381.808
661.322;  -14.097;   21.894;   -9.809
661.592;   18.830;  257.894;  148.191
661.862;  -76.568; -369.106; -382.810
662.133;  -87.817; -551.105; -502.810
662.403; -121.765; -770.105; -676.810
662.673;  -65.463; -256.105; -213.811
662.943; -105.261; -612.105; -551.811
663.213;  -16.460;  -85.105;  -81.811
663.483;  -83.358; -593.104; -568.812
663.753;  -44.481; -194.104; -152.812
664.023;  -15.179;   68.896;  -32.813
664.293;  -61.778; -319.104; -126.813
664.563; -110.826; -694.104; -648.813
664.833; -126.074; -743.103; -608.814
665.103; -119.472; -730.103; -793.814
665.373; -118.320; -766.103; -806.814
665.643;  -97.644; -863.103; -918.815
665.913;    0.433; -534.103; -714.815
666.182;   78.460; -685.102; -719.816
666.452;  193.562;  -22.102;  -89.816
666.722;  -46.487; -724.102; -784.816
666.992; -125.760; -948.102; -921.817
667.261; -105.983; -824.102; -808.817
667.531;  176.919;  134.899;   45.183
667.801;  513.570; -440.101; -412.818
668.070;  217.697;  714.899;  697.182
668.340; -112.051; -883.101; -840.819
668.609;   89.776;  588.900;  301.181
668.879;  -79.798; -490.100; -558.819
669.149;  -62.271; -539.100; -516.820
669.418;  -90.544; -698.100; -726.820
669.688;  -49.692; -482.100; -666.820
669.957;   37.384; -423.099; -546.821
670.226;  -38.189; -268.099; -331.821
670.496;  -87.687; -431.099; -635.822
670.765;  -76.260; -418.099; -501.822
671.034; -138.434; -872.099; -828.822
671.304;  -18.507;   55.902; -111.823
671.573; -148.105;-1085.098; -957.823
671.842;   28.847; -380.098; -294.823
672.112;  -17.302; -692.098; -586.824
672.381;  -19.750; -239.098; -214.824
672.650; -135.448;-1005.097;-1021.825
672.919; -100.921; -631.097; -507.825
673.188;  -97.419; -681.097; -878.825
673.457; -153.043;-1101.097;-1143.826
673.726;  -75.791; -579.096; -646.826
673.995;  -62.364; -533.096; -479.826
674.265;  -43.337; -263.096; -333.827
674.534;  -22.386; -183.096; -235.827
674.802;  -22.409; -618.096; -703.828
675.071;  677.493; -886.095; -801.828
675.340; 2874.520; -464.095; -339.828
675.609;  961.221;  103.905;   82.171
675.878;   17.048; -949.095; -893.829
676.147;    9.425;  -26.095;   -8.829
676.416;   36.552; -210.094; -294.830
676.685;  529.328; 1000.906; -622.830
676.953;   53.955; -603.094; -452.831
677.222;  -39.543; -193.094; -273.831
677.491;  -28.591;  -24.094; -127.831
677.759;  -21.040;   11.907;  172.168
678.028;  -36.838; -279.093; -222.832
678.297;  -21.761;   71.907;  197.168
678.565; -135.084; -898.093; -944.833
678.834;  -65.183; -311.093; -268.833
679.102;  -75.506; -411.092; -391.834
679.371; -150.104; -898.092; -727.834
679.639; -130.902; -797.092; -786.834
679.908; -126.101; -794.092; -724.835
680.176; -164.424; -895.091; -941.835
680.445;  -74.697; -346.091; -352.835
680.713;  -36.420;  -58.091;  -23.836
680.982;  -95.968; -523.091; -525.836
681.250; -111.017; -578.091; -507.837
681.518;  -87.465; -534.090; -751.837
681.787;  -28.963; -204.090; -167.837
682.055;  -78.086; -490.090; -422.838
682.323; -160.635; -993.090; -992.838
682.591;   -6.558; -216.090; -538.838
682.859;   53.169;    9.911;  -35.839
683.128;    7.121;  232.911;  497.161
683.396; -164.628;-1102.089;-1122.840
683.664;  -43.826; -241.089;   21.160
683.932;   -9.999;  144.911;  -76.840
684.200; -100.247; -576.088; -320.841
684.468;  -22.746;  -73.088; -124.841
684.736;  -40.719; -214.088; -175.841
685.004; -124.392;-1024.088; -982.842
685.272;  -70.890; -880.088; -774.842
685.540;  -82.064; -499.087; -557.843
685.808;  -99.212; -651.087; -682.843
686.076; -111.760; -894.087; -969.843
686.343;  -85.008; -601.087; -815.844
686.611;   25.893; -195.087; -224.844
686.879;  286.045; -530.086; -553.844
687.147; 2443.147; -483.086; -480.845
687.414;  702.549;  -12.086; -169.845
687.682;  -27.475; -658.086; -757.846
687.950;  227.777;  259.915;  263.154
688.217;  -20.446; -792.085; -760.846
688.485;  -26.444; -632.085; -636.847
688.753;  356.583;  -11.085; -102.847
689.020;  100.259; -820.085; -851.847
689.288; -107.989; -853.084; -787.848
689.555;  -22.437; -195.084; -148.848
689.823;  -54.085; -241.084; -345.849
690.090;  -76.059; -546.084; -651.849
690.358; -153.432; -877.084; -897.849
690.625;   16.295;  120.917;   45.150
690.892;  -73.353; -403.083; -369.850
691.160;  -29.577;   72.917;  -35.850
691.427;    3.800;  141.917;  130.149
691.694; -133.948; -855.083; -929.851
691.962; -136.421;-1177.082;-1060.852
692.229;    9.680;  127.918;   56.148
692.496;   55.357;  130.918;  -49.852
692.763;    5.634; -164.082; -201.853
693.031;  -83.339; -739.082; -716.853
693.298;  -40.663; -509.081; -368.853
693.565;  192.739; -155.081; -163.854
693.832;  905.916;   -5.081;   -9.854
694.099;   77.568; -643.081; -642.855
694.366;  -65.031; -882.081; -896.855
694.633;  -61.179; -920.080; -633.855
694.900;  680.898; 4367.920; -114.856
695.167;  337.525; -214.080; -380.856
695.434;   77.676; -646.080; -623.856
695.701;  183.978;  121.921;  -61.857
695.968;  370.580; -365.079; -361.857
696.234;  873.882; -415.079; -646.858
696.501;10030.034; -776.079; -614.858
696.768; 5288.485; -554.079; -617.858
697.035;  303.462; -632.078; -667.859
697.302;   40.289; -448.078; -552.859
697.568;   22.116; -458.078; -497.859
697.835;  -54.958; -683.078; -624.860
698.102;  -23.406; -498.078; -407.860
698.368;   72.596;  384.923;  396.139
698.635;  -43.927;  -47.077; -424.861
698.901;  -30.026; -240.077; -348.861
699.168;   37.701; -534.077; -456.862
699.435;   54.803;  -72.077;  -13.862
699.701; -112.820; -868.076; -764.862
699.968;    6.381;  144.924; -441.863
700.234;  -93.392; -783.076; -822.863
700.500;  -54.340; -448.076; -539.864
700.767;  -11.888;   -1.075;   26.136
701.033; -136.637;-1015.075; -963.864
701.299;  -56.910; -450.075; -483.865
701.566;  103.592;  950.925;  763.135
701.832;   25.594;  -31.075;  -76.865
702.098;  -96.680;-1054.074;-1034.866
702.365;  -89.753;-1098.074;-1030.866
702.631;  -33.326;-1038.074;-1063.867
702.897; 1063.326; -765.074; -676.867
703.163; 1920.227;  348.926;  254.133
703.429;  130.779; -256.073; -273.868
703.695;  -31.094; -796.073; -792.868
703.961;   24.108; -214.073; -210.868
704.227;  -45.290; -630.073; -725.869
704.493;  114.986;  613.927;  510.131
704.759;  -21.387; -565.072; -540.870
705.025;   35.815; -203.072; -194.870
705.291;  -16.533; -666.072; -562.870
705.557;  185.068;  719.928;   34.129
705.823;   40.970; -742.072; -694.871
706.089;  147.972; -307.071; -326.871
706.355;  366.674; -315.071; -244.872
706.620; 5809.500; -776.071; -729.872
706.886; 8090.152; -309.071; -362.873
707.152;  690.654; -818.070; -973.873
707.418;   -6.819;-1153.070;-1186.873
707.683;   -5.243; -550.070; -530.874
707.949;  -39.566; -547.070; -578.874
708.215;   -2.164; -129.070; -207.874
708.480;  -27.662; -520.069; -420.875
708.746;   82.489;   68.931;   28.125
709.011;  -64.859; -578.069; -612.876
709.277;  -68.707; -538.069; -543.876
709.542;  -52.855; -428.069; -387.876
709.808;   -7.129;  -59.068;   89.123
710.073;  -84.952; -577.068; -695.877
710.339;  -41.775; -242.068; -228.877
710.604;   34.677; -780.068; -845.878
710.869;  274.953; -277.068; -366.878
711.135;  -84.995; -715.067; -628.879
711.400;  -81.993; -507.067; -608.879
711.665;  -61.966; -404.067; -479.879
711.931;  -91.889; -661.067; -677.880
712.196; -121.313; -876.067; -954.880
712.461;   65.639; -402.066; -490.880
712.726;   85.066; -727.066; -771.881
712.991;  -79.407; -647.066; -664.881
713.256;  -44.681; -350.066; -332.882
713.521;  -55.179; -417.065; -381.882
713.787;  -70.227; -454.065; -472.882
714.052;  -16.925; -214.065; -400.883
714.317; -101.774;-1045.065; -981.883
714.581; 1037.578; -374.065; -268.883
714.846; 1541.005; -822.064; -888.884
715.111;  142.732;  261.936;  257.116
715.376;  -19.442;  -86.064; -223.885
715.641;  -34.690; -365.064; -367.885
715.906;  222.762;   15.936; -551.885
716.171;   93.714;  221.937;  209.114
716.436;   13.315;  -78.063; -104.886
716.700; -105.458; -818.063; -692.886
716.965; -129.256; -794.063; -807.887
717.230;  -59.879; -339.063; -392.887
717.494;  -34.753;  -40.062; -134.888
717.759;  -84.601; -784.062; -640.888
718.024;   10.201;  269.938;  250.112
718.288;   72.553;  685.938;  395.111
718.553; -134.471; -803.062; -977.889
718.817; -135.344; -883.061; -899.889
719.082;  -27.742; -115.061; -125.890
719.346; -143.640;-1000.061; -947.890
719.611;  -50.588; -300.061; -255.891
719.875; -100.487; -568.060; -537.891
720.140;  -69.610; -453.060; -603.891
720.404;   -3.183; -136.060; -249.892
720.668;  632.619; -475.060; -411.892
720.933;  246.020;  146.940;  137.108
721.197; -101.478; -667.059; -600.893
721.461; -136.226; -851.059; -826.893
721.725;  -19.224;  -21.059; -250.894
721.990;  -58.323; -284.059; -204.894
722.254;  -31.496;  -26.059; -108.894
722.518;  -63.944; -286.058; -442.895
722.782; -109.967; -743.058; -594.895
723.046;  106.484;  614.942;  570.105
723.310;   26.361;  374.942;  210.104
723.574; -100.212; -654.058; -614.896
723.838; -100.310; -576.057; -642.897
724.102;  -40.409; -226.057; -239.897
724.366; -131.957;-1032.057; -978.897
724.630;  -98.655; -749.057; -571.898
724.894;  -81.428; -722.057; -514.898
725.158;  -29.327;   38.944; -295.898
725.422;  -55.475; -394.056; -327.899
725.685;  -66.498; -441.056; -349.899
725.949;  -92.246; -566.056; -519.900
726.213;  -69.545; -732.056; -811.900
726.477;   74.982;-1020.055; -933.900
726.740;  110.984; -274.055; -104.901
727.004;  280.086; -384.055; -510.901
727.268; 3305.163; -442.055; -400.901
727.531;  981.339; -961.055; -775.902
727.795;  -32.084; -713.054; -673.902
728.059;  -68.982; -552.054; -557.903
728.322;  -76.505; -841.054; -669.903
728.586;    2.596; -692.054; -701.903
728.849;  -94.852; -695.053; -756.904
729.112; -116.100; -812.053; -912.904
729.376; -124.923; -959.053; -905.904
729.639;  -72.097; -536.053; -536.905
729.903; -107.995; -733.053; -699.905
730.166;  -56.293; -437.052; -399.906
730.429;  -32.716; -317.052; -468.906
730.693;  -67.415; -355.052; -894.906
730.956;  176.912;  810.948;  651.093
731.219;  555.439; -310.052; -103.907
731.482;   54.116;-1003.051; -894.907
731.745;   45.242; -794.051; -935.908
732.009;    3.769;  -30.051;   50.092
732.272; -102.554; -904.051; -771.909
732.535;  -58.927; -300.051; -310.909
732.798; -151.701;-1083.050;-1166.909
733.061;  -65.224; -430.050; -456.910
733.324;  -12.272;   31.950; -180.910
733.587;   56.780;  290.950;  365.090
733.850;  -69.569; -973.049;-1050.911
734.113;   17.658;   33.951;   32.089
734.376;    3.210; -328.049; -447.912
734.639;  186.637; 1188.951; 1011.088
734.901;   37.438; -180.049; -402.912
735.164;  357.040; -883.048; -837.913
735.427; 1067.342; -166.048; -355.913
735.690;   91.019; -205.048; -234.913
735.952;  -40.579; -923.048; -925.914
736.215;  -43.003;-1113.048;-1009.914
736.478;   14.174; -771.047; -774.915
736.740;  169.626;   33.953;  129.085
737.003;  473.153; -658.047; -672.915
737.266; 3201.054;  -94.047;   46.084
737.528;  356.981; -682.047; -660.916
737.791;  298.208; -316.046; -327.916
738.053;  728.835;  465.954;  649.083
738.316; 9753.211; -162.046; -136.917
738.578; 7503.788; -770.046; -736.918
738.841;  431.665; -382.046; -446.918
739.103;  149.217; -875.045; -777.918
739.365;  438.868;   79.955;  -69.919
739.628;   -7.380; -884.045; -805.919
739.890;  -40.278; -758.045; -710.919
740.152;  -52.301; -692.044; -754.920
740.414;  -15.500; -408.044; -359.920
740.677;  -41.448; -785.044; -634.921
740.939;  -56.321; -587.044; -487.921
741.201;  174.131; -432.044; -572.921
741.463;   17.382; -689.043; -745.922
741.725;    4.209;  -21.043; -199.922
741.987;   51.561;  220.957;  116.078
742.249;  -33.362; -751.043; -859.923
742.511;  132.464; -703.043; -794.923
742.773;   -6.309; -546.042; -546.924
743.035;  139.143;  796.958;  533.076
743.297;  -63.955; -963.042;-1013.924
743.559;  621.522; -278.042; -262.925
743.821;   30.773; -735.042; -744.925
744.083;    5.300;  -44.041; -149.925
744.345;  -94.023; -869.041; -892.926
744.607;   30.454;   75.959;  122.074
744.868;  -62.745; -490.041; -554.927
745.130; -104.043; -994.041;-1008.927
745.392;   41.459;   -1.040;  -44.927
745.653;  -19.264; -411.040; -378.928
745.915;  138.137;  896.960;  631.072
746.177;   50.864;   35.960;  -43.928
746.438;  -30.559; -428.040; -543.929
746.700;  -44.032; -947.039; -988.929
746.961;    3.344; -659.039; -740.930
747.223;  131.821; -190.039;  -74.930
747.484;   50.948; -391.039; -471.930
747.746;  134.425;  -23.038; -106.931
748.007;   78.326; -647.038; -689.931
748.269;  234.453; -468.038; -440.931
748.530;  375.705; -852.038; -638.932
748.791;  227.807; -354.038; -420.932
749.053;  377.058;  286.963;  163.067
749.314;  380.235; -236.037; -169.933
749.575;  426.012; -945.037; -905.933
749.836;  734.314; -217.037;   86.066
750.098; 1949.290;  -60.037;  -21.934
750.359;30796.042;  414.964;  555.066
750.620; 8569.344; -121.036; -220.935
750.881;  879.846; -585.036; -513.935
751.142; 1147.498; -950.036; -938.936
751.403;14979.899; -789.036; -705.936
751.664; 7253.876;-1034.035; -999.936
751.925;  451.428; -175.035; -262.937
752.186;  247.355; -298.035; -278.937
752.447;  125.206; -590.035; -445.937
752.708;   28.833; -532.035; -648.938
752.969;    4.660; -566.034; -576.938
753.230;  -27.663; -777.034; -672.939
753.491;  -15.387; -650.034; -631.939
753.751;   52.965;  109.966;   19.061
754.012;   87.992;  258.967;  181.060
754.273;   22.844; -174.033;  -71.940
754.534;   -3.080; -487.033; -580.940
754.794;  -89.728; -926.033; -911.941
755.055;  132.524; 1051.967;  881.059
755.316;  -56.674; -700.032; -566.942
755.576;  -24.448; -606.032; -576.942
755.837;  -60.021; -527.032; -695.942
756.097;  -54.719; -530.032; -564.943
756.358;  -85.192; -725.032; -770.943
756.618;  -53.691; -705.031; -641.943
756.879;  -14.864; -254.031; -349.944
757.139; -129.987;-1098.031;-1116.944
757.400;  -51.335; -538.031; -553.945
757.660;  -12.109; -365.031; -401.945
757.920;   -3.657; -266.030; -228.945
758.181;  -33.305; -468.030; -351.946
758.441;  -91.253; -870.030; -809.946
758.701;  -27.726; -308.030; -215.946
758.961;  -22.525; -220.030; -278.947
759.222;  -48.798; -574.029; -502.947
759.482;  -78.596; -683.029; -723.948
759.742;  -81.519; -706.029; -547.948
760.002;    3.182;  -83.029; -143.948
760.262;   37.684;   50.972;  182.051
760.522;  -52.364; -498.028; -574.949
760.782;  -60.337; -738.028; -612.949
761.042;  -31.536; -618.028; -573.950
761.302;   47.116;   55.972;  -18.950
761.562;   36.118; -164.027; -154.951
761.822;   57.795; -710.027; -551.951
762.082;  -33.779;-1104.027;-1093.951
762.342;   64.773; -328.027; -403.952
762.601;   79.225; -567.027; -506.952
762.861;  291.902; -281.026; -207.952
763.121;  369.678; -406.026; -411.953
763.381; 6845.455; -499.026; -485.953
763.640; 8307.857; -139.026; -307.954
763.900;  359.484; -242.026; -203.954
764.160;   92.235; -458.025; -491.954
764.419;  -10.013; -726.025; -782.955
764.679;  -76.286; -795.025; -726.955
764.939;  -21.234; -124.025; -210.955
765.198;  -86.433; -608.025; -563.956
765.458;  -98.681; -710.024; -612.956
765.717;  -82.979; -454.024; -590.957
765.976;  -67.602; -428.024; -411.957
766.236;  -66.250; -475.024; -610.957
766.495;   23.301;  260.977;   73.042
766.755; -116.822;-1090.023; -987.958
767.014;  -38.095; -594.023; -665.958
767.273;  -66.193; -373.023; -397.959
767.533;  -48.692; -228.023; -307.959
767.792;  -24.340; -151.022; -188.960
768.051;  -50.413; -228.022; -276.960
768.310;  -94.261; -546.022; -650.960
768.569;   -7.235; -161.022;    4.039
768.828;  -32.333; -285.022; -363.961
769.088; -118.031;-1050.021; -942.961
769.347;  -81.229; -755.021; -599.962
769.606;  -90.003; -876.021; -857.962
769.865; -122.101;-1016.021;-1033.963
770.124;    0.676; -411.021; -336.963
770.383;  -42.797; -778.020; -910.963
770.641;    5.579; -398.020; -400.964
770.900;  -64.194; -953.020; -846.964
771.159;  -17.642; -851.020; -951.964
771.418;   -4.465; -917.020; -779.965
771.677;  134.986; -224.019; -293.965
771.936;  165.613; -794.019; -865.966
772.194; 2195.440; -465.019; -437.966
772.453;11951.367; -213.019; -391.966
772.712;  861.418;  416.982;  329.033
772.970;  134.395;   32.982;   63.033
773.229;   80.797;  -22.018;  102.033
773.488;  -74.951; -814.018; -770.968
773.746;   49.651;  296.982;  335.032
774.005;    2.777;  190.983;  -22.969
774.263;   15.679;  243.983;  177.031
774.522;  -43.719; -422.017; -548.969
774.780;  -73.042; -484.017; -417.970
775.039;  -76.141; -551.017; -531.970
775.297;  -35.039; -135.016; -351.970
775.555;  -95.512; -489.016; -612.971
775.814; -126.560; -618.016; -570.971
776.072; -100.584; -749.016; -740.971
776.330; -107.532; -630.016; -520.972
776.589; -108.405; -703.015; -721.972
776.847; -129.903; -645.015; -624.973
777.105; -175.527;-1016.015;-1032.973
777.363;  -83.125; -459.015; -454.973
777.621; -137.373; -660.015; -717.974
777.879;  -26.346;  -42.014;   32.026
778.138;  -98.995; -554.014; -717.974
778.396;  -98.393; -585.014; -526.975
778.654; -165.266;-1015.014; -970.975
778.912;  -64.014; -269.014; -371.976
779.170; -139.138; -880.013; -803.976
779.427; -140.186; -922.013; -897.976
779.685; -146.234; -880.013; -832.977
779.943; -102.057; -654.013; -593.977
780.201; -155.531; -964.012; -883.978
780.459; -112.854; -651.012; -610.978
780.717;  -89.877; -440.012; -390.978
780.974; -100.900; -449.012; -490.979
781.232;  -76.823; -358.012; -338.979
781.490;  -81.447; -551.011; -472.979
781.747; -113.545; -555.011; -476.980
782.005;   18.157;  462.989;  254.020
782.263; -163.591; -542.011;-1004.981
782.520;  -89.840; -326.011; -501.981
782.778; -163.538;-1013.010;-1051.981
783.035; -167.736; -962.010; -938.982
783.293;  -51.359; -248.010; -206.982
783.550;  -46.983; -134.010; -198.982
783.808; -143.756; -764.010; -776.983
784.065; -169.329; -745.009; -874.983
784.322;  -59.152;   25.991;  -86.984
784.580; -142.826; -915.009; -771.984
784.837; -101.874; -392.009; -466.984
785.094; -137.222; -783.009; -762.985
785.352;  -73.295; -304.008; -404.985
785.609; -119.269; -934.008; -839.985
785.866;  -89.917; -345.008; -401.986
786.123;  -96.315; -639.008; -583.986
786.380; -103.688; -665.008; -604.987
786.637;  -49.862; -225.007; -380.987
786.895;  -36.635; -456.007; -543.987
787.152;  -43.308; -135.007; -267.988
787.409;  -58.406; -123.007; -225.988
787.666;  -79.055; -299.006; -378.988
787.923; -109.203; -616.006; -695.989
788.179; -102.726; -551.006; -584.989
788.436; -104.149; -585.006; -585.990
788.693;  -41.822;  -92.006;  -87.990
788.950;   84.729; -125.005; -112.990
789.207;  140.781; -381.005; -372.991
789.464;  -54.367; -161.005; -301.991
789.720;  -13.740;  150.995;  110.009
789.977; -168.364;-1003.005; -671.992
790.234;  -36.037;   44.996;  -66.992
790.490; -158.535; -884.004;-1031.993
790.747;  -24.483;  -85.004;   22.007
791.004;  -38.257; -426.004; -348.993
791.260;  -91.205; -430.004; -560.994
791.517; -118.928; -843.003; -788.994
791.773;  -57.326; -379.003; -342.994
792.030;  -98.750; -596.003; -660.995
792.286;  -95.048; -686.003; -636.995
792.543;  -24.746;  -74.002; -159.995
792.799;  -54.069; -584.002; -382.996
793.055; -160.068;-1179.002;-1210.996
793.312;  -93.766; -827.002; -816.997
793.568;  -80.964; -746.002; -599.997
793.824;   14.188; -226.001; -284.997
794.081;    6.339; -447.001; -508.998
794.337;   58.441; -664.001; -561.998
794.593; 1077.793; -319.001; -271.999
794.849; 6179.795; -746.001; -772.999
795.105;  335.646; -270.000; -261.999
795.361;   21.998; -490.000; -457.000
795.617;  -66.100; -875.000; -945.000
795.873;  -47.700; -360.000; -407.000
796.129;  -46.250; -368.000; -306.000
796.385;  -34.750; -124.000; -156.000
796.641;   53.425;  412.000;  550.000
796.897;  -89.200; -666.000; -635.000
797.153;   48.450;  453.000;  357.000
797.409;  -91.850; -785.000; -868.000
797.665;  -82.200; -625.000; -732.000
797.921;  -76.950; -775.000; -762.000
798.176;  -50.725; -744.000; -747.000
798.432;  -50.050; -824.000; -596.000
798.688;  -79.075;-1174.000;-1078.000
798.943;   80.250; -165.000; -147.000
799.199;   18.250;-1005.000; -959.000
799.455;  216.075;  369.000;  316.000
799.710;  133.050; -813.000; -380.000
799.966;  292.375; -162.000; -160.000
800.221;  449.400; -638.000; -721.000
800.477; 9343.325; -743.000; -710.000
800.732; 9565.300; -773.000; -800.000
800.988;  666.675;  205.000;  -19.000
801.243; 1905.350; -454.000; -344.000
801.498; 9661.875; -814.000; -739.000
801.754;  605.950; -289.000; -163.000
802.009;  113.075; -257.000; -335.000
802.264;  -38.875; -967.000;-1033.000
802.520;   31.875;  222.000;   -3.000
802.775;  -46.800; -524.000; -359.000
803.030;   49.150;  395.000;  356.000
803.285; -112.200; -840.000; -903.000
803.540;  -72.025; -686.000; -699.000
803.795;  -56.625; -648.000; -583.000
804.051;  -46.175; -279.000; -346.000
804.306;   21.775;  168.000;  128.000
804.561;  111.800;  451.000;  362.000
804.816;  123.450;  714.000;  861.000
805.071;   -0.025; -185.000; -280.000
805.325;  155.200; -257.000; -427.000
805.580; -106.950; -841.000; -877.000
805.835;  -21.725; -204.000; -297.000
806.090;  -77.200; -760.000; -676.000
806.345;  -13.175; -344.000; -264.000
806.600;  -36.650; -549.000; -632.000
806.854;  -36.825; -408.000; -538.000
807.109;  -21.050; -493.000; -577.000
807.364;    1.375; -407.000; -328.000
807.618;  -17.150; -415.000; -381.000
807.873;   23.200; -470.000; -494.000
808.128;   89.550; -257.000; -518.000
808.382;   98.625; -224.000; -332.000
808.637;   55.400; -440.000; -511.000
808.891;  163.125; -257.000; -180.000
809.146;   94.400; -902.000; -794.000
809.400;  211.025; -848.000; -923.000
809.654;  295.350; -779.000; -551.000
809.909;  421.950; -841.000; -927.000
810.163; 5093.600; -813.000; -651.000
810.418;15280.675; -940.000; -861.000
810.672; 1015.275; -685.000; -690.000
810.926;  661.150; -993.000; -973.000
811.180; 1310.825; -439.000; -372.000
811.434;30333.700;  240.000;  135.000
811.689;14188.075; -231.000; -365.000
811.943;  656.675; -936.000; -953.000
812.197;  338.300; -893.000; -671.000
812.451;  133.125; -379.000; -514.000
812.705;  -22.700; -809.000; -619.000
812.959;    1.775; -263.000; -388.000
813.213;    7.700; -283.000; -209.000
813.467;   64.050;  470.000;  253.000
813.721;  -86.100; -764.000; -792.000
813.975; -121.225; -826.000; -877.000
814.229;   47.425;  430.000;  353.000
814.482;  -74.175; -517.000; -566.000
814.736; -117.950; -766.000; -744.000
814.990; -126.875; -779.000; -872.000
815.244;  -50.200; -228.000; -285.000
815.497; -104.300; -636.000; -601.000
815.751;  -30.050; -141.000;   82.000
816.005; -100.075; -470.000; -586.000
816.258;  -55.150; -510.000; -363.000
816.512; -103.200; -693.000; -610.000
816.766;  -13.775;  121.000;  157.000
817.019;   17.625;  148.000;  149.000
817.273; -118.250;-1000.000; -802.000
817.526;  -39.800; -206.000; -173.000
817.779;  -83.275;-1049.000; -960.000
818.033;  -91.050; -693.000; -807.000
818.286; -125.100; -725.000; -792.000
818.540;  -87.025; -403.000; -403.000
818.793;  -69.350; -402.000; -489.000
819.046; -104.100; -582.000; -520.000
819.299;  -35.650; -157.000; -166.000
819.553; -106.725; -552.000; -592.000
819.806; -156.000;-1016.000; -838.000
820.059;  -52.375; -334.000; -354.000
820.312;   12.700;  152.000;  185.000
820.565;  -20.500;  110.000;  -27.000
820.818;  -36.200;  -59.000; -173.000
821.071; -160.450;-1041.000; -957.000
821.324; -103.050; -536.000; -540.000
821.577; -108.625; -457.000; -483.000
821.830;  -72.575; -270.000; -172.000
822.083; -130.600; -733.000; -288.000
822.336;  -53.075; -261.000; -167.000
822.589; -141.775; -805.000; -688.000
822.842; -143.375; -875.000; -770.000
823.094; -171.175;-1076.000;-1114.000
823.347; -130.275; -925.000; -729.000
823.600;    9.300;  402.000;  187.000
823.853;  -54.675; -311.000; -267.000
824.105;  -73.800; -331.000; -575.000
824.358; -106.075; -617.000; -716.000
824.611;    7.450;  234.000;   40.000
824.863;  -46.600; -612.000; -591.000
825.116;   39.925;  -33.000;   27.000
825.368;   47.825; -366.000; -372.000
825.621;  127.225; -186.000; -240.000
825.873;   65.200; -704.000; -737.000
826.126;  483.050; -669.000; -641.000
826.378;10674.750; -389.000; -505.000
826.630; 3130.700; -890.000; -898.000
826.883;   52.575; -754.000; -693.000
827.135;   41.725; -279.000; -270.000
827.387; -109.200; -893.000; -839.000
827.639;  -34.400;  -86.000;   32.000
827.892; -115.725; -742.000; -582.000
828.144; -145.050; -848.000; -804.000
828.396;  -34.650;  104.000;  -80.000
828.648;  -95.800; -440.000; -333.000
828.900; -151.975; -702.000; -795.000
829.152; -115.075; -684.000; -683.000
829.404;  -65.825; -215.000; -267.000
829.656;   -4.975;  321.000;  214.000
829.908;  -19.300;  393.000;  229.000
830.160; -163.325;-1064.000;-1047.000
830.412; -102.025; -481.000; -430.000
830.664; -117.200; -557.000; -665.000
830.916;  -96.950; -268.000; -206.000
831.167; -187.675;-1073.000; -951.000
831.419; -106.050; -623.000; -566.000
831.671; -139.525; -764.000; -809.000
831.923;  -96.000; -311.000; -447.000
832.174;  -84.350; -273.000; -331.000
832.426; -109.100; -493.000; -582.000
832.678; -184.175;-1043.000;-1091.000
832.929; -167.575; -947.000; -935.000
833.181;  -73.825; -575.000; -677.000
833.432;  -54.825;  -59.000; -186.000
833.684;  -20.050;  112.000;  -27.000
833.935; -121.075; -610.000; -566.000
834.187; -134.025; -829.000; -823.000
834.438;  -45.600;  -58.000;  -25.000
834.689;  -75.025; -255.000; -123.000
834.941;  -52.050; -343.000; -244.000
835.192; -107.950; -590.000; -533.000
835.443; -111.850; -419.000; -506.000
835.695;  -11.700;  138.000;  -16.000
835.946; -101.975; -608.000; -378.000
836.197; -115.600; -599.000; -622.000
836.448;  -88.500; -528.000; -395.000
836.699;  -69.750; -253.000; -341.000
836.950;  -11.725;   72.000;    7.000
837.201; -150.225;-1003.000; -987.000
837.452;  -48.600; -356.000; -170.000
837.703; -114.850; -791.000; -737.000
837.954;  -44.700; -205.000; -365.000
838.205; -108.025;-1029.000;-1008.000
838.456;  135.350; -196.000; -282.000
838.707;   -8.375; -423.000; -519.000
838.958;   -1.875; -634.000; -647.000
839.209;  224.575;   18.000;   40.000
839.460;  102.175; -439.000; -201.000
839.710;  135.100; -135.000; -297.000
839.961;  381.975;  730.000;  612.000
840.212;  296.300; -382.000; -497.000
840.462; 1023.700; -328.000; -277.000
840.713;16571.000; -571.000; -536.000
840.964; 7834.150;  -62.000; -143.000
841.214;  448.150; -384.000; -624.000
841.465;  485.900; -214.000; -141.000
841.715;  425.800; -417.000; -380.000
841.966;  508.425; -746.000; -685.000
842.216; 6599.525; -330.000; -431.000
842.466;29425.400; -169.000; -313.000
842.717; 1946.325; -964.000; -952.000
842.967;  246.625; -635.000; -641.000
843.217;  214.475;   20.000;   28.000
843.468;   54.900; -104.000; -132.000
843.718;  -51.225; -718.000; -726.000
843.968; -102.575; -837.000; -765.000
844.218;   -1.675; -315.000; -262.000
844.469;  -57.875; -577.000; -561.000
844.719; -117.775; -537.000; -682.000
844.969; -100.025; -550.000; -580.000
845.219; -131.525; -814.000; -862.000
845.469;  -93.575; -392.000; -342.000
845.719; -131.775; -792.000; -884.000
845.969;  -30.725;  119.000;  174.000
846.219; -118.525; -738.000; -720.000
846.469;   15.825;  464.000;  432.000
846.718;  -54.650; -115.000;   31.000
846.968; -132.075; -827.000; -827.000
847.218;  -64.200; -224.000; -371.000
847.468; -115.750; -586.000; -555.000
847.718; -148.025; -827.000; -798.000
847.967; -131.525; -826.000; -915.000
848.217;  -87.450; -449.000; -569.000
848.467;  -64.475; -405.000; -376.000
848.716; -114.025; -708.000; -725.000
848.966;  -14.150; -372.000; -358.000
849.215;  -71.450; -428.000; -419.000
849.465; -101.275; -785.000; -615.000
849.714; -149.225;-1132.000;-1150.000
849.964;  -77.875; -551.000; -613.000
850.213;  -31.800; -393.000; -355.000
850.463;   57.775;  137.000;  340.000
850.712;  -11.300; -542.000; -567.000
850.961;   15.025; -739.000; -678.000
851.211;   87.000; -513.000; -504.000
851.460;  148.725; -635.000; -650.000
851.709;  517.450;  -25.000;   18.000
851.958; 9128.175; -912.000; -750.000
852.208;13088.975; -859.000; -879.000
852.457;  491.675; -181.000;  -13.000
852.706;   51.275; -791.000; -823.000
852.955;   14.075; -507.000; -528.000
853.204;  -64.050; -521.000; -461.000
853.453;  -71.950; -418.000; -458.000
853.702; -136.000; -660.000; -750.000
853.951; -102.025; -532.000; -520.000
854.200; -108.200; -613.000; -562.000
854.449; -135.525; -695.000; -661.000
854.698; -106.525; -340.000; -279.000
854.946;  -70.375; -181.000; -284.000
855.195; -147.225; -843.000; -868.000
855.444;  -85.100; -395.000; -420.000
855.693; -119.775; -345.000; -432.000
855.941; -111.425; -387.000; -516.000
856.190;  -64.375; -256.000; -382.000
856.439; -132.650; -652.000; -703.000
856.687;  -59.375;  -99.000;  -72.000
856.936; -115.750; -621.000; -323.000
857.184; -187.825;-1067.000;-1020.000
857.433; -105.300; -423.000; -512.000
857.681; -162.300; -989.000; -953.000
857.930;  -74.400; -282.000; -433.000
858.178; -164.400; -856.000; -929.000
858.427; -155.775; -802.000; -781.000
858.675; -124.425; -377.000; -544.000
858.923; -110.150; -527.000; -819.000
859.172; -172.325;-1094.000;-1070.000
859.420;  -99.650; -339.000; -239.000
859.668; -133.500; -624.000; -628.000
859.916;  -24.150;  109.000;  115.000
860.164; -122.250; -699.000; -603.000
860.413;  143.300; -878.000; -696.000
860.661;  151.700; -709.000; -577.000
860.909;  -83.100; -339.000; -325.000
861.157; -103.350; -277.000; -444.000
861.405; -122.525; -534.000; -670.000
861.653;   10.925;  310.000;  310.000
861.901;   97.250; -543.000; -613.000
862.149;  -34.450; -801.000; -824.000
862.396;  -78.950; -297.000; -187.000
862.644;  -99.625; -368.000; -347.000
862.892;  -27.600;   98.000;  138.000
863.140; -121.200; -549.000; -530.000
863.388; -154.550; -815.000; -759.000
863.635; -121.450; -642.000; -601.000
863.883;  -26.650;  231.000;  190.000
864.131;  -93.125; -288.000; -357.000
864.378; -128.425; -675.000; -540.000
864.626;  -94.700; -347.000; -415.000
864.873; -121.000; -556.000; -505.000
865.121; -142.600; -714.000; -799.000
865.368;  -42.650; -173.000;   75.000
865.616;  -36.000;  -33.000;  -40.000
865.863;  -59.525; -462.000; -506.000
866.111;  -99.400; -795.000; -824.000
866.358;   52.175; -426.000; -420.000
866.605; 2544.900;  -64.000; -804.000
866.853; 3089.400; -621.000; -537.000
867.100;   -9.575; -728.000; -775.000
867.347;  -81.125; -672.000; -611.000
867.594;  -87.225; -740.000; -714.000
867.841;   60.100;   97.000;   17.000
868.089; -151.225; -746.000; -698.000
868.336; -106.325; -477.000; -420.000
868.583; -139.250; -637.000; -741.000
868.830;  -50.650; -131.000; -170.000
869.077; -170.450; -859.000; -787.000
869.324; -131.475; -502.000; -458.000
869.571; -137.925; -398.000; -430.000
869.818; -112.900; -485.000; -439.000
870.065; -112.400; -439.000; -513.000
870.311; -103.450; -456.000; -542.000
870.558; -106.625; -332.000; -311.000
870.805;  -84.975; -320.000; -384.000
871.052; -113.050; -494.000; -369.000
871.298;  -52.400; -204.000; -131.000
871.545;  -79.750; -151.000; -185.000
871.792;  -92.950; -173.000; -222.000
872.038;  -83.925;   43.000; -126.000
872.285; -124.025; -496.000; -387.000
872.532; -104.850; -357.000; -387.000
872.778;    2.400;  556.000;  403.000
873.025; -101.925; -384.000; -359.000
873.271;   20.450;  501.000;  578.000
873.517;  -48.200; -133.000; -209.000
873.764;  -43.525; -193.000;  -80.000
874.010;  -80.450; -143.000; -230.000
874.257;  -43.750;  123.000;   90.000
874.503; -132.925; -579.000; -479.000
874.749;  -60.750;   31.000;  275.000
874.995;  -71.375;  -80.000;  -20.000
875.242; -129.925; -540.000; -478.000
875.488; -124.425; -414.000; -439.000
875.734;  -61.500; -106.000; -234.000
875.980;   60.525; -872.000;-1032.000
876.226;  268.750; -157.000; -255.000
876.472;  -12.000;  343.000;  237.000
876.718;  -41.850;  184.000;  158.000
876.964;  -48.075;   56.000;   55.000
877.210; -134.675; -547.000; -677.000
877.456; -148.275; -630.000; -557.000
877.702; -184.550; -821.000; -832.000
877.948; -116.400; -377.000; -497.000
878.193;   -1.100;  361.000;  255.000
878.439; -110.450; -487.000; -472.000
878.685;  -95.625; -272.000; -343.000
878.931; -135.750; -618.000; -676.000
879.176;  -93.675; -201.000; -201.000
879.422; -175.900; -933.000; -820.000
879.668;   31.075;   10.000;   79.000
879.913;   92.200;   53.000;  137.000
880.159;  -61.075; -112.000;  -17.000
880.404;  -57.075; -152.000; -162.000
880.650;  -37.525;   91.000;  141.000
880.895; -165.275; -670.000; -710.000
881.141; -122.150; -454.000; -428.000
881.386; -163.950; -503.000; -658.000
881.631;  -77.700; -311.000; -166.000
881.877;  -52.750;  112.000;  -13.000
882.122; -141.400; -684.000; -600.000
882.367;  -99.675; -136.000; -186.000
882.612;  -77.450;  -80.000; -176.000
882.858; -185.375; -877.000; -823.000
883.103;  -86.650; -297.000; -267.000
883.348; -152.175; -759.000; -852.000
883.593; -140.600; -677.000; -602.000
883.838;  -70.750; -311.000;  -24.000
884.083;   22.400;  353.000;  288.000
884.328; -107.500; -564.000; -545.000
884.573;  -62.400; -196.000; -143.000
884.818;   95.025; -694.000; -531.000
885.063;  132.100; -348.000; -315.000
885.308; -103.725; -475.000; -398.000
885.553;  -20.050;  245.000;  325.000
885.797; -126.150; -545.000; -615.000
886.042;  -57.650;    8.000;   58.000
886.287;  -94.000; -253.000; -211.000
886.532;  -56.850;   26.000;  204.000
886.776;  -88.125; -407.000; -525.000
887.021; -144.400; -621.000; -574.000
887.265; -143.900; -685.000; -689.000
887.510; -131.775; -557.000; -496.000
887.755;  -90.775; -194.000; -164.000
887.999; -146.325; -552.000; -575.000
888.244;  -60.175;  -58.000;  161.000
888.488;   -2.100;  371.000;  393.000
888.732; -122.825; -368.000; -520.000
888.977; -132.550; -622.000; -567.000
889.221; -157.250; -683.000; -659.000
889.465; -133.400; -422.000; -566.000
889.710;  -73.800;  -56.000; -299.000
889.954;  -15.825;  579.000;  467.000
890.198; -152.375; -584.000; -707.000
890.442; -158.125; -716.000; -712.000
890.687; -171.925; -800.000; -753.000
890.931;  -98.500; -273.000; -210.000
891.175; -133.150; -502.000; -500.000
891.419;  -70.550; -105.000; -110.000
891.663;  -81.400; -239.000; -112.000
891.907; -172.525; -801.000; -545.000
892.151; -181.125; -920.000; -815.000
892.395; -112.175; -274.000; -387.000
892.638;  -24.900;  408.000;  291.000
892.882; -176.675; -780.000; -867.000
893.126;   16.775;  758.000;  558.000
893.370;  -98.300; -167.000; -168.000
893.614; -151.250; -714.000; -715.000
893.857; -109.300; -183.000; -197.000
894.101; -130.050; -527.000; -631.000
894.345;  -58.000;  300.000;  150.000
894.588;    0.050;  569.000;  380.000
894.832;  -85.750; -178.000;  -84.000
895.075;  -97.250;   15.000;  -92.000
895.319; -127.600; -552.000; -420.000
895.563; -120.775; -413.000; -353.000
895.806; -158.000; -628.000; -741.000
896.049;  -85.900; -576.000; -368.000
896.293;   74.250;  527.000;  405.000
896.536; -101.075; -465.000; -468.000
896.779;  -73.700; -149.000;   -1.000
897.023; -143.400; -751.000; -714.000
897.266;  -39.750;  325.000;  269.000
897.509; -182.175; -900.000; -901.000
897.752;  -50.000;  149.000;  171.000
897.996; -198.675; -972.000; -864.000
898.239;  -45.625;  168.000;  102.000
898.482; -118.600; -431.000; -453.000
898.725;  -62.525;  101.000;   53.000
898.968; -155.175; -609.000; -744.000
899.211; -124.050; -513.000; -361.000
899.454; -118.200; -633.000; -539.000
899.697;  -68.875;   90.000;  -43.000
899.940; -160.100; -761.000; -757.000
900.182; -116.325; -335.000; -405.000
900.425;  -93.100; -150.000; -298.000
900.668;  -20.875;  491.000;  350.000
900.911; -107.925; -292.000; -345.000
901.154;  -53.225;  141.000;   -3.000
901.396; -139.050; -407.000; -412.000
901.639; -132.450; -430.000; -496.000
901.882; -176.575; -790.000; -809.000
902.124;  -90.125;  -29.000; -143.000
902.367; -109.100; -315.000; -361.000
902.609; -137.600; -476.000; -453.000
902.852;  -91.475; -108.000; -260.000
903.094; -143.725; -458.000; -337.000
903.337;  -69.525;  -26.000;   53.000
903.579; -120.875; -228.000; -441.000
903.821; -152.200; -597.000; -744.000
904.064;  -50.725;   85.000;  127.000
904.306;  -92.850; -126.000; -166.000
904.548; -110.625; -152.000; -366.000
904.790; -105.525; -195.000; -340.000
905.033; -144.525; -625.000; -577.000
905.275; -137.750; -513.000; -524.000
905.517;   18.250;  468.000;  256.000
905.759;  -86.375; -667.000; -761.000
906.001; -107.400; -322.000; -369.000
906.243;  -73.600; -162.000; -224.000
906.485;   59.500; -265.000; -207.000
906.727;   62.375; -499.000; -542.000
906.969;  -56.350;  -30.000; -135.000
907.211;   45.850; -316.000; -382.000
907.453;  185.000; -188.000; -237.000
907.695;  -18.000; -158.000; -385.000
907.936;   25.800;  818.000;  706.000
908.178;  -60.600;   92.000; -135.000
908.420;  -82.650; -111.000; -162.000
908.662; -145.175; -633.000; -682.000
908.903;  -87.825; -208.000; -123.000
909.145;  -58.575; -240.000; -305.000
909.386;    6.125;  315.000;  280.000
909.628;   29.525;  363.000;  397.000
909.870;   -1.450;   29.000;  264.000
910.111;  -90.500; -809.000; -949.000
910.353;   -2.750; -123.000; -161.000
910.594;    6.425; -574.000; -606.000
910.835;   66.900; -265.000; -326.000
911.077;  152.400; -503.000; -604.000
911.318;  273.325; -505.000; -471.000
911.559;  449.600; -577.000; -880.000
911.801; 1280.850; -284.000; -280.000
912.042; 9459.825;  -50.000; -159.000
912.283;27174.725;  404.000;  371.000
912.524; 4794.600; -396.000; -457.000
912.765;  524.000; -193.000;   79.000
913.006;  247.100; -307.000; -338.000
913.247;   68.725; -270.000; -290.000
913.488;   -9.150;  -43.000;   30.000
913.729;  -76.825; -373.000; -373.000
913.970;  -63.025;  -96.000; -292.000
914.211;  -56.350; -160.000; -198.000
914.452;  -79.675; -118.000;  -11.000
914.693;   -2.775;  510.000;  592.000
914.934;    4.900;  510.000;  440.000
915.175;  -73.000;   53.000;  -95.000
915.415;  -98.425; -137.000;   27.000
915.656;  -65.850;  -28.000;  192.000
915.897; -104.325; -252.000;  -82.000
916.137;  -74.725;   74.000;   -9.000
916.378; -129.000; -573.000; -517.000
916.619;  -90.725; -159.000;  -63.000
916.859;  -36.100;  303.000;  330.000
917.100;  133.625; 1655.000; 1070.000
917.340;   51.150;  930.000;  728.000
917.581;   38.100;  965.000;  789.000
917.821;  -50.600; -171.000;  143.000
918.061;   -5.300; -199.000;  -72.000
918.302;  -65.475; -152.000; -211.000
918.542;  -26.450;  -22.000;    3.000
918.782;   19.300;  369.000;  377.000
919.023;  104.050;  360.000;  427.000
919.263; 1580.500; 8131.000;  202.000
919.503;  975.175; -137.000;  -54.000
919.743;  475.250;  390.000;  266.000
919.983;  216.575; -134.000;  -26.000
920.223;   78.950;  135.000;   14.000
920.463;  143.350;  631.000;  554.000
920.703;  132.550;   84.000;   39.000
920.943;  174.075; -110.000;   90.000
921.183;  256.675; -414.000; -405.000
921.423;  523.025;  307.000;  546.000
921.663;  738.150; -174.000; -257.000
921.903; 1587.125;  237.000;  173.000
922.143; 8465.075;  372.000;  389.000
922.383;34246.900;  158.000;  115.000
922.622;13367.925; -120.000;  -15.000
922.862; 1384.275;  796.000;  785.000
923.102;  514.875;  -51.000;   33.000
923.341;  220.575;   59.000;   74.000
923.581;  100.225;  450.000;  360.000
923.821;   14.125;  301.000;  398.000
924.060;   14.450;  351.000;  193.000
924.300;  -58.500;  -16.000; -128.000
924.539;  -11.250;  584.000;  473.000
924.779;   16.500;  812.000;  597.000
925.018;  -53.000;  247.000;  353.000
925.257;  -17.900;  595.000;  666.000
925.497;  -47.175;  447.000;  412.000
925.736;  -64.825;  -35.000;  102.000
925.975;    2.875;  687.000;  669.000
926.214;   19.750;  907.000;  850.000
926.454;   21.475;  706.000;  757.000
926.693;  -39.350;  419.000;  543.000
926.932;   34.325; 1021.000;  825.000
927.171;   68.075; 1107.000; 1044.000
927.410;   34.350; 1144.000;  967.000
927.649;   23.875;  924.000;  742.000
927.888;  -16.100;  590.000;  564.000
928.127;  -17.575;  680.000;  678.000
928.366;   17.025;  842.000;  826.000
928.605;   46.175;  831.000;  737.000
928.844;  205.300; 1451.000; 1393.000
929.083;  547.925;  770.000;  613.000
929.321;  321.625; 1335.000; 1359.000
929.560;   98.850; 1158.000; 1122.000
929.799;  -30.025;  574.000;  475.000
930.038;   75.925; 1025.000; 1394.000
930.276;  -51.050;  334.000;  397.000
930.515;    0.825;  827.000;  681.000
930.753;  -33.075;  614.000;  589.000
930.992;  -19.550;  664.000;  717.000
931.230;    2.425;  847.000;  847.000
931.469;  169.200; 2162.000;  892.000
931.707;   68.100;  840.000;  751.000
931.946;   64.150; 1278.000; 1344.000
932.184;   37.975; 1437.000; 1175.000
932.423;   63.825; 1265.000;  963.000
932.661;   78.850; 1296.000; 1428.000
932.899;   21.775;  987.000;  821.000
933.137;    6.075;  754.000;  564.000
933.376;  138.300; 1664.000; 1335.000
933.614;  154.650; 1759.000; 1196.000
933.852;   63.300; 1357.000; 1171.000
934.090;  125.825; 1722.000; 1747.000
934.328;  128.725; 1252.000; 1457.000
934.566;  107.050; 1431.000; 1110.000
934.804;  163.175; 1263.000; 1309.000
935.042;  542.350; 1861.000; 1850.000
935.280; 2137.725; 2088.000; 2063.000
935.518; 2254.050; 2113.000; 2007.000
935.756;  460.675; 2481.000; 2316.000
935.994;  165.350; 1808.000; 1751.000
936.231;  326.525; 2890.000; 2950.000
936.469;  184.250; 2367.000; 2378.000
936.707;  174.700; 2220.000; 2167.000
936.945;  223.200; 2825.000; 2882.000
937.182;  210.300; 2679.000; 2741.000
937.420;  299.375; 3602.000; 3031.000
937.657;  360.000; 3365.000; 3478.000
937.895;  342.800; 3331.000; 3488.000
938.133;  318.575; 3540.000; 3528.000
938.370;  361.700; 3896.000; 4191.000
938.607;  408.825; 4488.000; 4205.000
938.845;  553.575; 5587.000; 5549.000
939.082;  478.000; 5387.000; 5177.000
939.320;  528.025; 5799.000; 5728.000
939.557;  636.500; 6549.000; 6491.000
939.794;  703.600; 7285.000; 7097.000
940.031;  881.825; 8421.000; 8368.000
940.269; 1056.225; 9552.000; 9107.000
940.506; 1103.050;10901.000;10507.000

