
Integration time [ms]: 100.000
Averaging Nr. [scans]: 40
Smoothing Nr. [pixels]: 0
Data measured with spectrometer [name]: 2101013U2
Wave   ;Sample   ;Dark     ;Reference
[nm]   ;[counts] ;[counts] ;[counts] 

394.013;   53.009; -450.257; -315.536
394.305;  212.557; -461.258; -419.536
394.596; 1095.928; -676.269; -527.514
394.887; 2710.095; -796.268; -654.518
395.178; 1044.901;  145.736;   11.476
395.470;   95.087; -210.263; -356.526
395.761;  205.860;  305.734;  394.479
396.052;  310.727; -545.284; -306.489
396.343;  308.698; -557.276; -454.503
396.634;  112.316; -200.279; -290.497
396.926;  127.367; -618.268; -565.517
397.217;  120.327;   11.725;  -17.504
397.508;   56.043; -366.273; -154.507
397.799;   55.841; -555.279; -571.497
398.090;    5.485; -973.280; -902.495
398.381;  137.652;   11.708;  -11.473
398.672;   11.928; -585.292; -742.473
398.963;   48.147; -348.279; -373.498
399.254;  125.587;   54.709; -209.475
399.545;  -27.968;-1017.266; -883.520
399.836;   67.062; -407.277; -343.501
400.127;   62.678; -205.295; -209.468
400.418;   70.638; -423.274; -392.506
400.709;   57.523; -359.281; -333.493
401.000;   56.566; -268.291; -309.476
401.290;  100.064;  225.698;  115.545
401.581;   79.810; -166.286; -228.485
401.872;   20.875; -542.298; -486.462
402.163;   57.371; -313.296; -252.467
402.454;   84.438; -123.291; -163.475
402.744;   86.137; -844.297; -813.465
403.035;  455.193; -226.293;  -86.471
403.326;  607.106; -366.292; -384.474
403.617;  388.144;  204.701;  165.539
403.907;  254.908; -593.283; -679.490
404.198; 2395.568; -545.307; -599.446
404.489; 6253.338; -618.283; -588.491
404.779; 2084.868; -618.302; -660.456
405.070;  237.896;  -67.304; -174.451
405.360;  338.820; -259.293; -238.472
405.651;  363.604;  125.699;   98.542
405.942;  189.505;  209.714;  127.516
406.232;  274.070; -432.285; -413.487
406.523;  492.938;  641.706;  758.530
406.813;   93.182; -579.286; -644.484
407.104;  343.376;  261.708;  144.527
407.394;  192.496; -604.299; -591.462
407.685;  157.619;  336.715;  222.513
407.975;   68.262; -400.283; -382.490
408.265;  125.027; -134.289; -190.478
408.556;   67.810; -472.291; -459.475
408.846;  160.789;  474.706;  429.530
409.137;   82.086;   -1.288; -216.480
409.427;   64.245; -193.285; -271.487
409.717;   46.796; -776.273; -692.508
410.007;  134.613;    4.715; -170.486
410.298;   80.906; -360.295; -342.469
410.588;   73.142; -495.285; -510.486
410.878;   41.397; -792.287; -873.482
411.168;  132.952; -481.298; -478.463
411.459;  131.631; -295.283; -242.489
411.749;   70.208; -609.292; -507.474
412.039;   72.209; -755.289; -386.480
412.329;  214.754;   40.722;  132.501
412.619;  212.083;  -62.286; -148.485
412.909;  371.480;  639.711;  594.521
413.199;  322.936; -130.280; -251.495
413.490;  412.671;  521.710;  352.523
413.780;  140.665;-1013.279; -913.496
414.070;  324.199;  -46.276;  235.497
414.360;  375.026; -729.278; -666.498
414.650;  413.418; -726.288; -688.482
414.940;  520.164; -538.280; -441.496
415.230;  918.040;   50.712;   74.519
415.520; 6094.852;  155.730;   66.486
415.809;23908.597; -305.281; -125.493
416.099;18509.314; -388.277; -229.501
416.389; 5157.135;  435.726;  236.494
416.679; 3011.516;   91.738;   85.473
416.969;  525.227; -527.287; -503.483
417.259;  469.467;  341.721;  171.503
417.549;  685.246;  522.718;  318.508
417.838; 1654.744; -205.268; -147.518
418.128; 5432.801;  650.710;  492.522
418.418; 4540.603; -491.272; -579.509
418.708; 3087.110;    9.726;  -48.506
418.997;11581.731; -474.275; -480.505
419.287;12045.717; -733.273; -790.507
419.577;11333.981; -160.283; -123.489
419.866;37740.487; -588.277; -498.501
420.156;38694.598; -242.270;  -55.513
420.446; 6973.958; -112.263;  -26.526
420.735;  879.742; -376.271; -446.512
421.025;  857.075; 1830.722;  315.502
421.314;  711.790; -203.271; -226.512
421.604; 1451.387;   89.732;  233.484
421.893;  863.162; -705.271; -602.511
422.183;  244.933; -487.263; -461.526
422.472;  386.363;  -36.271; -107.511
422.762;  458.337; -416.266; -379.521
423.051;  249.099; -916.276; -916.503
423.341;  324.844; -491.273; -439.507
423.630;  450.268; -121.265;   15.477
423.919;  399.831;   58.725;   49.495
424.209;  385.314;  -31.263;   56.473
424.498;  506.967;   68.732;  161.483
424.787; 1087.448; -535.267; -601.518
425.077; 3363.392;   34.735;   29.478
425.366; 4787.969; -734.262; -744.528
425.655; 9848.020;  639.727;  259.493
425.945;21352.049; -313.247; -268.554
426.234;11865.492;  117.741;  300.467
426.523; 5023.997;  -86.259; -350.534
426.812; 6868.308;  107.734;  159.480
427.101;10196.259; -127.269; -323.515
427.390;12900.377;  -55.270;  -86.514
427.680; 2960.467; -624.257; -411.538
427.969;  503.728; -330.255; -301.540
428.258;  325.884; -385.257; -477.536
428.547;  537.232;  449.728;  397.490
428.836; 1276.944; -421.253; -398.543
429.125; 1864.799; -199.259;  -72.534
429.414;  825.242; -330.251; -294.548
429.703; 3128.242; -231.251; -213.548
429.992; 9298.646; -938.250; -828.549
430.281; 6110.601; -397.264; -331.524
430.570;  603.132;  -21.252;   32.454
430.859;  579.847;  279.741;  352.466
431.148;  444.145;  636.752;  631.446
431.437;  298.432;  391.748;  367.454
431.725;  154.210; -544.257; -481.536
432.014;  130.202; -845.253; -756.545
432.303;  398.771; -149.239; -105.569
432.592;  630.783; -460.263; -178.525
432.881; 1050.046; -601.248; -437.554
433.169; 6166.329; -343.255;  -61.540
433.458;12494.255;  445.765;  540.424
433.747; 5235.175; -397.261; -289.529
434.036;  909.872; -275.242; -280.564
434.324; 2134.208; -395.249; -379.551
434.613; 3625.840;   40.757;  159.437
434.902; 1216.386;  333.760;  439.433
435.190;  586.220;   75.761;  295.431
435.479;  341.422;  -52.245;   83.441
435.767;  118.055; -411.244; -427.561
436.056;  228.492; -340.242; -294.563
436.345;  374.338; -372.240; -223.568
436.633;  398.228;   60.750;  383.450
436.922;  286.065;  208.760;  414.432
437.210;  628.945; -194.236;    1.426
437.499; 1983.853; -583.235; -432.576
437.787; 2185.219; -339.236;  -10.574
438.075;  568.025;   56.761;  162.430
438.364;  746.253;  -44.238;  250.429
438.652;  452.208; -286.226; -138.592
438.941;  128.197;    3.770;  269.415
439.229;   15.105; -665.252; -466.545
439.517;   42.586; -160.234;  -85.577
439.806;   -6.326; -501.225; -290.595
440.094;  189.994;  377.766;  650.421
440.382;  193.648; -653.233; -302.580
440.670;  238.702; -361.235; -285.576
440.959;   28.066; -347.223; -170.599
441.247;   83.333; -151.229; -109.587
441.535;  113.085; -266.235;   31.423
441.823;   33.391; -497.234; -305.578
442.111;  193.012;  173.771;  327.412
442.400;  524.296; -628.245; -335.559
442.688; 1444.193; -111.234; -620.579
442.976; 1041.904; -786.213; -450.617
443.264;  126.255; -324.224; -364.597
443.552;  104.484; -258.226;   51.408
443.840;  177.958;  602.765;  876.423
444.128;  116.822;  265.767;  269.420
444.416;   12.815; -694.228; -312.588
444.704;   36.396; -465.219;  -92.605
444.992;   89.887;   -0.226;  240.407
445.280;   58.022; -517.230;  -94.585
445.568;   50.183; -694.212; -396.618
445.856;  350.155; -174.221;  357.398
446.143;  800.517;  -54.220;   -7.604
446.431;  641.419;  -25.228;  625.411
446.719;  251.515;  489.783;  675.391
447.007;  188.142;  481.769;  705.416
447.295;  193.638;  597.777;  871.402
447.583;   86.731; -464.229;  -34.587
447.870;  168.802; -434.221; -202.601
448.158;  426.646; -104.230;  129.415
448.446;  333.018; -800.219; -338.604
448.733;  181.132;   13.776;  269.403
449.021;  260.457;   60.788;  341.382
449.309;  196.547; -296.210;  208.379
449.596;  216.686;  128.783;   59.392
449.884;  157.820; -571.222; -325.600
450.172;  148.024; -756.227; -406.590
450.459;  449.562;  645.786;  780.387
450.747; 2348.560; -411.218; -147.608
451.034; 7568.095;  493.772;  889.411
451.322; 6239.940; -413.214; -170.614
451.609;  544.108;  292.777;  508.403
451.897;  580.261; -550.203; -183.634
452.184; 1814.813; -622.223; -400.598
452.472; 1712.644;   97.792;  269.375
452.759;  350.944;  512.781;  864.395
453.047;  115.330; -407.212; -125.617
453.334;   77.702; -732.219; -216.606
453.621;   90.868; -438.214; -161.615
453.909;  138.228;   13.796;  384.368
454.196;  102.498; -299.199; -123.641
454.483;  204.849;  317.798;  540.364
454.771;  137.097; -215.208;  196.374
455.058;   45.425; -316.207;  102.374
455.345;  109.428;   71.807;  344.347
455.632;   99.178; -128.207;  235.373
455.919;   57.246;  -82.196;  182.354
456.207;  -58.397; -774.198; -450.642
456.494;  -13.364; -475.200;  -66.639
456.781;   11.719; -399.202; -198.635
457.068;   59.110; -253.206;  -29.628
457.355;   -5.789; -698.206; -401.629
457.642;   -6.008; -552.205; -290.630
457.929;    6.545; -778.194; -417.651
458.216;   80.005; -575.212; -354.617
458.503;  249.499; -173.193;  -19.652
458.790;  217.395; -864.208; -630.625
459.077;  265.799;  -77.202;  110.364
459.364;  796.137; -350.195; -210.649
459.651; 1671.133;  -46.206;  220.372
459.938;  776.960; -864.209; -665.623
460.225;  151.702;  132.799;  276.363
460.512;  -38.882; -836.197; -688.645
460.799;   95.509;  -32.218;  320.392
461.086;   92.465; -370.200; -251.640
461.372;   50.803; -509.198; -279.642
461.659;  128.747; -165.196;  108.354
461.946;   71.023; -445.193;  -54.651
462.233;  234.988;  842.800;  888.361
462.519;  344.260; -814.201; -464.639
462.806; 1021.093; -768.197; -497.645
463.093;  867.644; -445.191;  -66.656
463.380;  -22.590; -920.186; -824.664
463.666;   61.895; -259.197;  -18.646
463.953;  102.007; -406.195; -243.648
464.239;  194.407; -173.195;  -77.648
464.526;  395.468;  413.806;  743.350
464.813;  333.380; -565.190; -304.658
465.099;  350.299;  606.807;  607.348
465.386;  337.453;  903.807;  921.348
465.672;   41.344; -694.197; -522.645
465.959;   20.123; -598.188; -520.662
466.245;   27.153; -468.193; -359.652
466.532;   98.705; -109.195;   63.352
466.818;   68.435; -357.186; -216.664
467.104;   -2.075; -488.182; -415.672
467.391;   -4.443; -628.189; -459.658
467.677;   32.413; -289.186;    9.335
467.964;    2.064; -682.189; -471.660
468.250;   86.816; -331.186; -160.665
468.536;   80.008;   90.811;  180.341
468.822;  -34.872; -821.184; -574.668
469.109;  156.906;  351.827;  471.311
469.395;  203.288;  729.808;  787.346
469.681;  197.986;   46.811;  156.341
469.967; 1262.691; -699.188; -382.660
470.254; 2657.624; -494.188; -306.662
470.540; 1748.696; -601.196; -476.646
470.826;  253.486; -488.181; -397.675
471.112;  277.656;  288.816;  113.331
471.398;   87.286; -253.183;  -58.670
471.684;   57.414; -626.177; -447.680
471.970;   10.115; -918.180; -981.675
472.256;   26.237; -521.192; -441.654
472.542;   11.917; -499.171; -434.691
472.828;   24.646; -743.182; -607.672
473.114;   46.911; -380.166; -283.700
473.400;    9.281; -504.175; -293.684
473.686;   36.417; -452.166; -400.701
473.972;   57.546; -230.174; -131.687
474.258;  -32.244; -925.173; -843.689
474.544;  203.256; -183.178;   -2.679
474.830;  312.608;  -65.175;   45.316
475.116;  492.407; -123.190; -196.658
475.401;  667.267; -558.180; -467.676
475.687;  197.216; -725.180; -718.676
475.973;    5.979; -673.181; -770.673
476.259;  236.385;  736.825;  764.315
476.544;  374.973; -539.176; -437.682
476.830;  809.313; -398.172; -322.690
477.116;  707.496; -430.177; -336.682
477.401;  144.217;  346.820;  358.324
477.687;   -5.994; -289.175; -405.684
477.973;   25.457;   21.819;   28.326
478.258;   -5.288; -448.163; -348.706
478.544;   60.146;   21.815;   61.334
478.829;  -54.378; -818.171; -738.692
479.115;  -53.512; -749.172; -651.690
479.401;   -5.559; -444.174; -449.686
479.686;   37.366; -253.180;  -74.676
479.972;  -33.714; -886.178; -776.680
480.257;   44.837; -258.166;  -65.700
480.542;    6.226; -614.170; -469.693
480.828;  233.354; 1288.824; 1392.317
481.113;  -30.498; -464.176; -426.683
481.399;  -10.964; -236.161; -202.711
481.684;  -48.414; -620.166; -462.700
481.969;   27.950; -158.159;  -73.713
482.255;    0.787; -439.169; -285.695
482.540;   17.712; -569.178; -441.680
482.825;   10.605; -395.187; -404.663
483.110;   90.465;  -85.169; -105.696
483.396;  198.421; -840.157; -652.718
483.681;  493.396;  543.826;  730.313
483.966;  165.494; -696.160; -700.712
484.251;    2.920; -404.174; -310.687
484.536;    8.172; -356.165; -378.703
484.822;    6.948; -205.173; -218.687
485.107;  -23.390; -599.152; -502.726
485.392;  134.503;  662.836;  541.296
485.677;   69.900;  354.832;  163.302
485.962;  111.444;  160.843;  270.283
486.247;   94.995;  -14.162;   -8.707
486.532;   54.863; -178.166; -325.701
486.817;  160.381;  381.839;  431.291
487.102;  115.543; -453.154; -514.722
487.387;  651.798; -637.156; -652.718
487.672; 1167.633; -154.164;  -38.705
487.957;  732.813; -394.160; -286.711
488.241;  199.576; -290.150; -314.729
488.526;  734.861; -280.152; -148.726
488.811; 1180.614; -881.177; -818.680
489.096;  884.920; -666.154; -702.723
489.381;  488.482;    3.847;  162.275
489.666;  367.536; -428.161; -510.710
489.950;  179.423;  558.846;  627.277
490.235;  -30.754; -480.151; -458.728
490.520;  -38.715; -756.161; -723.710
490.804;  -54.750; -827.156; -736.719
491.089;   -7.533; -469.149; -299.732
491.374;   34.282; -132.164;  -75.704
491.658;  -18.121; -817.147; -717.735
491.943;  164.440; -657.152; -609.727
492.227;  267.213; -178.155;  -38.721
492.512;   53.918; -294.157; -341.717
492.797;  -62.564; -713.149; -716.731
493.081;  -46.744; -588.147; -598.735
493.366;  -25.488; -751.161; -635.711
493.650;  222.785;  831.859;  917.254
493.935;   43.578; -648.147; -447.734
494.219;  -39.253; -778.142; -687.743
494.503;  -53.344; -585.150; -487.730
494.788;   59.560;   46.842;   74.285
495.072;  114.778;  184.850;  434.271
495.356;  179.745; -463.148; -343.733
495.641;  488.738; -812.146; -736.736
495.925;  453.180; -976.156; -903.719
496.209;   44.392; -599.149; -451.732
496.494;  -42.177; -763.142; -544.744
496.778;   21.943; -364.154; -360.722
497.062;  -57.095; -819.156; -627.719
497.346;  -30.810; -869.160; -640.711
497.631;  154.599;  580.852;  560.266
497.915;   83.474;  -64.145;  175.261
498.199;   61.746; -341.157; -277.718
498.483;   36.609; -562.152; -508.725
498.767;  204.779;  301.850;  300.271
499.051;  181.364; -126.149; -100.732
499.335;   37.787; -693.149; -739.731
499.619;  -46.314; -381.129; -423.767
499.903;   28.887; -272.155;  -65.721
500.187;   35.525; -588.153; -316.724
500.471;   33.915; -796.152; -595.727
500.755;  112.235;   62.839;  -96.710
501.039;   28.688; -270.155; -357.721
501.323;   90.212;  -21.141;  264.254
501.607;   55.263; -447.163; -503.706
501.891;    1.548; -607.156; -512.718
502.174;  -33.540; -726.144; -585.741
502.458;   78.469;   89.849;  370.273
502.742;   49.610; -180.138; -191.751
503.026;   98.703; -412.147; -254.734
503.310;  173.449; -437.159; -375.713
503.593;  117.529; -464.147; -325.735
503.877;  123.601; -232.133; -156.760
504.161;  172.277;    2.847;  -50.724
504.444;  141.762; -841.158; -710.716
504.728;  451.256; -487.164; -522.704
505.012;  703.001; -257.150;  -76.729
505.295;  555.586; -417.161; -212.711
505.579;  518.555; -256.156; -496.719
505.862;  746.645; -555.145; -333.738
506.146;  726.901; -681.159; -758.714
506.429;  400.077;  568.841;  461.286
506.713;   63.523; -732.151; -667.728
506.996;  308.192;   90.846;  295.278
507.280;  334.601; -633.165; -474.703
507.563;  226.636; -469.155; -261.721
507.847;   99.226; -423.153; -112.724
508.130;   80.162; -665.161; -456.711
508.413;  123.633; -758.167; -577.700
508.697;  248.783; -151.167;   12.300
508.980;  147.427; -422.153; -312.724
509.263;   13.157; -466.155; -450.720
509.547;   46.850; -124.150;   82.271
509.830;   43.189; -172.160;  140.289
510.113;   89.279;  128.844;  298.281
510.396;   33.983; -530.152; -300.725
510.680;  159.271; -818.145; -812.738
510.963;  642.322;  184.846;  180.277
511.246;  566.158; -493.150; -357.730
511.529;  260.726; -482.145;  -83.739
511.812;  358.422; -250.134;   10.241
512.095;  263.020; -740.151; -396.728
512.378;   73.333; -317.147; -245.736
512.661;   16.543; -703.137; -623.753
512.944;   29.699; -750.142; -637.744
513.227;   67.390; -170.137; -171.752
513.510;   27.585; -479.144; -671.741
513.793;   31.866; -485.140; -435.747
514.076;  134.182;  -43.127;  -39.771
514.359;  114.218; -294.149; -135.732
514.642;   93.927; -442.142; -567.744
514.925;  749.639;  581.860;  561.253
515.208;  979.594; -498.134; -443.758
515.491;  673.408; -276.133; -182.761
515.773;  375.688; -410.143; -337.742
516.056; 2062.824;  249.864;  409.246
516.339; 2822.953; -754.136; -652.755
516.622; 1960.481; -518.150; -488.730
516.904; 1305.170;  882.857;  975.257
517.187;  605.164; -730.138; -523.752
517.470;  415.419; -568.143; -510.743
517.752;  455.156; -624.136; -470.756
518.035;  359.926; -708.139; -725.749
518.318;  361.629; -799.136; -744.755
518.600; 2411.736; -300.132; -325.762
518.883; 3288.801;  310.858;   88.256
519.165; 1587.057; -585.138; -426.751
519.448;  389.061;  -61.132;  -19.762
519.730;  198.115; -573.126; -415.773
520.013;  313.029;  588.867;  664.240
520.295;  889.349;  -94.134;  -15.759
520.578; 1958.374; -335.131; -305.764
520.860; 2192.686; -254.132;   56.238
521.143; 1135.783; -763.135; -584.756
521.425;  480.727; -251.125; -279.775
521.707;  665.932; -622.127; -380.771
521.990; 1761.233; -199.127;  167.229
522.272; 2008.418; -116.140;   -4.748
522.554;  914.739; -237.143; -157.742
522.836;  384.672;  -24.134;   99.241
523.119;  239.026; -496.148; -189.734
523.401;  156.781; -448.130; -314.766
523.683;   99.194; -865.137; -693.753
523.965;  280.512;  408.862;  260.248
524.247;  278.074;   54.878;  170.220
524.529;  215.024; -451.134; -367.759
524.812;  353.333;   -3.130;  191.234
525.094;  835.836; -773.138; -631.751
525.376; 1349.337; -143.124;   78.223
525.658;  794.376; -441.136; -339.754
525.940;   32.096; -805.131; -671.764
526.222;   29.579; -188.136;  -88.755
526.504;  131.468; -190.131;   32.237
526.786;  194.476; -960.133; -647.760
527.068;  333.942; -124.123;  -67.778
527.349;  145.297; -865.137; -774.754
527.631;  133.711; -137.132;   22.238
527.913;  130.082; -664.127; -450.771
528.195;  171.345; -761.125; -639.774
528.477;  247.094;  -93.134;  -30.758
528.759;  137.033; -648.130; -522.766
529.040;   74.266; -569.123; -293.778
529.322;   57.748; -235.125;  -10.774
529.604;  137.635;  -47.130;   93.233
529.886;  158.264; -546.126; -302.773
530.167;  134.551;  232.870;  192.235
530.449;   42.008;    1.853;   63.265
530.731;   24.023; -572.122; -459.779
531.012;   63.619; -513.120; -216.784
531.294;   84.083; -118.116;  -43.792
531.575;  147.352;  290.875;  538.225
531.857;   54.464; -548.135; -266.757
532.138;   95.185; -113.141;   40.254
532.420;  166.660;  294.865;  403.244
532.701;  231.204; -722.133; -751.760
532.983;  367.932;  232.867;  182.239
533.264;  148.412; -243.126;  175.228
533.546;  -21.171; -491.136; -508.755
533.827;   53.275;  173.867;   -1.759
534.109;   46.339; -352.135;  -80.757
534.390;   92.665; -725.132; -582.762
534.671;  240.810; -270.135;  -82.756
534.953;  154.569; -751.123; -611.779
535.234;   16.868; -426.117; -255.789
535.515;  -67.848; -891.119; -735.785
535.796;  -16.022; -431.128; -193.770
536.078;  -99.789;-1050.124; -904.777
536.359;   10.069;  -22.123;    3.221
536.640;   -5.803; -480.125; -197.774
536.921;  161.090;  225.871;  143.232
537.202;  382.333;  -87.138;  -16.751
537.483;  455.048;  251.869;  377.236
537.764;  163.027;   17.870;   98.235
538.045;  -29.307; -543.134; -371.758
538.326;  -27.433; -596.129; -447.768
538.607;   13.283; -686.127; -476.771
538.888;  173.835;   98.879;    5.218
539.169;  169.054; -704.122; -535.781
539.450;  343.914;  236.871;   16.233
539.731;  225.739; -361.121; -182.783
540.012;  141.119;  199.880;  412.216
540.293;   90.406;   82.876;  158.224
540.574;   12.179; -895.113; -717.796
540.855;  450.587;  435.879;  377.218
541.136;  529.927;   47.878;  139.220
541.416;  274.833; -161.130; -220.766
541.697;  189.319; -274.131; -170.763
541.978; 1000.962; -270.135; -315.757
542.259; 1288.408; -211.127; -236.771
542.539;  626.977; -191.116; -186.790
542.820;  192.977;  461.875;  480.225
543.101;  131.648;  -52.145;  -77.738
543.381;   39.308; -638.127; -591.771
543.662;  268.930;  159.873; -254.771
543.942;  589.754; -751.127; -830.770
544.223; 1036.503;  193.878;  161.219
544.504;  677.836; -275.124; -182.777
544.784;  599.664; -592.126; -408.773
545.065; 1608.180;  104.884; -254.791
545.345; 1952.277;  227.881;   14.215
545.626; 1280.578;  -14.113; -108.796
545.906;  880.051;   77.869;   98.235
546.186;  360.269;   92.874;  -95.773
546.467;  211.864;   99.877;  -95.778
546.747;  320.676;  264.884;  327.210
547.027;  387.285;   91.876;  111.223
547.308;  322.653; -376.127; -530.770
547.588;  395.218;  299.871;  371.232
547.868;  212.702;  458.870;  588.235
548.149;  198.738;  609.885;  593.207
548.429;  139.056; -347.127; -299.771
548.709;  194.168; -645.120; -461.784
548.989;  458.762;   84.882;   88.213
549.269; 2111.034;   10.868;  139.239
549.550; 4758.818;  215.877;  117.222
549.830; 4240.446; -758.111; -556.799
550.110;  869.903; -468.110; -320.801
550.390;  813.073; -128.122;  -56.779
550.670; 1100.649; -868.114; -783.795
550.950;  793.087; -509.121; -471.782
551.230;  181.383;  549.879;  460.218
551.510;   -6.714; -381.121; -326.782
551.790;   38.961; -173.109; -127.803
552.070;  263.163;  940.877; 1181.223
552.350;  411.331; -492.119; -377.786
552.630;  593.706;   -2.121;   77.219
552.909;  356.806;  181.884;   73.209
553.189;  232.791;  -49.132;   33.237
553.469;  193.156; -703.119; -514.786
553.749;  180.534; -469.127; -357.772
554.029;  163.822;   33.883;  -24.790
554.308;  151.017; -154.115;  -37.794
554.588;   65.627; -196.128; -204.770
554.868;   78.413; -366.121;  -47.782
555.147;  142.364; -114.115;  -46.793
555.427;  591.158; -260.116; -250.792
555.707; 3827.237; -284.115; -200.793
555.986; 4652.999; -719.111; -538.800
556.266; 2443.575;   23.884;   72.210
556.546;  123.386; -888.121; -675.782
556.825;  250.696; -657.114; -556.794
557.105; 1782.049; -125.128;   17.230
557.384; 2100.905;  122.884;  187.209
557.664;  804.983; -717.116; -508.792
557.943;  118.487; -557.121; -411.782
558.222;  173.265; -345.118; -344.788
558.502;  282.391; -116.115;  -76.793
558.781;  492.086;  194.885;  499.208
559.061;  419.765; -232.118; -227.788
559.340;  297.895;  302.883;  353.211
559.619;  702.425;   93.884;  148.210
559.899; 1030.296; -239.117; -266.789
560.178;  917.865; -778.115; -593.793
560.457; 3121.548; -623.117; -562.790
560.736; 4358.750; -472.111; -482.800
561.015; 2888.647; -500.128; -502.769
561.295;  397.631;  180.893;  215.193
561.574;  350.513;  119.885;  116.207
561.853;  493.940;  274.891;  303.197
562.132;  508.843;  -45.114;  182.206
562.411;  435.981;  396.879;  553.219
562.690;  141.086; -592.115; -458.792
562.969;  149.360;  472.888;  630.203
563.248;  469.504; 2966.878; 2487.219
563.527;  275.575; -290.111; -408.800
563.806;  380.881; -650.127; -521.771
564.085;  420.421; -297.105; -206.810
564.364;  227.500; -594.117; -405.790
564.643;  506.657; -276.121; -223.781
564.922; 1867.184;  221.890;  397.198
565.201; 1868.613; -640.109; -700.803
565.479;  813.510; -297.115; -219.792
565.758;  335.300; -810.128; -712.770
566.037;  462.514; -155.109; -100.803
566.316;  224.705; -286.116;  -28.791
566.595;   55.412;  -17.115;  -12.793
566.873;  109.952; -166.111;  -79.801
567.152;  -50.441; -490.113; -590.797
567.431;   14.951; -113.116;    6.210
567.709;    2.506; -344.107; -212.807
567.988;  266.046; -810.114; -769.794
568.266;  528.212; -160.115;  -68.793
568.545;  380.368; -644.100; -514.819
568.824;  571.534;  160.885;  356.208
569.102;  560.021; -351.114; -235.794
569.381;  218.608; -492.116; -407.792
569.659;  -41.269; -553.113; -553.796
569.938;   34.377; -743.122; -465.780
570.216;  111.892; -225.109; -225.804
570.494;  -17.176; -632.114; -572.795
570.773;   43.735;  202.879;  114.218
571.051;   11.666; -373.123; -357.778
571.330;   54.328; -221.113; -174.796
571.608;   39.736; -181.098; -173.823
571.886;  -66.031; -671.111; -581.799
572.164;  -58.562; -739.121; -621.782
572.443;  -28.550; -562.105; -512.811
572.721;  -24.227; -399.117; -289.790
572.999;  -16.008; -280.117; -168.788
573.277;   84.193;  379.894;  620.191
573.555;  292.396;   94.894;   37.190
573.834; 1328.691;  -86.117; -114.788
574.112; 1557.984;  880.893;  811.193
574.390;  471.126; -143.111;  -96.801
574.668;    5.836;  -91.112;  -61.797
574.946;   -7.579; -165.106; -187.810
575.224;    8.163;   71.891;  -16.803
575.502;  -25.647; -200.116; -204.791
575.780;  -78.888; -767.112; -829.798
576.058;  195.550; 1589.889; 1004.200
576.336;  -15.970; -210.110; -129.801
576.614;  -54.688; -511.112; -340.798
576.891;   53.617; -711.115; -823.794
577.169;  469.850; -158.108; -285.805
577.447;  569.533;  169.893;  202.193
577.725;  259.666;  629.888;  854.201
578.003;    7.289;  -71.112; -371.798
578.280;   89.909; -208.104; -242.812
578.558;   57.591; -450.115; -422.793
578.836;  131.349; -210.114; -145.795
579.114;   52.410; -630.112; -670.797
579.391;   68.568;   -6.117;  -18.789
579.669;  -71.907; -595.114; -704.794
579.947;  158.505; -326.107; -127.806
580.224;  326.730; -692.107; -524.806
580.502;  316.134;  127.893;   76.193
580.779;   24.299;  -42.117;   75.210
581.057;  -65.733; -584.109; -470.804
581.334;  -83.801; -726.102; -695.815
581.612;   36.222;   54.895;  511.190
581.889;  -26.163;  -83.101; -129.818
582.167;  -28.024; -298.099; -190.821
582.444;  -91.643; -845.102; -814.817
582.721;   99.757;  657.899;  715.183
582.999;   46.549; -326.100; -167.821
583.276;  525.121; -812.123; -713.779
583.553;  709.802; -364.102; -294.816
583.831;  223.706; -607.104; -631.812
584.108;   63.198;  349.892;  174.195
584.385;   12.148; -122.102;  -98.815
584.662;  -65.998; -651.111; -828.801
584.940;   30.201;  204.889;  204.199
585.217;   -4.445;  -73.113; -303.796
585.494;   18.585;   71.890;  118.198
585.771;  199.618; -250.109; -354.804
586.048;  494.605; -196.113;  -76.796
586.325;  315.780; -721.110; -773.801
586.602;   82.009;  230.896;  213.188
586.879;  -10.830; -499.100; -580.820
587.156;   55.172; -156.105; -331.810
587.433;  -13.845; -701.102; -667.817
587.710;   80.887;  152.888;  234.202
587.987;  298.353; -264.105; -236.811
588.264;  763.214;  315.888;  387.202
588.541; 1350.412;  -61.104;   26.187
588.818; 2624.870;   72.892;  171.196
589.095; 2261.232; -163.104; -174.812
589.371;  369.441; -459.109; -414.804
589.648;   28.834; -581.107; -437.807
589.925;   25.150; -517.114; -621.795
590.202;   24.537; -741.112; -607.798
590.478;  104.479; -166.105;  -73.811
590.755;  251.676; -241.108; -132.806
591.032; 2475.957; -741.110; -699.802
591.308; 3334.001; -732.094; -790.831
591.585; 1739.956; -573.110; -560.802
591.862;  159.831;-1056.102; -950.817
592.138;   64.649; -475.108; -474.805
592.415;  159.560; -486.104; -495.813
592.691; 1457.783;  460.896;  518.188
592.968; 1854.763; -208.098; -123.824
593.244;  883.376; -695.116; -595.790
593.521;   74.306; -105.102;  -42.817
593.797;  -11.451; -810.122; -720.780
594.074;  325.751; -611.096; -588.826
594.350;  655.462;  828.905;  729.172
594.626;  295.152; -303.111; -283.801
594.903;  109.907; -643.101; -645.817
595.179;  182.214;  243.896;  418.187
595.455;   15.785; -136.107; -150.807
595.731;    1.965;  -19.103;  -38.814
596.008;  -33.279; -464.111; -434.800
596.284;   39.323; -187.100; -242.820
596.560;   54.608; -501.093; -493.833
596.836;  207.624; -173.105;  -70.810
597.112;  344.249; -582.108; -437.805
597.388;  303.999;  -49.097;  -48.826
597.665;  100.508;  437.887;  530.203
597.941;  -53.263; -572.089; -658.839
598.217;   25.660; -323.110; -293.802
598.493;  261.119;   61.891; -204.804
598.769;  510.692; -175.100;  -50.819
599.045;  275.352; -490.108; -562.806
599.321;   58.847; -193.100; -261.820
599.597;  140.469; -355.109; -476.804
599.872;  466.087;  409.896;  429.187
600.148;  355.575;  -61.097; -172.826
600.424;  292.657;   91.893;  202.193
600.700;  228.734; -170.107; -280.807
600.976;   99.094; -442.097; -464.825
601.252;  237.090; -226.109; -272.803
601.527;  215.438; -833.104; -840.813
601.803;  147.130; -453.105; -404.812
602.079;  182.242; -124.100; -118.819
602.354;  566.593; -620.092; -531.835
602.630;  799.705; -140.113; -482.796
602.906; 2266.487; -910.101; -863.818
603.181; 6523.856; -627.119; -534.786
603.457; 5568.698;   98.903; -278.826
603.733;  823.989; -605.120; -626.783
604.008;  969.871; -245.106; -164.810
604.284; 2972.483; -636.101; -580.817
604.559; 2591.866;   -3.112;  -42.799
604.835;  481.174; -163.105; -225.810
605.110;  418.477; -732.099; -892.821
605.385;  651.435;  224.907;  267.167
605.661;  626.740; -625.095; -729.829
605.936; 1156.453; -664.108; -737.806
606.211;  947.872;  -17.103; -170.815
606.487;  218.620; -329.114; -376.794
606.762;   23.606; -791.119; -745.786
607.037;  -26.451; -501.105; -433.810
607.313;  -53.717; -589.096; -574.828
607.588;    1.846; -375.106; -137.810
607.863;   36.187;  -28.101; -143.818
608.138;  174.709;  513.890;  516.198
608.413;   25.956; -576.099; -592.822
608.688;   54.549; -203.108; -267.805
608.964;  190.390; -509.106; -218.809
609.239;  237.872; -107.105; -212.810
609.514;  245.155;  281.895;  240.188
609.789;  656.459; -187.104; -716.812
610.064;  842.032; -435.096; -609.827
610.339;  856.316; -855.109; -799.804
610.614; 1177.347; -131.100; -315.820
610.889;  643.280;  215.895;  107.188
611.163;   54.981; -407.104; -591.812
611.438;   82.646;   81.886; -167.794
611.713;   12.558; -467.101; -499.817
611.988;   52.361; -144.101; -328.818
612.263;  -25.551; -771.102; -717.815
612.538;  219.755;  385.887;  251.204
612.812;  175.898; -832.100; -911.820
613.087;  139.986; -358.098; -338.823
613.362;  -47.515; -497.107; -557.807
613.637;   45.618;  261.897;  138.186
613.911;    0.018; -256.092; -345.835
614.186;  117.358; -249.107; -292.807
614.460;  646.862; -842.081; -758.854
614.735;  764.910;  -55.087;  -17.843
615.010;  160.950;   43.912;  -82.841
615.284;  240.323;  360.892;  246.195
615.559;  355.792; -792.092; -955.835
615.833;  283.779;  -76.099;  -87.822
616.108;   23.354; -225.090; -390.837
616.382;  132.837;  274.913;  402.156
616.656;  147.179; -241.090; -232.837
616.931;  467.254; -785.099; -700.822
617.205; 1041.488; -973.104; -979.813
617.480;  942.475;  -91.125;    6.225
617.754;  158.273; -396.125; -128.774
618.028;   17.768; -369.129; -382.768
618.302;   55.022;   73.892;  -25.805
618.577;  -49.556; -371.103; -518.815
618.851;  -55.613; -399.109; -600.803
619.125;  -60.326; -335.134; -378.759
619.399;  -24.012; -244.104; -374.813
619.673;  -35.766; -330.115; -515.792
619.947;  -32.851; -333.114; -448.795
620.222;   -6.397; -198.110; -204.801
620.496;    0.662;  -47.121;  -96.782
620.770;   11.029; -187.122;  -93.781
621.044;  205.822;  323.895;  346.190
621.318;  718.040; -653.120; -614.783
621.592;  648.088; -430.121; -409.783
621.866;  332.792; -476.112; -572.799
622.140;   26.228; -207.116; -356.791
622.413;   56.471;  138.889;  112.200
622.687;  -31.791; -746.101; -492.817
622.961;   26.822; -130.108; -143.805
623.235;  -55.603; -633.111; -661.800
623.509; -102.421; -816.105; -848.811
623.783;   10.881;  -12.107;   48.193
624.056;  -13.009; -254.120; -280.783
624.330;   43.236;   63.888;   -3.797
624.604;   49.950; -271.116; -355.790
624.877;   71.008;  180.890;   26.198
625.151;   40.868; -249.114; -238.794
625.425;  -23.835; -150.103; -283.814
625.698;  -50.449; -367.119; -374.785
625.972; -105.090; -799.110; -765.802
626.245;   62.851;  685.884;  484.210
626.519;  -51.355; -426.120; -340.784
626.792;  -30.791; -192.107; -380.807
627.066;  -94.128; -485.122; -662.779
627.339;  -95.144; -736.110; -663.802
627.613;   43.069;  351.880;  148.216
627.886;   57.012;  187.891; -612.803
628.160;  -17.235;  312.880; -161.783
628.433;  -88.447; -695.125; -703.775
628.706;  -61.955; -517.120; -615.784
628.979;   42.685;  296.876;  117.223
629.253;  -85.745; -785.119; -833.786
629.526;  358.488; -334.126; -253.772
629.799;  329.192; -641.123; -479.778
630.072;  155.895; -497.128; -516.769
630.346;  -69.824;-1115.116;-1080.790
630.619;  445.410; -467.107; -545.808
630.892;  591.673;  709.889;  593.200
631.165;  343.888;  790.896;  679.187
631.438;  -76.911;-1092.112;-1055.798
631.711;   55.795;  453.877;  257.221
631.984;  -53.303; -523.117; -624.789
632.257;  -58.382; -636.117; -681.789
632.530;  -34.424; -412.119; -433.785
632.803;   27.466; -109.115;    7.207
633.076;  -65.187; -360.123; -422.777
633.349;   16.949;  173.872;  121.231
633.622;  -25.500; -187.119; -240.785
633.895; -127.634; -903.120; -823.783
634.167;  -61.085; -496.126; -525.773
634.440;  -24.542;  -19.116; -137.792
634.713;   -0.146;  -22.119; -120.786
634.986;   73.664;  593.871;  453.233
635.258;  -62.435; -507.115; -597.793
635.531;   99.664;  742.882; -343.788
635.804;  -21.355; -303.117; -318.789
636.077;  -83.246; -830.116; -852.791
636.349;   -5.637; -586.115; -474.793
636.622;  385.362; 1695.874; 1392.228
636.894;  247.846; -474.120; -909.784
637.167;  157.131; -836.127; -789.771
637.439;   24.727; -278.128; -213.770
637.712;  -52.586; -312.126; -293.772
637.984;  -77.720; -635.116; -707.791
638.257;  386.139;  515.877;  488.222
638.529;  551.829; -881.125; -924.776
638.802;  252.920; -508.128; -449.769
639.074; -105.697; -927.122; -952.781
639.346; -115.535; -942.135; -930.757
639.619;    6.250;  -79.142; -319.744
639.891;  -11.103;  -83.122; -168.779
640.163;  -66.851; -689.122; -756.780
640.435;   33.351;  273.878;  103.220
640.708;   21.027;  -72.122; -132.780
640.980;  -24.296; -366.122; -362.781
641.252;  190.656;  -25.121;  -71.781
641.524; 1764.233;  580.879;  573.219
641.796; 1774.135;-1094.121; -907.782
642.068;  322.387; -191.121; -300.782
642.340;  -59.212; -486.121; -566.783
642.613;   38.790;  294.880;  323.217
642.885; -100.008; -787.120; -878.783
643.157;  -44.631; -810.120; -658.784
643.428;   58.446;  170.880;  218.216
643.700;  -54.278; -498.120; -425.784
643.972;  -32.026;  -16.119; -133.785
644.244; -100.574; -474.119; -559.785
644.516;  -48.122; -250.119; -114.786
644.788;   56.655;  662.881;  548.214
645.060;  -16.418;  -12.119; -124.786
645.332; -112.367; -525.118; -535.787
645.603;   24.635;  479.882;  342.213
645.875;  -78.088; -334.118; -369.787
646.147;  166.564; 1487.882; 1242.212
646.418;  -61.209; -931.117; -918.788
646.690;  144.918; -714.117; -715.789
646.962;   36.619; -413.117; -451.789
647.233;   -1.354;   15.883;   11.211
647.505;  -97.627; -595.117; -475.790
647.776;   22.025;  328.884;  229.210
648.048;   -9.048; -248.116; -418.790
648.320;  -70.546; -752.116; -679.791
648.591; -166.320;-1055.116; -958.791
648.862;  -79.943; -505.116; -577.792
649.134;   11.409;  115.885;  198.208
649.405;  -38.989; -661.115; -618.792
649.677;  -63.687; -475.115; -598.793
649.948;   -9.935; -181.115; -296.793
650.219;  -18.034;  -37.115; -147.793
650.491;  -86.932; -431.114; -520.794
650.762; -140.680; -705.114; -731.794
651.033;  -87.928; -437.114; -424.795
651.304;  -84.551; -743.114; -728.795
651.576;  -51.049; -680.114; -645.795
651.847;  -41.973; -250.113; -140.796
652.118;  -27.946;  -32.113; -189.796
652.389; -109.794; -639.113; -722.796
652.660;  -29.267; -147.113;  -89.797
652.931; -140.940; -897.112; -871.797
653.202;  -75.263; -382.112; -541.798
653.473;  -60.337; -633.112; -533.798
653.744;  136.890; -595.112; -590.798
654.015;  116.867; -356.112; -303.799
654.286;  -75.931; -642.111; -663.799
654.557;  -61.229; -586.111; -521.799
654.828; -152.602;-1114.111;-1088.800
655.099;  -85.726; -404.111; -291.800
655.370;  -89.524; -427.111; -543.801
655.641; -133.572; -656.110; -714.801
655.911;  -86.445; -618.110; -638.801
656.182;   51.032;  437.890;  387.198
656.453;   93.709;  830.890;  746.198
656.724;  -69.365; -466.110; -426.802
656.994;  -87.488; -553.109; -568.803
657.265; -108.786; -862.109; -873.803
657.536;  -68.559; -500.109; -377.804
657.806; -111.707; -561.109; -593.804
658.077; -134.330; -866.109; -950.804
658.347;  -81.804; -523.108; -598.805
658.618; -102.527; -646.108; -694.805
658.888;  -19.200;  -41.108;  112.195
659.159;  -75.748; -432.108; -548.806
659.429;  -15.971; -292.108; -349.806
659.700;   23.505; -435.107; -390.807
659.970;   -2.368; -370.107; -359.807
660.241;   11.484; -754.107; -921.807
660.511;  493.586; -147.107; -174.808
660.781;   82.663; -793.106; -748.808
661.052;  -50.385; -222.106; -381.808
661.322;   -6.509;   21.894;   -9.809
661.592;   15.943;  257.894;  148.191
661.862;  -71.080; -369.106; -382.810
662.133; -103.028; -551.105; -502.810
662.403; -120.126; -770.105; -676.810
662.673;  -59.749; -256.105; -213.811
662.943; -101.673; -612.105; -551.811
663.213;  -14.521;  -85.105;  -81.811
663.483;  -76.844; -593.104; -568.812
663.753;  -49.192; -194.104; -152.812
664.023;  -19.190;   68.896;  -32.813
664.293;  -60.963; -319.104; -126.813
664.563; -110.912; -694.104; -648.813
664.833; -116.885; -743.103; -608.814
665.103; -130.633; -730.103; -793.814
665.373; -125.256; -766.103; -806.814
665.643;  -77.829; -863.103; -918.815
665.913;   37.173; -534.103; -714.815
666.182;  149.524; -685.102; -719.816
666.452;  270.726;  -22.102;  -89.816
666.722;  -13.297; -724.102; -784.816
666.992; -127.520; -948.102; -921.817
667.261;  -91.968; -824.102; -808.817
667.531;  198.884;  134.899;   45.183
667.801;  534.885; -440.101; -412.818
668.070;  235.737;  714.899;  697.182
668.340;  -91.236; -883.101; -840.819
668.609;   81.691;  588.900;  301.181
668.879;  -82.457; -490.100; -558.819
669.149;  -76.230; -539.100; -516.820
669.418; -116.604; -698.100; -726.820
669.688;  -31.652; -482.100; -666.820
669.957;   76.825; -423.099; -546.821
670.226;  -16.648; -268.099; -331.821
670.496;  -91.171; -431.099; -635.822
670.765;  -85.169; -418.099; -501.822
671.034; -119.518; -872.099; -828.822
671.304;   -3.116;   55.902; -111.823
671.573; -140.889;-1085.098; -957.823
671.842;   74.438; -380.098; -294.823
672.112;   32.590; -692.098; -586.824
672.381;   -7.508; -239.098; -214.824
672.650; -137.307;-1005.097;-1021.825
672.919;  -86.255; -631.097; -507.825
673.188;  -99.878; -681.097; -878.825
673.457; -146.376;-1101.097;-1143.826
673.726;  -65.074; -579.096; -646.826
673.995;  -53.997; -533.096; -479.826
674.265;  -15.796; -263.096; -333.827
674.534;    8.806; -183.096; -235.827
674.802;   19.983; -618.096; -703.828
675.071; 1008.360; -886.095; -801.828
675.340; 3810.587; -464.095; -339.828
675.609; 1271.663;  103.905;   82.171
675.878;   66.740; -949.095; -893.829
676.147;   36.867;  -26.095;   -8.829
676.416;   92.869; -210.094; -294.830
676.685;  734.521; 1000.906; -622.830
676.953;  114.873; -603.094; -452.831
677.222;  -34.876; -193.094; -273.831
677.491;  -28.574;  -24.094; -127.831
677.759;  -17.772;   11.907;  172.168
678.028;   -6.895; -279.093; -222.832
678.297;    3.957;   71.907;  197.168
678.565; -136.591; -898.093; -944.833
678.834;  -51.065; -311.093; -268.833
679.102;  -70.463; -411.092; -391.834
679.371; -132.186; -898.092; -727.834
679.639; -114.059; -797.092; -786.834
679.908; -120.182; -794.092; -724.835
680.176; -142.055; -895.091; -941.835
680.445;  -73.229; -346.091; -352.835
680.713;  -18.552;  -58.091;  -23.836
680.982;  -95.450; -523.091; -525.836
681.250;  -96.248; -578.091; -507.837
681.518; -101.921; -534.090; -751.837
681.787;  -13.544; -204.090; -167.837
682.055;  -61.068; -490.090; -422.838
682.323; -136.216; -993.090; -992.838
682.591;   15.236; -216.090; -538.838
682.859;   92.338;    9.911;  -35.839
683.128;   16.265;  232.911;  497.161
683.396; -164.458;-1102.089;-1122.840
683.664;  -36.082; -241.089;   21.160
683.932;   -0.480;  144.911;  -76.840
684.200;  -87.403; -576.088; -320.841
684.468;  -29.076;  -73.088; -124.841
684.736;  -32.949; -214.088; -175.841
685.004; -119.422;-1024.088; -982.842
685.272;  -46.621; -880.088; -774.842
685.540;  -70.944; -499.087; -557.843
685.808;  -77.092; -651.087; -682.843
686.076; -102.415; -894.087; -969.843
686.343;  -49.888; -601.087; -815.844
686.611;   31.339; -195.087; -224.844
686.879;  442.840; -530.086; -553.844
687.147; 3239.542; -483.086; -480.845
687.414;  913.769;  -12.086; -169.845
687.682;    7.671; -658.086; -757.846
687.950;  302.973;  259.915;  263.154
688.217;    7.875; -792.085; -760.846
688.485;    1.676; -632.085; -636.847
688.753;  518.278;  -11.085; -102.847
689.020;  148.330; -820.085; -851.847
689.288;  -91.168; -853.084; -787.848
689.555;  -37.416; -195.084; -148.848
689.823;  -38.864; -241.084; -345.849
690.090;  -81.588; -546.084; -651.849
690.358; -154.511; -877.084; -897.849
690.625;   -5.109;  120.917;   45.150
690.892;  -85.032; -403.083; -369.850
691.160;  -10.530;   72.917;  -35.850
691.427;   -1.554;  141.917;  130.149
691.694; -135.352; -855.083; -929.851
691.962; -137.350;-1177.082;-1060.852
692.229;   16.727;  127.918;   56.148
692.496;   69.229;  130.918;  -49.852
692.763;   14.331; -164.082; -201.853
693.031;  -65.118; -739.082; -716.853
693.298;  -27.691; -509.081; -368.853
693.565;  320.686; -155.081; -163.854
693.832; 1256.463;   -5.081;   -9.854
694.099;  137.215; -643.081; -642.855
694.366;  -68.108; -882.081; -896.855
694.633;  -51.632; -920.080; -633.855
694.900;  738.645; 4367.920; -114.856
695.167;  416.222; -214.080; -380.856
695.434;  107.249; -646.080; -623.856
695.701;  193.076;  121.921;  -61.857
695.968;  460.678; -365.079; -361.857
696.234; 1003.729; -415.079; -646.858
696.501;10350.956; -776.079; -614.858
696.768; 5234.533; -554.079; -617.858
697.035;  306.335; -632.078; -667.859
697.302;   35.487; -448.078; -552.859
697.568;    0.039; -458.078; -497.859
697.835;  -33.235; -683.078; -624.860
698.102;  -14.458; -498.078; -407.860
698.368;   84.819;  384.923;  396.139
698.635;  -40.604;  -47.077; -424.861
698.901;  -11.152; -240.077; -348.861
699.168;   58.550; -534.077; -456.862
699.435;   78.801;  -72.077;  -13.862
699.701; -110.647; -868.076; -764.862
699.968;   13.155;  144.924; -441.863
700.234;  -96.468; -783.076; -822.863
700.500;  -46.641; -448.076; -539.864
700.767;   -5.189;   -1.075;   26.136
701.033; -128.363;-1015.075; -963.864
701.299;  -72.386; -450.075; -483.865
701.566;  118.641;  950.925;  763.135
701.832;   40.193;  -31.075;  -76.865
702.098;  -90.255;-1054.074;-1034.866
702.365;  -91.178;-1098.074;-1030.866
702.631;  -28.127;-1038.074;-1063.867
702.897; 1336.500; -765.074; -676.867
703.163; 2237.252;  348.926;  254.133
703.429;  161.354; -256.073; -273.868
703.695;  -30.694; -796.073; -792.868
703.961;   14.408; -214.073; -210.868
704.227;  -51.941; -630.073; -725.869
704.493;  117.936;  613.927;  510.131
704.759;  -23.412; -565.072; -540.870
705.025;   36.240; -203.072; -194.870
705.291;   -0.058; -666.072; -562.870
705.557;  200.268;  719.928;   34.129
705.823;   46.445; -742.072; -694.871
706.089;  146.297; -307.071; -326.871
706.355;  369.099; -315.071; -244.872
706.620; 5555.676; -776.071; -729.872
706.886; 7785.253; -309.071; -362.873
707.152;  715.229; -818.070; -973.873
707.418;  -15.519;-1153.070;-1186.873
707.683;    7.483; -550.070; -530.874
707.949;  -35.615; -547.070; -578.874
708.215;   -0.088; -129.070; -207.874
708.480;  -19.411; -520.069; -420.875
708.746;   88.740;   68.931;   28.125
709.011;  -64.758; -578.069; -612.876
709.277;  -80.231; -538.069; -543.876
709.542;  -37.429; -428.069; -387.876
709.808;   -2.402;  -59.068;   89.123
710.073;  -86.625; -577.068; -695.877
710.339;  -30.674; -242.068; -228.877
710.604;   85.803; -780.068; -845.878
710.869;  329.380; -277.068; -366.878
711.135;  -61.618; -715.067; -628.879
711.400;  -75.366; -507.067; -608.879
711.665;  -67.314; -404.067; -479.879
711.931;  -97.188; -661.067; -677.880
712.196; -115.236; -876.067; -954.880
712.461;  102.691; -402.066; -490.880
712.726;  140.593; -727.066; -771.881
712.991;  -97.855; -647.066; -664.881
713.256;  -38.803; -350.066; -332.882
713.521;  -51.752; -417.065; -381.882
713.787;  -45.500; -454.065; -472.882
714.052;  -33.398; -214.065; -400.883
714.317; -107.146;-1045.065; -981.883
714.581; 1014.731; -374.065; -268.883
714.846; 1392.683; -822.064; -888.884
715.111;  122.909;  261.936;  257.116
715.376;  -21.964;  -86.064; -223.885
715.641;  -13.162; -365.064; -367.885
715.906;  298.315;   15.936; -551.885
716.171;  141.542;  221.937;  209.114
716.436;   47.069;  -78.063; -104.886
716.700; -106.005; -818.063; -692.886
716.965; -113.878; -794.063; -807.887
717.230;  -67.476; -339.063; -392.887
717.494;  -14.674;  -40.062; -134.888
717.759;  -98.972; -784.062; -640.888
718.024;   -1.545;  269.938;  250.112
718.288;   62.856;  685.938;  395.111
718.553; -137.742; -803.062; -977.889
718.817; -131.265; -883.061; -899.889
719.082;  -30.963; -115.061; -125.890
719.346; -141.586;-1000.061; -947.890
719.611;  -52.309; -300.061; -255.891
719.875;  -92.033; -568.060; -537.891
720.140;  -61.606; -453.060; -603.891
720.404;   35.396; -136.060; -249.892
720.668;  830.273; -475.060; -411.892
720.933;  323.625;  146.940;  137.108
721.197;  -88.049; -667.059; -600.893
721.461; -143.922; -851.059; -826.893
721.725;  -14.645;  -21.059; -250.894
721.990;  -45.168; -284.059; -204.894
722.254;  -24.066;  -26.059; -108.894
722.518;  -79.439; -286.058; -442.895
722.782;  -92.413; -743.058; -594.895
723.046;  133.639;  614.942;  570.105
723.310;   39.641;  374.942;  210.104
723.574; -102.557; -654.058; -614.896
723.838; -102.305; -576.057; -642.897
724.102;  -55.628; -226.057; -239.897
724.366; -132.902;-1032.057; -978.897
724.630; -103.825; -749.057; -571.898
724.894;  -71.348; -722.057; -514.898
725.158;  -16.446;   38.944; -295.898
725.422;  -53.419; -394.056; -327.899
725.685;  -59.817; -441.056; -349.899
725.949;  -73.691; -566.056; -519.900
726.213;  -64.339; -732.056; -811.900
726.477;  177.988;-1020.055; -933.900
726.740;  141.090; -274.055; -104.901
727.004;  330.692; -384.055; -510.901
727.268; 3319.769; -442.055; -400.901
727.531;  916.520; -961.055; -775.902
727.795;  -45.503; -713.054; -673.902
728.059;  -64.651; -552.054; -557.903
728.322;  -76.424; -841.054; -669.903
728.586;   26.053; -692.054; -701.903
728.849;  -78.570; -695.053; -756.904
729.112; -120.919; -812.053; -912.904
729.376; -132.617; -959.053; -905.904
729.639;  -68.790; -536.053; -536.905
729.903; -115.138; -733.053; -699.905
730.166;  -48.386; -437.052; -399.906
730.429;  -36.234; -317.052; -468.906
730.693;  -62.508; -355.052; -894.906
730.956;  210.394;  810.948;  651.093
731.219;  693.321; -310.052; -103.907
731.482;  115.273;-1003.051; -894.907
731.745;   94.875; -794.051; -935.908
732.009;   17.927;  -30.051;   50.092
732.272;  -93.872; -904.051; -771.909
732.535;  -41.220; -300.051; -310.909
732.798; -157.043;-1083.050;-1166.909
733.061;  -63.016; -430.050; -456.910
733.324;   12.761;   31.950; -180.910
733.587;   66.313;  290.950;  365.090
733.850;  -75.436; -973.049;-1050.911
734.113;   31.466;   33.951;   32.089
734.376;   -0.407; -328.049; -447.912
734.639;  199.145; 1188.951; 1011.088
734.901;   70.047; -180.049; -402.912
735.164;  493.399; -883.048; -837.913
735.427; 1297.525; -166.048; -355.913
735.690;  127.202; -205.048; -234.913
735.952;  -25.621; -923.048; -925.914
736.215;  -30.169;-1113.048;-1009.914
736.478;   42.033; -771.047; -774.915
736.740;  213.409;   33.953;  129.085
737.003;  668.411; -658.047; -672.915
737.266; 4028.113;  -94.047;   46.084
737.528;  443.390; -682.047; -660.916
737.791;  309.992; -316.046; -327.916
738.053;  794.919;  465.954;  649.083
738.316;10814.945; -162.046; -136.917
738.578; 7609.147; -770.046; -736.918
738.841;  435.599; -382.046; -446.918
739.103;  163.351; -875.045; -777.918
739.365;  508.953;   79.955;  -69.919
739.628;   -3.595; -884.045; -805.919
739.890;  -21.594; -758.045; -710.919
740.152;  -34.242; -692.044; -754.920
740.414;  -15.265; -408.044; -359.920
740.677;  -45.138; -785.044; -634.921
740.939;  -40.186; -587.044; -487.921
741.201;  259.416; -432.044; -572.921
741.463;   40.667; -689.043; -745.922
741.725;   19.069;  -21.043; -199.922
741.987;   64.521;  220.957;  116.078
742.249;   -5.527; -751.043; -859.923
742.511;  214.350; -703.043; -794.923
742.773;   29.727; -546.042; -546.924
743.035;  130.903;  796.958;  533.076
743.297;  -36.570; -963.042;-1013.924
743.559;  714.457; -278.042; -262.925
743.821;   64.509; -735.042; -744.925
744.083;    5.386;  -44.041; -149.925
744.345;  -71.087; -869.041; -892.926
744.607;   40.564;   75.959;  122.074
744.868;  -44.034; -490.041; -554.927
745.130; -105.207; -994.041;-1008.927
745.392;   42.020;   -1.040;  -44.927
745.653;  -24.153; -411.040; -378.928
745.915;  154.724;  896.960;  631.072
746.177;   56.225;   35.960;  -43.928
746.438;    0.327; -428.040; -543.929
746.700;  -36.446; -947.039; -988.929
746.961;    3.406; -659.039; -740.930
747.223;  133.408; -190.039;  -74.930
747.484;   98.935; -391.039; -471.930
747.746;  139.361;  -23.038; -106.931
748.007;  112.938; -647.038; -689.931
748.269;  298.540; -468.038; -440.931
748.530;  471.242; -852.038; -638.932
748.791;  254.644; -354.038; -420.932
749.053;  439.221;  286.963;  163.067
749.314;  458.097; -236.037; -169.933
749.575;  513.599; -945.037; -905.933
749.836;  842.526; -217.037;   86.066
750.098; 2436.103;  -60.037;  -21.934
750.359;36342.330;  414.964;  555.066
750.620; 9216.282; -121.036; -220.935
750.881; 1034.458; -585.036; -513.935
751.142; 1343.960; -950.036; -938.936
751.403;16734.262; -789.036; -705.936
751.664; 7376.039;-1034.035; -999.936
751.925;  488.091; -175.035; -262.937
752.186;  271.492; -298.035; -278.937
752.447;  138.569; -590.035; -445.937
752.708;   54.196; -532.035; -648.938
752.969;   18.473; -566.034; -576.938
753.230;   -6.650; -777.034; -672.939
753.491;   -0.698; -650.034; -631.939
753.751;   53.503;  109.966;   19.061
754.012;   84.905;  258.967;  181.060
754.273;   60.907; -174.033;  -71.940
754.534;    2.359; -487.033; -580.940
754.794;  -87.339; -926.033; -911.941
755.055;  158.063; 1051.967;  881.059
755.316;  -53.261; -700.032; -566.942
755.576;  -31.734; -606.032; -576.942
755.837;  -42.907; -527.032; -695.942
756.097;  -49.155; -530.032; -564.943
756.358;  -75.503; -725.032; -770.943
756.618;  -52.226; -705.031; -641.943
756.879;   -2.175; -254.031; -349.944
757.139; -124.398;-1098.031;-1116.944
757.400;  -57.671; -538.031; -553.945
757.660;   -9.894; -365.031; -401.945
757.920;   28.033; -266.030; -228.945
758.181;  -12.690; -468.030; -351.946
758.441; -100.239; -870.030; -809.946
758.701;  -21.137; -308.030; -215.946
758.961;   -9.910; -220.030; -278.947
759.222;  -50.508; -574.029; -502.947
759.482;  -75.406; -683.029; -723.948
759.742;  -77.804; -706.029; -547.948
760.002;   19.572;  -83.029; -143.948
760.262;   10.049;   50.972;  182.051
760.522;  -38.174; -498.028; -574.949
760.782;  -46.447; -738.028; -612.949
761.042;  -23.495; -618.028; -573.950
761.302;   50.257;   55.972;  -18.950
761.562;   57.958; -164.027; -154.951
761.822;   89.260; -710.027; -551.951
762.082;  -44.138;-1104.027;-1093.951
762.342;   64.639; -328.027; -403.952
762.601;   84.116; -567.027; -506.952
762.861;  338.818; -281.026; -207.952
763.121;  411.244; -406.026; -411.953
763.381; 7364.646; -499.026; -485.953
763.640; 8218.523; -139.026; -307.954
763.900;  363.100; -242.026; -203.954
764.160;   93.502; -458.025; -491.954
764.419;  -16.346; -726.025; -782.955
764.679;  -81.770; -795.025; -726.955
764.939;   -7.493; -124.025; -210.955
765.198;  -65.216; -608.025; -563.956
765.458;  -79.464; -710.024; -612.956
765.717;  -80.912; -454.024; -590.957
765.976;  -66.161; -428.024; -411.957
766.236;  -67.659; -475.024; -610.957
766.495;    8.918;  260.977;   73.042
766.755;  -89.680;-1090.023; -987.958
767.014;    7.322; -594.023; -665.958
767.273;  -46.126; -373.023; -397.959
767.533;  -42.300; -228.023; -307.959
767.792;  -21.523; -151.022; -188.960
768.051;  -49.071; -228.022; -276.960
768.310;  -88.719; -546.022; -650.960
768.569;   -2.942; -161.022;    4.039
768.828;  -27.915; -285.022; -363.961
769.088; -115.264;-1050.021; -942.961
769.347;  -71.112; -755.021; -599.962
769.606;  -92.785; -876.021; -857.962
769.865; -116.008;-1016.021;-1033.963
770.124;   -2.556; -411.021; -336.963
770.383;  -40.929; -778.020; -910.963
770.641;   -4.628; -398.020; -400.964
770.900;  -64.226; -953.020; -846.964
771.159;  -46.474; -851.020; -951.964
771.418;   -5.522; -917.020; -779.965
771.677;  121.830; -224.019; -293.965
771.936;  147.957; -794.019; -865.966
772.194; 2208.608; -465.019; -437.966
772.453;11018.985; -213.019; -391.966
772.712;  760.162;  416.982;  329.033
772.970;  120.714;   32.982;   63.033
773.229;   90.466;  -22.018;  102.033
773.488;  -83.982; -814.018; -770.968
773.746;   56.694;  296.982;  335.032
774.005;    8.296;  190.983;  -22.969
774.263;    7.773;  243.983;  177.031
774.522;  -49.375; -422.017; -548.969
774.780;  -74.848; -484.017; -417.970
775.039;  -94.646; -551.017; -531.970
775.297;  -22.870; -135.016; -351.970
775.555; -102.318; -489.016; -612.971
775.814; -115.741; -618.016; -570.971
776.072; -132.364; -749.016; -740.971
776.330; -104.812; -630.016; -520.972
776.589; -118.485; -703.015; -721.972
776.847; -132.684; -645.015; -624.973
777.105; -162.007;-1016.015;-1032.973
777.363;  -82.380; -459.015; -454.973
777.621; -148.428; -660.015; -717.974
777.879;  -21.651;  -42.014;   32.026
778.138; -102.499; -554.014; -717.974
778.396;  -94.873; -585.014; -526.975
778.654; -162.246;-1015.014; -970.975
778.912;  -65.444; -269.014; -371.976
779.170; -135.392; -880.013; -803.976
779.427; -145.790; -922.013; -897.976
779.685; -147.013; -880.013; -832.977
779.943;  -80.912; -654.013; -593.977
780.201; -163.460; -964.012; -883.978
780.459; -114.158; -651.012; -610.978
780.717;  -66.206; -440.012; -390.978
780.974;  -94.754; -449.012; -490.979
781.232;  -74.353; -358.012; -338.979
781.490;  -68.901; -551.011; -472.979
781.747;  -85.874; -555.011; -476.980
782.005;   26.603;  462.989;  254.020
782.263; -156.570; -542.011;-1004.981
782.520;  -86.868; -326.011; -501.981
782.778; -169.767;-1013.010;-1051.981
783.035; -171.090; -962.010; -938.982
783.293;  -54.863; -248.010; -206.982
783.550;  -67.836; -134.010; -198.982
783.808; -143.684; -764.010; -776.983
784.065; -155.832; -745.009; -874.983
784.322;  -58.406;   25.991;  -86.984
784.580; -141.879; -915.009; -771.984
784.837;  -85.527; -392.009; -466.984
785.094; -135.625; -783.009; -762.985
785.352;  -71.973; -304.008; -404.985
785.609; -101.796; -934.008; -839.985
785.866;  -73.270; -345.008; -401.986
786.123;  -81.068; -639.008; -583.986
786.380;  -86.491; -665.008; -604.987
786.637;  -34.864; -225.007; -380.987
786.895;  -17.137; -456.007; -543.987
787.152;  -45.810; -135.007; -267.988
787.409;  -49.509; -123.007; -225.988
787.666;  -76.857; -299.006; -378.988
787.923; -108.055; -616.006; -695.989
788.179; -105.553; -551.006; -584.989
788.436; -111.101; -585.006; -585.990
788.693;  -32.174;  -92.006;  -87.990
788.950;  132.377; -125.005; -112.990
789.207;  217.229; -381.005; -372.991
789.464;  -44.819; -161.005; -301.991
789.720;  -13.217;  150.995;  110.009
789.977; -169.640;-1003.005; -671.992
790.234;  -38.338;   44.996;  -66.992
790.490; -157.212; -884.004;-1031.993
790.747;   -7.210;  -85.004;   22.007
791.004;  -22.158; -426.004; -348.993
791.260;  -86.106; -430.004; -560.994
791.517;  -98.654; -843.003; -788.994
791.773;  -57.377; -379.003; -342.994
792.030; -110.151; -596.003; -660.995
792.286;  -98.574; -686.003; -636.995
792.543;   -5.622;  -74.002; -159.995
792.799;  -48.995; -584.002; -382.996
793.055; -159.593;-1179.002;-1210.996
793.312;  -86.391; -827.002; -816.997
793.568;  -55.140; -746.002; -599.997
793.824;    2.887; -226.001; -284.997
794.081;   20.214; -447.001; -508.998
794.337;   68.616; -664.001; -561.998
794.593; 1315.993; -319.001; -271.999
794.849; 6568.120; -746.001; -772.999
795.105;  332.071; -270.000; -261.999
795.361;   17.098; -490.000; -457.000
795.617;  -69.800; -875.000; -945.000
795.873;  -44.325; -360.000; -407.000
796.129;  -25.875; -368.000; -306.000
796.385;  -22.725; -124.000; -156.000
796.641;   79.900;  412.000;  550.000
796.897;  -80.500; -666.000; -635.000
797.153;   67.825;  453.000;  357.000
797.409; -108.975; -785.000; -868.000
797.665;  -73.375; -625.000; -732.000
797.921;  -79.175; -775.000; -762.000
798.176;  -54.675; -744.000; -747.000
798.432;  -49.100; -824.000; -596.000
798.688;  -64.500;-1174.000;-1078.000
798.943;   73.775; -165.000; -147.000
799.199;    8.725;-1005.000; -959.000
799.455;  234.675;  369.000;  316.000
799.710;  144.275; -813.000; -380.000
799.966;  309.150; -162.000; -160.000
800.221;  483.075; -638.000; -721.000
800.477;10465.500; -743.000; -710.000
800.732; 9336.075; -773.000; -800.000
800.988;  646.200;  205.000;  -19.000
801.243; 1775.650; -454.000; -344.000
801.498; 7819.300; -814.000; -739.000
801.754;  447.800; -289.000; -163.000
802.009;   84.475; -257.000; -335.000
802.264;  -45.150; -967.000;-1033.000
802.520;   25.825;  222.000;   -3.000
802.775;  -48.025; -524.000; -359.000
803.030;   58.125;  395.000;  356.000
803.285; -105.900; -840.000; -903.000
803.540;  -66.800; -686.000; -699.000
803.795;  -44.175; -648.000; -583.000
804.051;  -43.525; -279.000; -346.000
804.306;   31.350;  168.000;  128.000
804.561;  137.200;  451.000;  362.000
804.816;  137.500;  714.000;  861.000
805.071;   -7.425; -185.000; -280.000
805.325;  215.475; -257.000; -427.000
805.580;  -89.525; -841.000; -877.000
805.835;   -8.925; -204.000; -297.000
806.090;  -64.125; -760.000; -676.000
806.345;  -17.300; -344.000; -264.000
806.600;  -18.325; -549.000; -632.000
806.854;  -33.975; -408.000; -538.000
807.109;  -17.025; -493.000; -577.000
807.364;   -1.225; -407.000; -328.000
807.618;   -2.625; -415.000; -381.000
807.873;   41.625; -470.000; -494.000
808.128;   96.475; -257.000; -518.000
808.382;  120.275; -224.000; -332.000
808.637;   64.375; -440.000; -511.000
808.891;  173.450; -257.000; -180.000
809.146;  103.575; -902.000; -794.000
809.400;  260.075; -848.000; -923.000
809.654;  342.925; -779.000; -551.000
809.909;  502.825; -841.000; -927.000
810.163; 6531.875; -813.000; -651.000
810.418;17030.200; -940.000; -861.000
810.672; 1041.825; -685.000; -690.000
810.926;  713.550; -993.000; -973.000
811.180; 1378.275; -439.000; -372.000
811.434;31847.775;  240.000;  135.000
811.689;12829.550; -231.000; -365.000
811.943;  638.150; -936.000; -953.000
812.197;  323.400; -893.000; -671.000
812.451;  130.875; -379.000; -514.000
812.705;  -24.975; -809.000; -619.000
812.959;   -4.675; -263.000; -388.000
813.213;   -7.750; -283.000; -209.000
813.467;   93.925;  470.000;  253.000
813.721; -103.100; -764.000; -792.000
813.975; -109.025; -826.000; -877.000
814.229;   47.900;  430.000;  353.000
814.482;  -76.900; -517.000; -566.000
814.736; -129.400; -766.000; -744.000
814.990; -123.325; -779.000; -872.000
815.244;  -34.975; -228.000; -285.000
815.497;  -81.975; -636.000; -601.000
815.751;  -23.300; -141.000;   82.000
816.005;  -80.300; -470.000; -586.000
816.258;  -64.550; -510.000; -363.000
816.512; -108.400; -693.000; -610.000
816.766;    3.575;  121.000;  157.000
817.019;   24.525;  148.000;  149.000
817.273; -131.100;-1000.000; -802.000
817.526;  -33.250; -206.000; -173.000
817.779;  -44.875;-1049.000; -960.000
818.033;  -64.550; -693.000; -807.000
818.286; -119.275; -725.000; -792.000
818.540;  -82.050; -403.000; -403.000
818.793;  -73.275; -402.000; -489.000
819.046;  -91.875; -582.000; -520.000
819.299;  -39.575; -157.000; -166.000
819.553; -109.050; -552.000; -592.000
819.806; -165.025;-1016.000; -838.000
820.059;  -57.775; -334.000; -354.000
820.312;   14.575;  152.000;  185.000
820.565;  -10.150;  110.000;  -27.000
820.818;  -57.575;  -59.000; -173.000
821.071; -168.900;-1041.000; -957.000
821.324; -109.725; -536.000; -540.000
821.577;  -98.350; -457.000; -483.000
821.830;  -49.525; -270.000; -172.000
822.083; -128.275; -733.000; -288.000
822.336;  -51.775; -261.000; -167.000
822.589; -139.600; -805.000; -688.000
822.842; -144.150; -875.000; -770.000
823.094; -174.900;-1076.000;-1114.000
823.347; -132.100; -925.000; -729.000
823.600;   10.725;  402.000;  187.000
823.853;  -49.275; -311.000; -267.000
824.105;  -76.900; -331.000; -575.000
824.358; -105.175; -617.000; -716.000
824.611;   35.175;  234.000;   40.000
824.863;  -37.425; -612.000; -591.000
825.116;   51.750;  -33.000;   27.000
825.368;   76.400; -366.000; -372.000
825.621;  158.075; -186.000; -240.000
825.873;   83.675; -704.000; -737.000
826.126;  587.300; -669.000; -641.000
826.378;11546.450; -389.000; -505.000
826.630; 2877.900; -890.000; -898.000
826.883;   49.675; -754.000; -693.000
827.135;   46.150; -279.000; -270.000
827.387; -114.075; -893.000; -839.000
827.639;  -35.275;  -86.000;   32.000
827.892; -120.775; -742.000; -582.000
828.144; -147.250; -848.000; -804.000
828.396;  -39.125;  104.000;  -80.000
828.648;  -86.600; -440.000; -333.000
828.900; -145.900; -702.000; -795.000
829.152; -113.300; -684.000; -683.000
829.404;  -71.675; -215.000; -267.000
829.656;  -44.875;  321.000;  214.000
829.908;  -19.600;  393.000;  229.000
830.160; -168.175;-1064.000;-1047.000
830.412; -105.825; -481.000; -430.000
830.664; -118.750; -557.000; -665.000
830.916;  -68.025; -268.000; -206.000
831.167; -166.375;-1073.000; -951.000
831.419; -116.125; -623.000; -566.000
831.671; -130.975; -764.000; -809.000
831.923; -102.775; -311.000; -447.000
832.174;  -65.350; -273.000; -331.000
832.426; -109.825; -493.000; -582.000
832.678; -179.475;-1043.000;-1091.000
832.929; -169.375; -947.000; -935.000
833.181;  -66.125; -575.000; -677.000
833.432;  -65.175;  -59.000; -186.000
833.684;  -18.400;  112.000;  -27.000
833.935; -121.250; -610.000; -566.000
834.187; -113.850; -829.000; -823.000
834.438;  -44.950;  -58.000;  -25.000
834.689;  -45.400; -255.000; -123.000
834.941;  -67.075; -343.000; -244.000
835.192;  -79.400; -590.000; -533.000
835.443; -112.900; -419.000; -506.000
835.695;   -9.025;  138.000;  -16.000
835.946;  -84.200; -608.000; -378.000
836.197;  -99.375; -599.000; -622.000
836.448; -101.000; -528.000; -395.000
836.699;  -51.125; -253.000; -341.000
836.950;   -6.675;   72.000;    7.000
837.201; -149.625;-1003.000; -987.000
837.452;  -44.850; -356.000; -170.000
837.703; -118.000; -791.000; -737.000
837.954;  -39.650; -205.000; -365.000
838.205;  -97.375;-1029.000;-1008.000
838.456;  178.725; -196.000; -282.000
838.707;   -0.025; -423.000; -519.000
838.958;    1.650; -634.000; -647.000
839.209;  276.600;   18.000;   40.000
839.460;  119.025; -439.000; -201.000
839.710;  153.750; -135.000; -297.000
839.961;  426.900;  730.000;  612.000
840.212;  329.125; -382.000; -497.000
840.462; 1106.025; -328.000; -277.000
840.713;17909.825; -571.000; -536.000
840.964; 7228.100;  -62.000; -143.000
841.214;  514.125; -384.000; -624.000
841.465;  567.500; -214.000; -141.000
841.715;  490.800; -417.000; -380.000
841.966;  631.975; -746.000; -685.000
842.216; 8915.350; -330.000; -431.000
842.466;34299.900; -169.000; -313.000
842.717; 1884.850; -964.000; -952.000
842.967;  309.225; -635.000; -641.000
843.217;  265.250;   20.000;   28.000
843.468;   73.025; -104.000; -132.000
843.718;  -47.650; -718.000; -726.000
843.968;  -92.075; -837.000; -765.000
844.218;    4.650; -315.000; -262.000
844.469;  -47.475; -577.000; -561.000
844.719; -107.650; -537.000; -682.000
844.969; -103.400; -550.000; -580.000
845.219; -137.775; -814.000; -862.000
845.469;  -69.100; -392.000; -342.000
845.719; -130.425; -792.000; -884.000
845.969;  -14.675;  119.000;  174.000
846.219; -124.450; -738.000; -720.000
846.469;    6.275;  464.000;  432.000
846.718;  -64.125; -115.000;   31.000
846.968; -138.875; -827.000; -827.000
847.218;  -40.025; -224.000; -371.000
847.468;   13.150; -586.000; -555.000
847.718; -147.325; -827.000; -798.000
847.967; -138.400; -826.000; -915.000
848.217;  -73.600; -449.000; -569.000
848.467;  -63.675; -405.000; -376.000
848.716; -101.875; -708.000; -725.000
848.966;    5.675; -372.000; -358.000
849.215;  -65.900; -428.000; -419.000
849.465;  -98.675; -785.000; -615.000
849.714; -144.850;-1132.000;-1150.000
849.964;  -66.975; -551.000; -613.000
850.213;  -25.900; -393.000; -355.000
850.463;   67.650;  137.000;  340.000
850.712;   -2.175; -542.000; -567.000
850.961;   19.850; -739.000; -678.000
851.211;   84.100; -513.000; -504.000
851.460;  168.050; -635.000; -650.000
851.709;  559.775;  -25.000;   18.000
851.958;10241.200; -912.000; -750.000
852.208;12716.625; -859.000; -879.000
852.457;  479.425; -181.000;  -13.000
852.706;   60.775; -791.000; -823.000
852.955;    1.825; -507.000; -528.000
853.204;  -59.725; -521.000; -461.000
853.453;  -84.075; -418.000; -458.000
853.702; -132.875; -660.000; -750.000
853.951; -103.000; -532.000; -520.000
854.200; -116.550; -613.000; -562.000
854.449; -127.175; -695.000; -661.000
854.698;  -91.450; -340.000; -279.000
854.946;  -75.250; -181.000; -284.000
855.195; -151.750; -843.000; -868.000
855.444;  -81.625; -395.000; -420.000
855.693; -118.600; -345.000; -432.000
855.941;  -92.650; -387.000; -516.000
856.190;  -66.775; -256.000; -382.000
856.439; -145.650; -652.000; -703.000
856.687;  -62.925;  -99.000;  -72.000
856.936; -112.675; -621.000; -323.000
857.184; -170.850;-1067.000;-1020.000
857.433; -104.750; -423.000; -512.000
857.681; -160.850; -989.000; -953.000
857.930;  -81.800; -282.000; -433.000
858.178; -166.000; -856.000; -929.000
858.427; -152.400; -802.000; -781.000
858.675; -120.475; -377.000; -544.000
858.923; -118.000; -527.000; -819.000
859.172; -183.125;-1094.000;-1070.000
859.420;  -89.175; -339.000; -239.000
859.668; -116.900; -624.000; -628.000
859.916;  -28.950;  109.000;  115.000
860.164; -116.275; -699.000; -603.000
860.413;  271.600; -878.000; -696.000
860.661;  222.950; -709.000; -577.000
860.909;  -77.225; -339.000; -325.000
861.157;  -94.475; -277.000; -444.000
861.405; -126.150; -534.000; -670.000
861.653;   21.275;  310.000;  310.000
861.901;  160.250; -543.000; -613.000
862.149;    5.750; -801.000; -824.000
862.396;  -84.800; -297.000; -187.000
862.644;  -94.875; -368.000; -347.000
862.892;  -44.725;   98.000;  138.000
863.140; -112.100; -549.000; -530.000
863.388; -146.050; -815.000; -759.000
863.635; -118.125; -642.000; -601.000
863.883;   -8.700;  231.000;  190.000
864.131; -105.250; -288.000; -357.000
864.378; -137.550; -675.000; -540.000
864.626; -103.050; -347.000; -415.000
864.873; -133.700; -556.000; -505.000
865.121; -136.325; -714.000; -799.000
865.368;  -45.075; -173.000;   75.000
865.616;  -44.075;  -33.000;  -40.000
865.863;  -76.950; -462.000; -506.000
866.111; -103.575; -795.000; -824.000
866.358;   21.600; -426.000; -420.000
866.605; 2286.700;  -64.000; -804.000
866.853; 2323.650; -621.000; -537.000
867.100;  -47.225; -728.000; -775.000
867.347; -100.775; -672.000; -611.000
867.594;  -87.575; -740.000; -714.000
867.841;   95.075;   97.000;   17.000
868.089; -150.000; -746.000; -698.000
868.336; -101.875; -477.000; -420.000
868.583; -147.125; -637.000; -741.000
868.830;  -56.575; -131.000; -170.000
869.077; -173.575; -859.000; -787.000
869.324; -133.600; -502.000; -458.000
869.571; -135.375; -398.000; -430.000
869.818; -137.925; -485.000; -439.000
870.065; -101.225; -439.000; -513.000
870.311; -101.750; -456.000; -542.000
870.558; -110.450; -332.000; -311.000
870.805;  -78.925; -320.000; -384.000
871.052; -105.750; -494.000; -369.000
871.298;  -64.075; -204.000; -131.000
871.545;  -75.725; -151.000; -185.000
871.792;  -87.025; -173.000; -222.000
872.038;  -55.025;   43.000; -126.000
872.285; -116.475; -496.000; -387.000
872.532;  -93.500; -357.000; -387.000
872.778;   -3.625;  556.000;  403.000
873.025;  -94.150; -384.000; -359.000
873.271;   35.150;  501.000;  578.000
873.517;  -20.100; -133.000; -209.000
873.764;  -36.450; -193.000;  -80.000
874.010;  -70.125; -143.000; -230.000
874.257;  -45.225;  123.000;   90.000
874.503; -128.575; -579.000; -479.000
874.749;  -72.375;   31.000;  275.000
874.995;  -60.575;  -80.000;  -20.000
875.242; -134.950; -540.000; -478.000
875.488; -100.950; -414.000; -439.000
875.734;  -42.775; -106.000; -234.000
875.980;  190.600; -872.000;-1032.000
876.226;  370.800; -157.000; -255.000
876.472;  -17.375;  343.000;  237.000
876.718;  -51.925;  184.000;  158.000
876.964;  -45.525;   56.000;   55.000
877.210; -148.275; -547.000; -677.000
877.456; -139.675; -630.000; -557.000
877.702; -183.900; -821.000; -832.000
877.948; -110.450; -377.000; -497.000
878.193;    9.850;  361.000;  255.000
878.439; -108.000; -487.000; -472.000
878.685; -109.300; -272.000; -343.000
878.931; -136.050; -618.000; -676.000
879.176;  -84.250; -201.000; -201.000
879.422; -168.150; -933.000; -820.000
879.668;   68.375;   10.000;   79.000
879.913;  137.800;   53.000;  137.000
880.159;  -62.950; -112.000;  -17.000
880.404;  -52.575; -152.000; -162.000
880.650;  -39.075;   91.000;  141.000
880.895; -159.450; -670.000; -710.000
881.141; -123.800; -454.000; -428.000
881.386; -147.675; -503.000; -658.000
881.631;  -86.100; -311.000; -166.000
881.877;  -40.075;  112.000;  -13.000
882.122; -142.175; -684.000; -600.000
882.367;  -86.050; -136.000; -186.000
882.612;  -66.300;  -80.000; -176.000
882.858; -167.325; -877.000; -823.000
883.103; -104.475; -297.000; -267.000
883.348; -154.850; -759.000; -852.000
883.593; -138.625; -677.000; -602.000
883.838;  -59.075; -311.000;  -24.000
884.083;   15.800;  353.000;  288.000
884.328;  -99.775; -564.000; -545.000
884.573;  -53.400; -196.000; -143.000
884.818;  182.025; -694.000; -531.000
885.063;  171.825; -348.000; -315.000
885.308;  -95.425; -475.000; -398.000
885.553;  -21.100;  245.000;  325.000
885.797; -130.325; -545.000; -615.000
886.042;  -46.875;    8.000;   58.000
886.287;  -89.675; -253.000; -211.000
886.532;  -60.875;   26.000;  204.000
886.776;  -97.525; -407.000; -525.000
887.021; -142.400; -621.000; -574.000
887.265; -145.050; -685.000; -689.000
887.510; -142.100; -557.000; -496.000
887.755;  -82.825; -194.000; -164.000
887.999; -144.775; -552.000; -575.000
888.244;  -54.975;  -58.000;  161.000
888.488;   -8.675;  371.000;  393.000
888.732; -130.275; -368.000; -520.000
888.977; -128.900; -622.000; -567.000
889.221; -159.325; -683.000; -659.000
889.465; -134.150; -422.000; -566.000
889.710;  -71.825;  -56.000; -299.000
889.954;   -8.375;  579.000;  467.000
890.198; -143.250; -584.000; -707.000
890.442; -158.500; -716.000; -712.000
890.687; -172.400; -800.000; -753.000
890.931;  -97.625; -273.000; -210.000
891.175; -135.525; -502.000; -500.000
891.419;  -90.200; -105.000; -110.000
891.663; -101.650; -239.000; -112.000
891.907; -163.400; -801.000; -545.000
892.151; -181.325; -920.000; -815.000
892.395; -112.225; -274.000; -387.000
892.638;  -25.350;  408.000;  291.000
892.882; -179.025; -780.000; -867.000
893.126;   14.900;  758.000;  558.000
893.370; -101.425; -167.000; -168.000
893.614; -146.750; -714.000; -715.000
893.857; -104.600; -183.000; -197.000
894.101; -130.225; -527.000; -631.000
894.345;  -64.725;  300.000;  150.000
894.588;    8.275;  569.000;  380.000
894.832;  -78.125; -178.000;  -84.000
895.075;  -70.550;   15.000;  -92.000
895.319; -141.150; -552.000; -420.000
895.563; -111.075; -413.000; -353.000
895.806; -156.675; -628.000; -741.000
896.049;  -67.750; -576.000; -368.000
896.293;   99.625;  527.000;  405.000
896.536;  -67.300; -465.000; -468.000
896.779;  -72.250; -149.000;   -1.000
897.023; -135.900; -751.000; -714.000
897.266;  -32.575;  325.000;  269.000
897.509; -182.550; -900.000; -901.000
897.752;  -49.675;  149.000;  171.000
897.996; -189.475; -972.000; -864.000
898.239;  -55.250;  168.000;  102.000
898.482; -128.200; -431.000; -453.000
898.725;  -37.525;  101.000;   53.000
898.968; -146.100; -609.000; -744.000
899.211; -119.650; -513.000; -361.000
899.454; -120.625; -633.000; -539.000
899.697;  -80.425;   90.000;  -43.000
899.940; -170.550; -761.000; -757.000
900.182; -118.900; -335.000; -405.000
900.425; -100.250; -150.000; -298.000
900.668;  -15.475;  491.000;  350.000
900.911; -114.475; -292.000; -345.000
901.154;  -42.975;  141.000;   -3.000
901.396; -148.375; -407.000; -412.000
901.639; -151.800; -430.000; -496.000
901.882; -192.900; -790.000; -809.000
902.124;  -88.550;  -29.000; -143.000
902.367; -109.200; -315.000; -361.000
902.609; -146.575; -476.000; -453.000
902.852;  -88.925; -108.000; -260.000
903.094; -129.775; -458.000; -337.000
903.337;  -72.575;  -26.000;   53.000
903.579; -114.200; -228.000; -441.000
903.821; -154.700; -597.000; -744.000
904.064;  -53.500;   85.000;  127.000
904.306;  -86.325; -126.000; -166.000
904.548; -103.900; -152.000; -366.000
904.790; -103.775; -195.000; -340.000
905.033; -131.475; -625.000; -577.000
905.275; -123.125; -513.000; -524.000
905.517;   36.625;  468.000;  256.000
905.759;  -62.950; -667.000; -761.000
906.001; -109.575; -322.000; -369.000
906.243;  -54.150; -162.000; -224.000
906.485;  101.175; -265.000; -207.000
906.727;  100.275; -499.000; -542.000
906.969;  -30.825;  -30.000; -135.000
907.211;  114.000; -316.000; -382.000
907.453;  259.425; -188.000; -237.000
907.695;    0.075; -158.000; -385.000
907.936;   38.475;  818.000;  706.000
908.178;  -59.450;   92.000; -135.000
908.420;  -66.625; -111.000; -162.000
908.662; -133.575; -633.000; -682.000
908.903;  -90.325; -208.000; -123.000
909.145;  -67.700; -240.000; -305.000
909.386;   -8.025;  315.000;  280.000
909.628;   42.800;  363.000;  397.000
909.870;    9.500;   29.000;  264.000
910.111;  -89.050; -809.000; -949.000
910.353;   12.300; -123.000; -161.000
910.594;    6.500; -574.000; -606.000
910.835;   78.600; -265.000; -326.000
911.077;  136.300; -503.000; -604.000
911.318;  287.750; -505.000; -471.000
911.559;  440.850; -577.000; -880.000
911.801; 1336.375; -284.000; -280.000
912.042;10400.675;  -50.000; -159.000
912.283;27058.225;  404.000;  371.000
912.524; 4168.000; -396.000; -457.000
912.765;  484.150; -193.000;   79.000
913.006;  236.175; -307.000; -338.000
913.247;   41.375; -270.000; -290.000
913.488;    0.100;  -43.000;   30.000
913.729;  -84.000; -373.000; -373.000
913.970;  -63.025;  -96.000; -292.000
914.211;  -75.925; -160.000; -198.000
914.452;  -55.900; -118.000;  -11.000
914.693;    6.950;  510.000;  592.000
914.934;   -4.450;  510.000;  440.000
915.175;  -76.350;   53.000;  -95.000
915.415;  -65.950; -137.000;   27.000
915.656;  -75.350;  -28.000;  192.000
915.897;  -95.325; -252.000;  -82.000
916.137;  -67.900;   74.000;   -9.000
916.378; -135.825; -573.000; -517.000
916.619;  -87.100; -159.000;  -63.000
916.859;  -18.625;  303.000;  330.000
917.100;  130.975; 1655.000; 1070.000
917.340;   61.050;  930.000;  728.000
917.581;   48.375;  965.000;  789.000
917.821;  -18.700; -171.000;  143.000
918.061;    8.125; -199.000;  -72.000
918.302;  -52.275; -152.000; -211.000
918.542;  -35.875;  -22.000;    3.000
918.782;   44.175;  369.000;  377.000
919.023;  119.525;  360.000;  427.000
919.263; 1760.525; 8131.000;  202.000
919.503; 1118.475; -137.000;  -54.000
919.743;  615.925;  390.000;  266.000
919.983;  249.225; -134.000;  -26.000
920.223;   79.250;  135.000;   14.000
920.463;  143.800;  631.000;  554.000
920.703;  151.175;   84.000;   39.000
920.943;  173.250; -110.000;   90.000
921.183;  242.400; -414.000; -405.000
921.423;  501.400;  307.000;  546.000
921.663;  719.550; -174.000; -257.000
921.903; 1579.125;  237.000;  173.000
922.143; 8668.200;  372.000;  389.000
922.383;33667.200;  158.000;  115.000
922.622;11388.875; -120.000;  -15.000
922.862; 1194.850;  796.000;  785.000
923.102;  468.100;  -51.000;   33.000
923.341;  178.975;   59.000;   74.000
923.581;   74.825;  450.000;  360.000
923.821;   13.025;  301.000;  398.000
924.060;    5.325;  351.000;  193.000
924.300;  -74.400;  -16.000; -128.000
924.539;  -12.825;  584.000;  473.000
924.779;   24.150;  812.000;  597.000
925.018;  -47.275;  247.000;  353.000
925.257;   -5.350;  595.000;  666.000
925.497;  -40.250;  447.000;  412.000
925.736;  -77.225;  -35.000;  102.000
925.975;   10.375;  687.000;  669.000
926.214;   17.600;  907.000;  850.000
926.454;   34.975;  706.000;  757.000
926.693;  -34.525;  419.000;  543.000
926.932;   45.125; 1021.000;  825.000
927.171;   67.775; 1107.000; 1044.000
927.410;   61.125; 1144.000;  967.000
927.649;   27.500;  924.000;  742.000
927.888;   -5.425;  590.000;  564.000
928.127;   -5.550;  680.000;  678.000
928.366;   41.825;  842.000;  826.000
928.605;   40.200;  831.000;  737.000
928.844;  242.000; 1451.000; 1393.000
929.083;  595.175;  770.000;  613.000
929.321;  323.875; 1335.000; 1359.000
929.560;   83.775; 1158.000; 1122.000
929.799;  -19.075;  574.000;  475.000
930.038;   82.775; 1025.000; 1394.000
930.276;  -42.000;  334.000;  397.000
930.515;    5.025;  827.000;  681.000
930.753;  -17.575;  614.000;  589.000
930.992;  -27.850;  664.000;  717.000
931.230;    5.450;  847.000;  847.000
931.469;  177.100; 2162.000;  892.000
931.707;   85.975;  840.000;  751.000
931.946;   55.750; 1278.000; 1344.000
932.184;   54.300; 1437.000; 1175.000
932.423;   52.050; 1265.000;  963.000
932.661;   92.925; 1296.000; 1428.000
932.899;   22.325;  987.000;  821.000
933.137;    9.225;  754.000;  564.000
933.376;  139.325; 1664.000; 1335.000
933.614;  143.700; 1759.000; 1196.000
933.852;   54.975; 1357.000; 1171.000
934.090;  133.325; 1722.000; 1747.000
934.328;  110.850; 1252.000; 1457.000
934.566;   95.750; 1431.000; 1110.000
934.804;  135.275; 1263.000; 1309.000
935.042;  470.725; 1861.000; 1850.000
935.280; 1783.950; 2088.000; 2063.000
935.518; 1714.300; 2113.000; 2007.000
935.756;  371.250; 2481.000; 2316.000
935.994;  161.225; 1808.000; 1751.000
936.231;  342.400; 2890.000; 2950.000
936.469;  192.800; 2367.000; 2378.000
936.707;  164.725; 2220.000; 2167.000
936.945;  228.100; 2825.000; 2882.000
937.182;  207.100; 2679.000; 2741.000
937.420;  298.825; 3602.000; 3031.000
937.657;  428.975; 3365.000; 3478.000
937.895;  360.200; 3331.000; 3488.000
938.133;  308.875; 3540.000; 3528.000
938.370;  347.650; 3896.000; 4191.000
938.607;  394.300; 4488.000; 4205.000
938.845;  551.350; 5587.000; 5549.000
939.082;  486.050; 5387.000; 5177.000
939.320;  547.725; 5799.000; 5728.000
939.557;  648.900; 6549.000; 6491.000
939.794;  730.350; 7285.000; 7097.000
940.031;  913.500; 8421.000; 8368.000
940.269; 1111.450; 9552.000; 9107.000
940.506; 1121.700;10901.000;10507.000

