
Integration time [ms]: 200.000
Averaging Nr. [scans]: 10
Smoothing Nr. [pixels]: 0
Data measured with spectrometer [name]: 2101013U2
Wave   ;Sample   ;Dark     ;Reference
[nm]   ;[counts] ;[counts] ;[counts] 

394.013;  151.833; -450.257; -315.536
394.305;  420.430; -461.258; -419.536
394.596; 1550.780; -676.269; -527.514
394.887; 3431.005; -796.268; -654.518
395.178; 1389.949;  145.736;   11.476
395.470;  180.965; -210.263; -356.526
395.761;  433.926;  305.734;  394.479
396.052;  776.399; -545.284; -306.489
396.343;  742.700; -557.276; -454.503
396.634;  260.955; -200.279; -290.497
396.926;  287.001; -618.268; -565.517
397.217;  311.007;   11.725;  -17.504
397.508;   99.030; -366.273; -154.507
397.799;  126.355; -555.279; -571.497
398.090;    1.847; -973.280; -902.495
398.381;  260.190;   11.708;  -11.473
398.672;   13.392; -585.292; -742.473
398.963;  110.464; -348.279; -373.498
399.254;  238.805;   54.709; -209.475
399.545;  -13.579;-1017.266; -883.520
399.836;  122.184; -407.277; -343.501
400.127;  125.156; -205.295; -209.468
400.418;  141.322; -423.274; -392.506
400.709;  193.428; -359.281; -333.493
401.000;  151.411; -268.291; -309.476
401.290;  260.164;  225.698;  115.545
401.581;  154.674; -166.286; -228.485
401.872;   65.015; -542.298; -486.462
402.163;  127.645; -313.296; -252.467
402.454;  200.506; -123.291; -163.475
402.744;  145.032; -844.297; -813.465
403.035;  847.178; -226.293;  -86.471
403.326; 1065.396; -366.292; -384.474
403.617;  709.207;  204.701;  165.539
403.907;  409.507; -593.283; -679.490
404.198; 3222.697; -545.307; -599.446
404.489; 8142.214; -618.283; -588.491
404.779; 3183.669; -618.302; -660.456
405.070;  424.438;  -67.304; -174.451
405.360;  525.780; -259.293; -238.472
405.651;  607.685;  125.699;   98.542
405.942;  418.567;  209.714;  127.516
406.232;  614.788; -432.285; -413.487
406.523; 1083.170;  641.706;  758.530
406.813;  178.670; -579.286; -644.484
407.104;  823.089;  261.708;  144.527
407.394;  486.909; -604.299; -591.462
407.685;  356.887;  336.715;  222.513
407.975;  128.812; -400.283; -382.490
408.265;  287.927; -134.289; -190.478
408.556;  133.002; -472.291; -459.475
408.846;  349.671;  474.706;  429.530
409.137;  175.039;   -1.288; -216.480
409.427;  150.988; -193.285; -271.487
409.717;   62.534; -776.273; -692.508
410.007;  292.078;    4.715; -170.486
410.298;  171.760; -360.295; -342.469
410.588;  152.184; -495.285; -510.486
410.878;   42.255; -792.287; -873.482
411.168;  196.119; -481.298; -478.463
411.459;  209.405; -295.283; -242.489
411.749;  128.699; -609.292; -507.474
412.039;   89.037; -755.289; -386.480
412.329;  424.474;   40.722;  132.501
412.619;  374.771;  -62.286; -148.485
412.909;  715.031;  639.711;  594.521
413.199;  665.447; -130.280; -251.495
413.490;  817.817;  521.710;  352.523
413.780;  219.153;-1013.279; -913.496
414.070;  555.602;  -46.276;  235.497
414.360;  619.168; -729.278; -666.498
414.650;  624.749; -726.288; -688.482
414.940;  766.952; -538.280; -441.496
415.230; 1411.845;   50.712;   74.519
415.520; 8812.179;  155.730;   66.486
415.809;32987.427; -305.281; -125.493
416.099;25848.788; -388.277; -229.501
416.389; 6636.218;  435.726;  236.494
416.679; 3955.670;   91.738;   85.473
416.969;  723.462; -527.287; -503.483
417.259;  939.955;  341.721;  171.503
417.549; 1087.926;  522.718;  318.508
417.838; 2198.704; -205.268; -147.518
418.128; 6988.125;  650.710;  492.522
418.418; 5848.644; -491.272; -579.509
418.708; 4064.819;    9.726;  -48.506
418.997;14544.413; -474.275; -480.505
419.287;15204.629; -733.273; -790.507
419.577;13867.503; -160.283; -123.489
419.866;45510.285; -588.277; -498.501
420.156;48948.273; -242.270;  -55.513
420.446; 9930.059; -112.263;  -26.526
420.735; 1536.665; -376.271; -446.512
421.025; 1577.267; 1830.722;  315.502
421.314; 1405.262; -203.271; -226.512
421.604; 3262.493;   89.732;  233.484
421.893; 1894.657; -705.271; -602.511
422.183;  405.260; -487.263; -461.526
422.472;  658.259;  -36.271; -107.511
422.762;  726.430; -416.266; -379.521
423.051;  355.802; -916.276; -916.503
423.341;  549.831; -491.273; -439.507
423.630;  690.738; -121.265;   15.477
423.919;  644.112;   58.725;   49.495
424.209;  624.968;  -31.263;   56.473
424.498;  814.800;   68.732;  161.483
424.787; 1510.709; -535.267; -601.518
425.077; 4580.136;   34.735;   29.478
425.366; 7128.476; -734.262; -744.528
425.655;12541.432;  639.727;  259.493
425.945;22561.163; -313.247; -268.554
426.234;13245.109;  117.741;  300.467
426.523; 7031.816;  -86.259; -350.534
426.812; 9679.224;  107.734;  159.480
427.101;13407.788; -127.269; -323.515
427.390;17196.779;  -55.270;  -86.514
427.680; 4930.544; -624.257; -411.538
427.969;  941.260; -330.255; -301.540
428.258;  605.532; -385.257; -477.536
428.547; 1062.749;  449.728;  397.490
428.836; 2297.484; -421.253; -398.543
429.125; 3494.719; -199.259;  -72.534
429.414; 1543.416; -330.251; -294.548
429.703; 4345.516; -231.251; -213.548
429.992;12094.422; -938.250; -828.549
430.281; 8229.049; -397.264; -331.524
430.570; 1099.703;  -21.252;   32.454
430.859; 1286.115;  279.741;  352.466
431.148; 1121.657;  636.752;  631.446
431.437;  754.902;  391.748;  367.454
431.725;  273.435; -544.257; -481.536
432.014;  170.694; -845.253; -756.545
432.303;  695.066; -149.239; -105.569
432.592; 1082.559; -460.263; -178.525
432.881; 1474.158; -601.248; -437.554
433.169; 7758.961; -343.255;  -61.540
433.458;15306.315;  445.765;  540.424
433.747; 7044.884; -397.261; -289.529
434.036; 1747.631; -275.242; -280.564
434.324; 3028.040; -395.249; -379.551
434.613; 4810.822;   40.757;  159.437
434.902; 2014.452;  333.760;  439.433
435.190; 1473.664;   75.761;  295.431
435.479;  878.795;  -52.245;   83.441
435.767;  257.207; -411.244; -427.561
436.056;  477.625; -340.242; -294.563
436.345;  602.055; -372.240; -223.568
436.633;  766.533;   60.750;  383.450
436.922;  682.058;  208.760;  414.432
437.210; 1652.501; -194.236;    1.426
437.499; 5025.512; -583.235; -432.576
437.787; 5568.300; -339.236;  -10.574
438.075; 1385.173;   56.761;  162.430
438.364; 1759.776;  -44.238;  250.429
438.652; 1088.628; -286.226; -138.592
438.941;  341.976;    3.770;  269.415
439.229;   56.499; -665.252; -466.545
439.517;  119.824; -160.234;  -85.577
439.806;   12.051; -501.225; -290.595
440.094;  446.435;  377.766;  650.421
440.382;  422.241; -653.233; -302.580
440.670;  501.012; -361.235; -285.576
440.959;  110.176; -347.223; -170.599
441.247;  189.392; -151.229; -109.587
441.535;  263.822; -266.235;   31.423
441.823;  146.931; -497.234; -305.578
442.111;  390.198;  173.771;  327.412
442.400; 1216.594; -628.245; -335.559
442.688; 3339.135; -111.234; -620.579
442.976; 2545.203; -786.213; -450.617
443.264;  264.460; -324.224; -364.597
443.552;  237.029; -258.226;   51.408
443.840;  403.120;  602.765;  876.423
444.128;  291.540;  265.767;  269.420
444.416;    8.102; -694.228; -312.588
444.704;   76.619; -465.219;  -92.605
444.992;  198.233;   -0.226;  240.407
445.280;  127.477; -517.230;  -94.585
445.568;  106.108; -694.212; -396.618
445.856;  776.596; -174.221;  357.398
446.143; 1658.913;  -54.220;   -7.604
446.431; 1433.707;  -25.228;  625.411
446.719;  545.946;  489.783;  675.391
447.007;  397.069;  481.769;  705.416
447.295;  349.671;  597.777;  871.402
447.583;  178.889; -464.229;  -34.587
447.870;  322.091; -434.221; -202.601
448.158;  889.875; -104.230;  129.415
448.446;  602.715; -800.219; -338.604
448.733;  326.562;   13.776;  269.403
449.021;  482.007;   60.788;  341.382
449.309;  337.629; -296.210;  208.379
449.596;  398.741;  128.783;   59.392
449.884;  252.882; -571.222; -325.600
450.172;  140.815; -756.227; -406.590
450.459;  653.378;  645.786;  780.387
450.747; 2803.239; -411.218; -147.608
451.034; 8545.309;  493.772;  889.411
451.322; 7194.983; -413.214; -170.614
451.609;  783.864;  292.777;  508.403
451.897;  781.520; -550.203; -183.634
452.184; 2190.572; -622.223; -400.598
452.472; 2181.760;   97.792;  269.375
452.759;  640.516;  512.781;  864.395
453.047;  257.304; -407.212; -125.617
453.334;  221.427; -732.219; -216.606
453.621;  189.886; -438.214; -161.615
453.909;  319.208;   13.796;  384.368
454.196;  263.674; -299.199; -123.641
454.483;  461.439;  317.798;  540.364
454.771;  295.764; -215.208;  196.374
455.058;  118.169; -316.207;  102.374
455.345;  232.954;   71.807;  344.347
455.632;  170.674; -128.207;  235.373
455.919;  117.307;  -82.196;  182.354
456.207;  -62.819; -774.198; -450.642
456.494;   -9.044; -475.200;  -66.639
456.781;   57.933; -399.202; -198.635
457.068;  138.783; -253.206;  -29.628
457.355;   57.185; -698.206; -401.629
457.642;   27.693; -552.205; -290.630
457.929;   50.941; -778.194; -417.651
458.216;  103.304; -575.212; -354.617
458.503;  303.348; -173.193;  -19.652
458.790;  242.561; -864.208; -630.625
459.077;  453.340;  -77.202;  110.364
459.364; 1091.431; -350.195; -210.649
459.651; 2173.080;  -46.206;  220.372
459.938;  996.347; -864.209; -665.623
460.225;  351.144;  132.799;  276.363
460.512;  -51.997; -836.197; -688.645
460.799;  258.937;  -32.218;  320.392
461.086;  233.763; -370.200; -251.640
461.372;  163.181; -509.198; -279.642
461.659;  295.809; -165.196;  108.354
461.946;  152.146; -445.193;  -54.651
462.233;  573.560;  842.800;  888.361
462.519;  505.255; -814.201; -464.639
462.806; 1315.203; -768.197; -497.645
463.093; 1156.776; -445.191;  -66.656
463.380;  -33.965; -920.186; -824.664
463.666;  167.306; -259.197;  -18.646
463.953;  173.623; -406.195; -243.648
464.239;  270.223; -173.195;  -77.648
464.526;  716.239;  413.806;  743.350
464.813;  623.392; -565.190; -304.658
465.099;  643.447;  606.807;  607.348
465.386;  714.153;  903.807;  921.348
465.672;  124.704; -694.197; -522.645
465.959;  192.418; -598.188; -520.662
466.245;  131.753; -468.193; -359.652
466.532;  248.620; -109.195;   63.352
466.818;  188.335; -357.186; -216.664
467.104;   81.893; -488.182; -415.672
467.391;    9.095; -628.189; -459.658
467.677;  149.940; -289.186;    9.335
467.964;   82.905; -682.189; -471.660
468.250;  235.444; -331.186; -160.665
468.536;  219.697;   90.811;  180.341
468.822;   -1.739; -821.184; -574.668
469.109;  360.210;  351.827;  471.311
469.395;  439.767;  729.808;  787.346
469.681;  401.101;   46.811;  156.341
469.967; 1676.608; -699.188; -382.660
470.254; 3267.820; -494.188; -306.662
470.540; 2199.307; -601.196; -476.646
470.826;  308.909; -488.181; -397.675
471.112;  472.066;  288.816;  113.331
471.398;  234.773; -253.183;  -58.670
471.684;   97.950; -626.177; -447.680
471.970;  -58.385; -918.180; -981.675
472.256;   84.166; -521.192; -441.654
472.542;  137.526; -499.171; -434.691
472.828;   86.287; -743.182; -607.672
473.114;  121.489; -380.166; -283.700
473.400;  108.874; -504.175; -293.684
473.686;  148.398; -452.166; -400.701
473.972;  195.295; -230.174; -131.687
474.258; -111.190; -925.173; -843.689
474.544;  271.138; -183.178;   -2.679
474.830;  363.676;  -65.175;   45.316
475.116;  574.595; -123.190; -196.658
475.401;  667.218; -558.180; -467.676
475.687;  248.916; -725.180; -718.676
475.973;   60.699; -673.181; -770.673
476.259;  586.480;  736.825;  764.315
476.544;  546.262; -539.176; -437.682
476.830;  929.820; -398.172; -322.690
477.116;  728.060; -430.177; -336.682
477.401;  310.817;  346.820;  358.324
477.687;  -15.226; -289.175; -405.684
477.973;   92.404;   21.819;   28.326
478.258;   11.127; -448.163; -348.706
478.544;  153.052;   21.815;   61.334
478.829;  -61.966; -818.171; -738.692
479.115;  -89.181; -749.172; -651.690
479.401;  -10.511; -444.174; -449.686
479.686;   78.616; -253.180;  -74.676
479.972;  -78.855; -886.178; -776.680
480.257;  106.691; -258.166;  -65.700
480.542;   57.239; -614.170; -469.693
480.828;  532.572; 1288.824; 1392.317
481.113;   -5.132; -464.176; -426.683
481.399;   41.862; -236.161; -202.711
481.684;  -54.910; -620.166; -462.700
481.969;   80.581; -158.159;  -73.713
482.255;  -11.445; -439.169; -285.695
482.540;   15.446; -569.178; -441.680
482.825;   20.228; -395.187; -404.663
483.110;  172.959;  -85.169; -105.696
483.396;  161.512; -840.157; -652.718
483.681;  677.495;  543.826;  730.313
483.966;  148.072; -696.160; -700.712
484.251;   62.294; -404.174; -310.687
484.536;   44.705; -356.165; -378.703
484.822;  101.298; -205.173; -218.687
485.107;  -46.133; -599.152; -502.726
485.392;  297.414;  662.836;  541.296
485.677;  196.274;  354.832;  163.302
485.962;  262.809;  160.843;  270.283
486.247;  237.439;  -14.162;   -8.707
486.532;  126.292; -178.166; -325.701
486.817;  313.154;  381.839;  431.291
487.102;  186.143; -453.154; -514.722
487.387;  690.615; -637.156; -652.718
487.672; 1229.521; -154.164;  -38.705
487.957;  827.264; -394.160; -286.711
488.241;  340.492; -290.150; -314.729
488.526;  870.570; -280.152; -148.726
488.811; 1235.349; -881.177; -818.680
489.096;  967.347; -666.154; -702.723
489.381;  619.964;    3.847;  162.275
489.666;  389.861; -428.161; -510.710
489.950;  352.851;  558.846;  627.277
490.235;  -20.416; -480.151; -458.728
490.520;  -49.340; -756.161; -723.710
490.804;  -96.182; -827.156; -736.719
491.089;   12.814; -469.149; -299.732
491.374;   60.319; -132.164;  -75.704
491.658;    3.931; -817.147; -717.735
491.943;  258.876; -657.152; -609.727
492.227;  458.537; -178.155;  -38.721
492.512;  138.508; -294.157; -341.717
492.797; -117.594; -713.149; -716.731
493.081;  -84.765; -588.147; -598.735
493.366;  -20.738; -751.161; -635.711
493.650;  434.112;  831.859;  917.254
493.935;   51.030; -648.147; -447.734
494.219;  -98.507; -778.142; -687.743
494.503;  -98.802; -585.150; -487.730
494.788;   93.796;   46.842;   74.285
495.072;  244.094;  184.850;  434.271
495.356;  209.719; -463.148; -343.733
495.641;  596.644; -812.146; -736.736
495.925;  602.225; -976.156; -903.719
496.209;  144.314; -599.149; -451.732
496.494;  -28.706; -763.142; -544.744
496.778;   71.743; -364.154; -360.722
497.062;  -96.076; -819.156; -627.719
497.346;  -86.334; -869.160; -640.711
497.631;  255.524;  580.852;  560.266
497.915;  141.860;  -64.145;  175.261
498.199;  137.012; -341.157; -277.718
498.483;  108.467; -562.152; -508.725
498.767;  302.495;  301.850;  300.271
499.051;  274.310; -126.149; -100.732
499.335;   -3.392; -693.149; -739.731
499.619;  -21.342; -381.129; -423.767
499.903;  120.135; -272.155;  -65.721
500.187;   75.953; -588.153; -316.724
500.471;    2.175; -796.152; -595.727
500.755;  207.060;   62.839;  -96.710
501.039;   73.836; -270.155; -357.721
501.323;  252.014;  -21.141;  264.254
501.607;  124.328; -447.163; -503.706
501.891;   43.414; -607.156; -512.718
502.174;  -49.124; -726.144; -585.741
502.458;  145.580;   89.849;  370.273
502.742;   58.549; -180.138; -191.751
503.026;  112.929; -412.147; -254.734
503.310;  184.780; -437.159; -375.713
503.593;  156.032; -464.147; -325.735
503.877;  198.107; -232.133; -156.760
504.161;  304.757;    2.847;  -50.724
504.444;  131.399; -841.158; -710.716
504.728;  478.418; -487.164; -522.704
505.012;  856.891; -257.150;  -76.729
505.295;  721.862; -417.161; -212.711
505.579;  610.224; -256.156; -496.719
505.862;  791.154; -555.145; -333.738
506.146;  698.583; -681.159; -758.714
506.429;  612.284;  568.841;  461.286
506.713;   82.187; -732.151; -667.728
506.996;  445.542;   90.846;  295.278
507.280;  351.111; -633.165; -474.703
507.563;  260.433; -469.155; -261.721
507.847;  117.055; -423.153; -112.724
508.130;  105.663; -665.161; -456.711
508.413;   85.284; -758.167; -577.700
508.697;  344.085; -151.167;   12.300
508.980;  192.857; -422.153; -312.724
509.263;    4.428; -466.155; -450.720
509.547;   84.690; -124.150;   82.271
509.830;  159.266; -172.160;  140.289
510.113;  209.724;  128.844;  298.281
510.396;   37.065; -530.152; -300.725
510.680;  455.556; -818.145; -812.738
510.963; 1661.849;  184.846;  180.277
511.246; 1449.701; -493.150; -357.730
511.529;  432.163; -482.145;  -83.739
511.812;  418.102; -250.134;   10.241
512.095;  232.582; -740.151; -396.728
512.378;  129.738; -317.147; -245.736
512.661;   31.460; -703.137; -623.753
512.944;    8.196; -750.142; -637.744
513.227;  127.456; -170.137; -171.752
513.510;   31.376; -479.144; -671.741
513.793;   66.621; -485.140; -435.747
514.076;  209.788;  -43.127;  -39.771
514.359;  177.115; -294.149; -135.732
514.642;  138.501; -442.142; -567.744
514.925;  978.318;  581.860;  561.253
515.208; 1016.097; -498.134; -443.758
515.491;  737.017; -276.133; -182.761
515.773;  412.481; -410.143; -337.742
516.056; 2301.669;  249.864;  409.246
516.339; 3096.075; -754.136; -652.755
516.622; 3157.198; -518.150; -488.730
516.904; 2795.591;  882.857;  975.257
517.187; 1264.854; -730.138; -523.752
517.470;  571.890; -568.143; -510.743
517.752;  456.379; -624.136; -470.756
518.035;  331.936; -708.139; -725.749
518.318;  337.875; -799.136; -744.755
518.600; 2422.622; -300.132; -325.762
518.883; 3373.700;  310.858;   88.256
519.165; 1681.643; -585.138; -426.751
519.448;  630.621;  -61.132;  -19.762
519.730;  312.899; -573.126; -415.773
520.013;  662.011;  588.867;  664.240
520.295; 1919.205;  -94.134;  -15.759
520.578; 4128.640; -335.131; -305.764
520.860; 4455.722; -254.132;   56.238
521.143; 2167.482; -763.135; -584.756
521.425;  707.518; -251.125; -279.775
521.707;  819.289; -622.127; -380.771
521.990; 2012.089; -199.127;  167.229
522.272; 2112.523; -116.140;   -4.748
522.554; 1276.382; -237.143; -157.742
522.836;  677.001;  -24.134;   99.241
523.119;  417.428; -496.148; -189.734
523.401;  220.450; -448.130; -314.766
523.683;   49.761; -865.137; -693.753
523.965;  431.051;  408.862;  260.248
524.247;  343.248;   54.878;  170.220
524.529;  257.304; -451.134; -367.759
524.812;  474.853;   -3.130;  191.234
525.094;  892.150; -773.138; -631.751
525.376; 1380.531; -143.124;   78.223
525.658;  854.171; -441.136; -339.754
525.940;   -8.164; -805.131; -671.764
526.222;  122.276; -188.136;  -88.755
526.504;  239.032; -190.131;   32.237
526.786;  457.608; -960.133; -647.760
527.068;  677.839; -124.123;  -67.778
527.349;  307.266; -865.137; -774.754
527.631;  219.821; -137.132;   22.238
527.913;  131.587; -664.127; -450.771
528.195;  126.207; -761.125; -639.774
528.477;  273.397;  -93.134;  -30.758
528.759;   95.553; -648.130; -522.766
529.040;   25.337; -569.123; -293.778
529.322;   80.511; -235.125;  -10.774
529.604;  291.556;  -47.130;   93.233
529.886;  256.899; -546.126; -302.773
530.167;  240.544;  232.870;  192.235
530.449;   99.537;    1.853;   63.265
530.731;    8.647; -572.122; -459.779
531.012;   37.077; -513.120; -216.784
531.294;   71.533; -118.116;  -43.792
531.575;  244.218;  290.875;  538.225
531.857;   35.790; -548.135; -266.757
532.138;  195.112; -113.141;   40.254
532.420;  368.484;  294.865;  403.244
532.701;  400.411; -722.133; -751.760
532.983;  694.416;  232.867;  182.239
533.264;  261.496; -243.126;  175.228
533.546;   -7.924; -491.136; -508.755
533.827;  181.206;  173.867;   -1.759
534.109;  108.590; -352.135;  -80.757
534.390;  147.427; -725.132; -582.762
534.671;  390.184; -270.135;  -82.756
534.953;  153.741; -751.123; -611.779
535.234;   25.712; -426.117; -255.789
535.515; -147.011; -891.119; -735.785
535.796;  -26.918; -431.128; -193.770
536.078; -223.670;-1050.124; -904.777
536.359;   49.442;  -22.123;    3.221
536.640;  -31.090; -480.125; -197.774
536.921;  315.364;  225.871;  143.232
537.202;  475.745;  -87.138;  -16.751
537.483;  626.240;  251.869;  377.236
537.764;  224.844;   17.870;   98.235
538.045;  -79.704; -543.134; -371.758
538.326;  -61.434; -596.129; -447.768
538.607;   -9.310; -686.127; -476.771
538.888;  231.764;   98.879;    5.218
539.169;  160.756; -704.122; -535.781
539.450;  458.962;  236.871;   16.233
539.731;  302.070; -361.121; -182.783
540.012;  189.777;  199.880;  412.216
540.293;  202.322;   82.876;  158.224
540.574;    1.163; -895.113; -717.796
540.855;  739.768;  435.879;  377.218
541.136;  716.752;   47.878;  139.220
541.416;  377.954; -161.130; -220.766
541.697;  274.233; -274.131; -170.763
541.978; 1120.587; -270.135; -315.757
542.259; 1379.190; -211.127; -236.771
542.539;  732.325; -191.116; -186.790
542.820;  326.717;  461.875;  480.225
543.101;  229.759;  -52.145;  -77.738
543.381;  -10.011; -638.127; -591.771
543.662;  397.286;  159.873; -254.771
543.942;  516.383; -751.127; -830.770
544.223; 1203.455;  193.878;  161.219
544.504;  747.230; -275.124; -182.777
544.784;  678.298; -592.126; -408.773
545.065; 1892.930;  104.884; -254.791
545.345; 2289.689;  227.881;   14.215
545.626; 1481.162;  -14.113; -108.796
545.906;  915.743;   77.869;   98.235
546.186;  370.305;   92.874;  -95.773
546.467;  224.434;   99.877;  -95.778
546.747;  417.424;  264.884;  327.210
547.027;  495.728;   91.876;  111.223
547.308;  286.282; -376.127; -530.770
547.588;  527.267;  299.871;  371.232
547.868;  307.845;  458.870;  588.235
548.149;  361.441;  609.885;  593.207
548.429;  102.087; -347.127; -299.771
548.709;  178.476; -645.120; -461.784
548.989;  506.603;   84.882;   88.213
549.269; 2197.419;   10.868;  139.239
549.550; 5002.940;  215.877;  117.222
549.830; 4434.488; -758.111; -556.799
550.110;  969.699; -468.110; -320.801
550.390;  922.347; -128.122;  -56.779
550.670; 1100.956; -868.114; -783.795
550.950;  858.667; -509.121; -471.782
551.230;  299.162;  549.879;  460.218
551.510;  -27.435; -381.121; -326.782
551.790;   55.210; -173.109; -127.803
552.070;  467.533;  940.877; 1181.223
552.350;  375.095; -492.119; -377.786
552.630;  590.758;   -2.121;   77.219
552.909;  425.931;  181.884;   73.209
553.189;  314.629;  -49.132;   33.237
553.469;  121.695; -703.119; -514.786
553.749;  163.892; -469.127; -357.772
554.029;  197.418;   33.883;  -24.790
554.308;  158.647; -154.115;  -37.794
554.588;   79.280; -196.128; -204.770
554.868;   69.468; -366.121;  -47.782
555.147;  145.043; -114.115;  -46.793
555.427;  635.034; -260.116; -250.792
555.707; 4086.340; -284.115; -200.793
555.986; 4566.093; -719.111; -538.800
556.266; 2642.222;   23.884;   72.210
556.546;   74.765; -888.121; -675.782
556.825;  232.953; -657.114; -556.794
557.105; 1819.777; -125.128;   17.230
557.384; 2070.829;  122.884;  187.209
557.664;  772.733; -717.116; -508.792
557.943;   83.367; -557.121; -411.782
558.222;  166.208; -345.118; -344.788
558.502;  352.145; -116.115;  -76.793
558.781;  634.938;  194.885;  499.208
559.061;  384.907; -232.118; -227.788
559.340;  367.314;  302.883;  353.211
559.619;  751.922;   93.884;  148.210
559.899;  994.117; -239.117; -266.789
560.178;  899.044; -778.115; -593.793
560.457; 3261.119; -623.117; -562.790
560.736; 4178.895; -472.111; -482.800
561.015; 2951.374; -500.128; -502.769
561.295;  436.939;  180.893;  215.193
561.574;  485.840;  119.885;  116.207
561.853;  602.916;  274.891;  303.197
562.132;  543.448;  -45.114;  182.206
562.411;  544.359;  396.879;  553.219
562.690;   88.738; -592.115; -458.792
562.969;  283.373;  472.888;  630.203
563.248;  941.456; 2966.878; 2487.219
563.527;  275.294; -290.111; -408.800
563.806;  372.087; -650.127; -521.771
564.085;  375.861; -297.105; -206.810
564.364;  200.222; -594.117; -405.790
564.643;  516.559; -276.121; -223.781
564.922; 1943.608;  221.890;  397.198
565.201; 1705.613; -640.109; -700.803
565.479;  783.836; -297.115; -219.792
565.758;  313.078; -810.128; -712.770
566.037;  517.515; -155.109; -100.803
566.316;  239.930; -286.116;  -28.791
566.595;   79.440;  -17.115;  -12.793
566.873;  212.797; -166.111;  -79.801
567.152; -104.628; -490.113; -590.797
567.431;   24.124; -113.116;    6.210
567.709;   38.539; -344.107; -212.807
567.988;  189.153; -810.114; -769.794
568.266;  564.240; -160.115;  -68.793
568.545;  369.829; -644.100; -514.819
568.824;  674.935;  160.885;  356.208
569.102;  470.152; -351.114; -235.794
569.381;  192.534; -492.116; -407.792
569.659;  -96.033; -553.113; -553.796
569.938;  -14.347; -743.122; -465.780
570.216;   69.918; -225.109; -225.804
570.494;  -78.943; -632.114; -572.795
570.773;   83.165;  202.879;  114.218
571.051;    6.338; -373.123; -357.778
571.330;   80.963; -221.113; -174.796
571.608;   22.255; -181.098; -173.823
571.886; -172.215; -671.111; -581.799
572.164; -140.732; -739.121; -621.782
572.443; -119.534; -562.105; -512.811
572.721;  -46.780; -399.117; -289.790
572.999;  -50.090; -280.117; -168.788
573.277;  197.157;  379.894;  620.191
573.555;  336.460;   94.894;   37.190
573.834; 1289.910;  -86.117; -114.788
574.112; 1687.543;  880.893;  811.193
574.390;  480.595; -143.111;  -96.801
574.668;   -0.926;  -91.112;  -61.797
574.946;   14.560; -165.106; -187.810
575.224;   37.613;   71.891;  -16.803
575.502;   -6.274; -200.116; -204.791
575.780; -175.925; -767.112; -829.798
576.058;  509.294; 1589.889; 1004.200
576.336;  -24.398; -210.110; -129.801
576.614;  -89.825; -511.112; -340.798
576.891;  -25.854; -711.115; -823.794
577.169;  474.930; -158.108; -285.805
577.447;  619.642;  169.893;  202.193
577.725;  417.482;  629.888;  854.201
578.003;   51.379;  -71.112; -371.798
578.280;  135.179; -208.104; -242.812
578.558;   72.945; -450.115; -422.793
578.836;  187.157; -210.114; -145.795
579.114;   30.073; -630.112; -670.797
579.391;  158.312;   -6.117;  -18.789
579.669; -120.253; -595.114; -704.794
579.947;  191.537; -326.107; -127.806
580.224;  235.737; -692.107; -524.806
580.502;  381.943;  127.893;   76.193
580.779;   80.521;  -42.117;   75.210
581.057; -130.881; -584.109; -470.804
581.334; -170.199; -726.102; -695.815
581.612;  106.661;   54.895;  511.190
581.889;  -40.380;  -83.101; -129.818
582.167;  -38.060; -298.099; -190.821
582.444; -182.588; -845.102; -814.817
582.721;  228.913;  657.899;  715.183
582.999;   43.137; -326.100; -167.821
583.276;  469.644; -812.123; -713.779
583.553;  627.805; -364.102; -294.816
583.831;  160.274; -607.104; -631.812
584.108;  148.227;  349.892;  174.195
584.385;    7.500; -122.102;  -98.815
584.662; -134.003; -651.111; -828.801
584.940;   91.296;  204.889;  204.199
585.217;  -29.734;  -73.113; -303.796
585.494;   95.509;   71.890;  118.198
585.771;  232.920; -250.109; -354.804
586.048;  541.066; -196.113;  -76.796
586.325;  279.801; -721.110; -773.801
586.602;  164.680;  230.896;  213.188
586.879;  -74.869; -499.100; -580.820
587.156;   69.563; -156.105; -331.810
587.433; -112.991; -701.102; -667.817
587.710;  145.076;  152.888;  234.202
587.987;  361.370; -264.105; -236.811
588.264;  969.979;  315.888;  387.202
588.541; 1646.683;  -61.104;   26.187
588.818; 3036.423;   72.892;  171.196
589.095; 2646.977; -163.104; -174.812
589.371;  426.617; -459.109; -414.804
589.648;  -20.557; -581.107; -437.807
589.925;   -5.942; -517.114; -621.795
590.202;  -86.124; -741.112; -607.798
590.478;  126.073; -166.105;  -73.811
590.755;  282.732; -241.108; -132.806
591.032; 2433.204; -741.110; -699.802
591.308; 3138.012; -732.094; -790.831
591.585; 1726.203; -573.110; -560.802
591.862;   28.211;-1056.102; -950.817
592.138;   33.728; -475.108; -474.805
592.415;  151.881; -486.104; -495.813
592.691; 1737.878;  460.896;  518.188
592.968; 1906.757; -208.098; -123.824
593.244;  904.524; -695.116; -595.790
593.521;  104.112; -105.102;  -42.817
593.797;  -83.751; -810.122; -720.780
594.074;  283.276; -611.096; -588.826
594.350;  872.192;  828.905;  729.172
594.626;  338.597; -303.111; -283.801
594.903;   45.112; -643.101; -645.817
595.179;  270.086;  243.896;  418.187
595.455;   24.345; -136.107; -150.807
595.731;   42.589;  -19.103;  -38.814
596.008;  -33.311; -464.111; -434.800
596.284;   11.935; -187.100; -242.820
596.560;   14.922; -501.093; -493.833
596.836;  196.965; -173.105;  -70.810
597.112;  300.230; -582.108; -437.805
597.388;  324.072;  -49.097;  -48.826
597.665;  212.370;  437.887;  530.203
597.941; -142.536; -572.089; -658.839
598.217;   30.608; -323.110; -293.802
598.493;  267.922;   61.891; -204.804
598.769;  542.727; -175.100;  -50.819
599.045;  274.434; -490.108; -562.806
599.321;   49.833; -193.100; -261.820
599.597;  114.721; -355.109; -476.804
599.872;  576.383;  409.896;  429.187
600.148;  365.975;  -61.097; -172.826
600.424;  349.341;   91.893;  202.193
600.700;  245.544; -170.107; -280.807
600.976;  130.366; -442.097; -464.825
601.252;  244.716; -226.109; -272.803
601.527;  128.685; -833.104; -840.813
601.803;  132.873; -453.105; -404.812
602.079;  230.727; -124.100; -118.819
602.354;  591.036; -620.092; -531.835
602.630;  882.066; -140.113; -482.796
602.906; 2598.420; -910.101; -863.818
603.181; 6871.195; -627.119; -534.786
603.457; 5943.671;   98.903; -278.826
603.733;  824.071; -605.120; -626.783
604.008; 1167.361; -245.106; -164.810
604.284; 3080.114; -636.101; -580.817
604.559; 2819.982;   -3.112;  -42.799
604.835;  543.765; -163.105; -225.810
605.110;  371.641; -732.099; -892.821
605.385;  814.926;  224.907;  267.167
605.661;  623.595; -625.095; -729.829
605.936; 1083.234; -664.108; -737.806
606.211;  972.898;  -17.103; -170.815
606.487;  182.651; -329.114; -376.794
606.762;  -65.605; -791.119; -745.786
607.037;  -51.435; -501.105; -433.810
607.313; -112.514; -589.096; -574.828
607.588;    4.860; -375.106; -137.810
607.863;   36.819;  -28.101; -143.818
608.138;  263.007;  513.890;  516.198
608.413;  -54.953; -576.099; -592.822
608.688;   66.229; -203.108; -267.805
608.964;  158.052; -509.106; -218.809
609.239;  252.461; -107.105; -212.810
609.514;  313.773;  281.895;  240.188
609.789;  631.679; -187.104; -716.812
610.064;  840.884; -435.096; -609.827
610.339;  821.217; -855.109; -799.804
610.614; 1070.634; -131.100; -315.820
610.889;  660.373;  215.895;  107.188
611.163;  -12.326; -407.104; -591.812
611.438;  116.152;   81.886; -167.794
611.713;  -89.285; -467.101; -499.817
611.988;   44.118; -144.101; -328.818
612.263; -121.299; -771.102; -717.815
612.538;  297.365;  385.887;  251.204
612.812;   64.136; -832.100; -911.820
613.087;  108.754; -358.098; -338.823
613.362; -122.056; -497.107; -557.807
613.637;  119.493;  261.897;  138.186
613.911;  -41.463; -256.092; -345.835
614.186;   90.642; -249.107; -292.807
614.460;  524.772; -842.081; -758.854
614.735;  748.898;  -55.087;  -17.843
615.010;  168.583;   43.912;  -82.841
615.284;  334.428;  360.892;  246.195
615.559;  262.035; -792.092; -955.835
615.833;  349.844;  -76.099;  -87.822
616.108;  -46.148; -225.090; -390.837
616.382;  205.700;  274.913;  402.156
616.656;  176.853; -241.090; -232.837
616.931;  440.045; -785.099; -700.822
617.205; 1038.585; -973.104; -979.813
617.480;  992.614;  -91.125;    6.225
617.754;  119.811; -396.125; -128.774
618.028;    3.868; -369.129; -382.768
618.302;   73.726;   73.892;  -25.805
618.577;  -80.406; -371.103; -518.815
618.851; -126.688; -399.109; -600.803
619.125;  -85.796; -335.134; -378.759
619.399;  -75.314; -244.104; -374.813
619.673;  -21.365; -330.115; -515.792
619.947;  -83.644; -333.114; -448.795
620.222;  -23.801; -198.110; -204.801
620.496;  -23.432;  -47.121;  -96.782
620.770;   42.656; -187.122;  -93.781
621.044;  280.463;  323.895;  346.190
621.318;  756.772; -653.120; -614.783
621.592;  658.369; -430.121; -409.783
621.866;  273.283; -476.112; -572.799
622.140;   -9.174; -207.116; -356.791
622.413;  122.689;  138.889;  112.200
622.687;  -74.085; -746.101; -492.817
622.961;   44.826; -130.108; -143.805
623.235; -152.410; -633.111; -661.800
623.509; -193.228; -816.105; -848.811
623.783;   21.438;  -12.107;   48.193
624.056;  -31.027; -254.120; -280.783
624.330;   87.974;   63.888;   -3.797
624.604;   91.722; -271.116; -355.790
624.877;   90.105;  180.890;   26.198
625.151;   33.049; -249.114; -238.794
625.425;  -64.112; -150.103; -283.814
625.698;  -84.613; -367.119; -374.785
625.972; -190.991; -799.110; -765.802
626.245;  198.824;  685.884;  484.210
626.519;  -88.621; -426.120; -340.784
626.792;  -50.456; -192.107; -380.807
627.066; -154.855; -485.122; -662.779
627.339; -189.897; -736.110; -663.802
627.613;   88.077;  351.880;  148.216
627.886;  143.011;  187.891; -612.803
628.160;    1.571;  312.880; -161.783
628.433; -169.882; -695.125; -703.775
628.706; -157.521; -517.120; -615.784
628.979;   64.628;  296.876;  117.223
629.253; -179.906; -785.119; -833.786
629.526;  315.996; -334.126; -253.772
629.799;  208.738; -641.123; -479.778
630.072;  107.570; -497.128; -516.769
630.346; -204.276;-1115.116;-1080.790
630.619;  395.545; -467.107; -545.808
630.892;  734.891;  709.889;  593.200
631.165;  464.085;  790.896;  679.187
631.438; -226.721;-1092.112;-1055.798
631.711;  154.743;  453.877;  257.221
631.984; -116.483; -523.117; -624.789
632.257; -114.088; -636.117; -681.789
632.530;  -95.813; -412.119; -433.785
632.803;   54.746; -109.115;    7.207
633.076; -113.067; -360.123; -422.777
633.349;   61.876;  173.872;  121.231
633.622;  -69.914; -187.119; -240.785
633.895; -191.727; -903.120; -823.783
634.167; -126.901; -496.126; -525.773
634.440;   17.733;  -19.116; -137.792
634.713;    4.192;  -22.119; -120.786
634.986;  196.562;  593.871;  453.233
635.258; -139.057; -507.115; -597.793
635.531;  263.207;  742.882; -343.788
635.804;  -48.284; -303.117; -318.789
636.077; -158.772; -830.116; -852.791
636.349;  -92.959; -586.115; -474.793
636.622;  690.895; 1695.874; 1392.228
636.894;  177.480; -474.120; -909.784
637.167;   34.086; -836.127; -789.771
637.439;   17.681; -278.128; -213.770
637.712;  -38.103; -312.126; -293.772
637.984; -181.571; -635.116; -707.791
638.257;  619.034;  515.877;  488.222
638.529;  556.520; -881.125; -924.776
638.802;  288.470; -508.128; -449.769
639.074; -221.745; -927.122; -952.781
639.346; -221.208; -942.135; -930.757
639.619;   44.498;  -79.142; -319.744
639.891;   22.246;  -83.122; -168.779
640.163; -134.052; -689.122; -756.780
640.435;   81.751;  273.878;  103.220
640.708;   34.653;  -72.122; -132.780
640.980;  -51.744; -366.122; -362.781
641.252;  284.759;  -25.121;  -71.781
641.524; 2353.761;  580.879;  573.219
641.796; 2096.764;-1094.121; -907.782
642.068;  427.867; -191.121; -300.782
642.340; -131.631; -486.121; -566.783
642.613;  114.472;  294.880;  323.217
642.885; -180.725; -787.120; -878.783
643.157; -143.623; -810.120; -658.784
643.428;  129.380;  170.880;  218.216
643.700;  -76.317; -498.120; -425.784
643.972;  -15.415;  -16.119; -133.785
644.244; -139.712; -474.119; -559.785
644.516;  -49.410; -250.119; -114.786
644.788;  179.393;  662.881;  548.214
645.060;   -2.204;  -12.119; -124.786
645.332; -156.002; -525.118; -535.787
645.603;  139.001;  479.882;  342.213
645.875;  -99.196; -334.118; -369.787
646.147;  393.406; 1487.882; 1242.212
646.418; -182.791; -931.117; -918.788
646.690;   20.812; -714.117; -715.789
646.962;   10.714; -413.117; -451.789
647.233;   40.017;   15.883;   11.211
647.505; -153.481; -595.117; -475.790
647.776;   83.722;  328.884;  229.210
648.048;   -0.075; -248.116; -418.790
648.320; -152.573; -752.116; -679.791
648.591; -252.470;-1055.116; -958.791
648.862; -122.967; -505.116; -577.792
649.134;   49.635;  115.885;  198.208
649.405; -123.062; -661.115; -618.792
649.677; -102.359; -475.115; -598.793
649.948;  -48.157; -181.115; -296.793
650.219;   42.546;  -37.115; -147.793
650.491; -129.452; -431.114; -520.794
650.762; -151.949; -705.114; -731.794
651.033; -136.046; -437.114; -424.795
651.304; -153.344; -743.114; -728.795
651.576; -141.341; -680.114; -645.795
651.847;  -32.938; -250.113; -140.796
652.118;  -18.136;  -32.113; -189.796
652.389; -183.533; -639.113; -722.796
652.660;   -3.730; -147.113;  -89.797
652.931; -235.828; -897.112; -871.797
653.202; -150.325; -382.112; -541.798
653.473;  -91.622; -633.112; -533.798
653.744;   94.880; -595.112; -590.798
654.015;  120.583; -356.112; -303.799
654.286; -144.215; -642.111; -663.799
654.557; -111.712; -586.111; -521.799
654.828; -290.209;-1114.111;-1088.800
655.099; -101.507; -404.111; -291.800
655.370; -155.504; -427.111; -543.801
655.641; -151.501; -656.110; -714.801
655.911; -164.099; -618.110; -638.801
656.182;  221.504;  437.890;  387.198
656.453;  279.207;  830.890;  746.198
656.724;  -67.891; -466.110; -426.802
656.994; -111.288; -553.109; -568.803
657.265; -212.786; -862.109; -873.803
657.536; -137.683; -500.109; -377.804
657.806; -161.980; -561.109; -593.804
658.077; -245.678; -866.109; -950.804
658.347; -116.075; -523.108; -598.805
658.618; -194.472; -646.108; -694.805
658.888;    1.630;  -41.108;  112.195
659.159; -127.467; -432.108; -548.806
659.429;  -56.964; -292.108; -349.806
659.700;  -37.162; -435.107; -390.807
659.970;  -32.759; -370.107; -359.807
660.241;  -39.257; -754.107; -921.807
660.511;  540.346; -147.107; -174.808
660.781;   13.549; -793.106; -748.808
661.052;  -50.549; -222.106; -381.808
661.322;    2.954;   21.894;   -9.809
661.592;   81.057;  257.894;  148.191
661.862; -125.641; -369.106; -382.810
662.133; -159.438; -551.105; -502.810
662.403; -213.935; -770.105; -676.810
662.673;  -70.633; -256.105; -213.811
662.943; -187.630; -612.105; -551.811
663.213;    6.973;  -85.105;  -81.811
663.483; -158.625; -593.104; -568.812
663.753;  -54.322; -194.104; -152.812
664.023;    7.080;   68.896;  -32.813
664.293;  -70.817; -319.104; -126.813
664.563; -188.314; -694.104; -648.813
664.833; -202.912; -743.103; -608.814
665.103; -207.609; -730.103; -793.814
665.373; -200.506; -766.103; -806.814
665.643; -200.204; -863.103; -918.815
665.913;  -31.501; -534.103; -714.815
666.182;   89.902; -685.102; -719.816
666.452;  298.704;  -22.102;  -89.816
666.722; -121.693; -724.102; -784.816
666.992; -225.891; -948.102; -921.817
667.261; -185.388; -824.102; -808.817
667.531;  363.715;  134.899;   45.183
667.801;  681.317; -440.101; -412.818
668.070;  462.220;  714.899;  697.182
668.340; -187.777; -883.101; -840.819
668.609;  211.625;  588.900;  301.181
668.879; -158.172; -490.100; -558.819
669.149; -122.669; -539.100; -516.820
669.418; -176.367; -698.100; -726.820
669.688;  -41.264; -482.100; -666.820
669.957;   16.339; -423.099; -546.821
670.226;  -49.559; -268.099; -331.821
670.496; -185.556; -431.099; -635.822
670.765; -122.354; -418.099; -501.822
671.034; -258.551; -872.099; -828.822
671.304;   -8.748;   55.902; -111.823
671.573; -276.046;-1085.098; -957.823
671.842;   51.757; -380.098; -294.823
672.112;  -44.140; -692.098; -586.824
672.381;  -41.038; -239.098; -214.824
672.650; -265.335;-1005.097;-1021.825
672.919; -142.732; -631.097; -507.825
673.188; -205.830; -681.097; -878.825
673.457; -289.527;-1101.097;-1143.826
673.726; -152.325; -579.096; -646.826
673.995;  -79.122; -533.096; -479.826
674.265;  -62.619; -263.096; -333.827
674.534;  -17.817; -183.096; -235.827
674.802;  -67.914; -618.096; -703.828
675.071; 1065.389; -886.095; -801.828
675.340; 3936.091; -464.095; -339.828
675.609; 1363.394;  103.905;   82.171
675.878;  -17.503; -949.095; -893.829
676.147;   63.899;  -26.095;   -8.829
676.416;   61.802; -210.094; -294.830
676.685;  913.204; 1000.906; -622.830
676.953;   54.307; -603.094; -452.831
677.222;  -25.890; -193.094; -273.831
677.491;  -21.188;  -24.094; -127.831
677.759;   22.215;   11.907;  172.168
678.028;  -28.882; -279.093; -222.832
678.297;   22.320;   71.907;  197.168
678.565; -238.977; -898.093; -944.833
678.834;  -66.074; -311.093; -268.833
679.102; -130.872; -411.092; -391.834
679.371; -243.269; -898.092; -727.834
679.639; -251.466; -797.092; -786.834
679.908; -214.364; -794.092; -724.835
680.176; -284.761; -895.091; -941.835
680.445;  -95.959; -346.091; -352.835
680.713;  -26.856;  -58.091;  -23.836
680.982; -156.253; -523.091; -525.836
681.250; -211.351; -578.091; -507.837
681.518; -175.548; -534.090; -751.837
681.787;  -66.545; -204.090; -167.837
682.055; -110.043; -490.090; -422.838
682.323; -284.040; -993.090; -992.838
682.591;   42.263; -216.090; -538.838
682.859;   61.365;    9.911;  -35.839
683.128;   42.268;  232.911;  497.161
683.396; -316.630;-1102.089;-1122.840
683.664;  -45.727; -241.089;   21.160
683.932;   31.376;  144.911;  -76.840
684.200; -142.722; -576.088; -320.841
684.468;   -4.619;  -73.088; -124.841
684.736;  -13.616; -214.088; -175.841
685.004; -249.614;-1024.088; -982.842
685.272; -148.511; -880.088; -774.842
685.540; -108.808; -499.087; -557.843
685.808; -135.306; -651.087; -682.843
686.076; -200.703; -894.087; -969.843
686.343; -123.901; -601.087; -815.844
686.611;   49.302; -195.087; -224.844
686.879;  511.705; -530.086; -553.844
687.147; 3298.007; -483.086; -480.845
687.414;  957.910;  -12.086; -169.845
687.682;  -82.287; -658.086; -757.846
687.950;  356.515;  259.915;  263.154
688.217;  -85.482; -792.085; -760.846
688.485;  -49.379; -632.085; -636.847
688.753;  532.023;  -11.085; -102.847
689.020;   59.126; -820.085; -851.847
689.288; -198.871; -853.084; -787.848
689.555;  -22.269; -195.084; -148.848
689.823;  -59.666; -241.084; -345.849
690.090; -131.664; -546.084; -651.849
690.358; -263.661; -877.084; -897.849
690.625;   64.242;  120.917;   45.150
690.892; -155.456; -403.083; -369.850
691.160;    7.147;   72.917;  -35.850
691.427;   64.850;  141.917;  130.149
691.694; -206.248; -855.083; -929.851
691.962; -278.545;-1177.082;-1060.852
692.229;   87.358;  127.918;   56.148
692.496;  122.060;  130.918;  -49.852
692.763;   38.063; -164.082; -201.853
693.031; -155.035; -739.082; -716.853
693.298;  -77.132; -509.081; -368.853
693.565;  387.271; -155.081; -163.854
693.832; 1302.773;   -5.081;   -9.854
694.099;   97.476; -643.081; -642.855
694.366; -134.221; -882.081; -896.855
694.633; -153.819; -920.080; -633.855
694.900; 1575.084; 4367.920; -114.856
695.167;  515.387; -214.080; -380.856
695.434;  107.389; -646.080; -623.856
695.701;  353.692;  121.921;  -61.857
695.968;  539.694; -365.079; -361.857
696.234; 1654.497; -415.079; -646.858
696.501;16143.400; -776.079; -614.858
696.768; 7832.102; -554.079; -617.858
697.035;  498.505; -632.078; -667.859
697.302;   54.908; -448.078; -552.859
697.568;   51.910; -458.078; -497.859
697.835;  -31.187; -683.078; -624.860
698.102;    7.416; -498.078; -407.860
698.368;  199.818;  384.923;  396.139
698.635;    9.121;  -47.077; -424.861
698.901;   -4.676; -240.077; -348.861
699.168;   64.526; -534.077; -456.862
699.435;  103.529;  -72.077;  -13.862
699.701; -187.869; -868.076; -764.862
699.968;  -57.466;  144.924; -441.863
700.234; -163.163; -783.076; -822.863
700.500;  -84.461; -448.076; -539.864
700.767;   51.342;   -1.075;   26.136
701.033; -228.455;-1015.075; -963.864
701.299;  -68.853; -450.075; -483.865
701.566;  268.750;  950.925;  763.135
701.832;   94.653;  -31.075;  -76.865
702.098; -177.745;-1054.074;-1034.866
702.365; -160.142;-1098.074;-1030.866
702.631; -108.840;-1038.074;-1063.867
702.897; 1715.363; -765.074; -676.867
703.163; 2641.466;  348.926;  254.133
703.429;  207.968; -256.073; -273.868
703.695;  -82.529; -796.073; -792.868
703.961;   72.274; -214.073; -210.868
704.227; -118.724; -630.073; -725.869
704.493;  302.079;  613.927;  510.131
704.759;  -46.118; -565.072; -540.870
705.025;  109.084; -203.072; -194.870
705.291;    4.987; -666.072; -562.870
705.557;  436.390;  719.928;   34.129
705.823;   66.992; -742.072; -694.871
706.089;  268.495; -307.071; -326.871
706.355;  716.197; -315.071; -244.872
706.620;10193.400; -776.071; -729.872
706.886;11928.103; -309.071; -362.873
707.152; 1011.205; -818.070; -973.873
707.418;  -58.392;-1153.070;-1186.873
707.683;   29.311; -550.070; -530.874
707.949;  -51.087; -547.070; -578.874
708.215;   44.516; -129.070; -207.874
708.480;  -32.881; -520.069; -420.875
708.746;  181.721;   68.931;   28.125
709.011; -133.976; -578.069; -612.876
709.277;  -92.174; -538.069; -543.876
709.542;  -70.671; -428.069; -387.876
709.808;   64.232;  -59.068;   89.123
710.073; -112.866; -577.068; -695.877
710.339;  -30.563; -242.068; -228.877
710.604;   29.440; -780.068; -845.878
710.869;  375.042; -277.068; -366.878
711.135; -130.855; -715.067; -628.879
711.400; -103.652; -507.067; -608.879
711.665;  -84.650; -404.067; -479.879
711.931; -148.647; -661.067; -677.880
712.196; -229.945; -876.067; -954.880
712.461;  135.258; -402.066; -490.880
712.726;   38.861; -727.066; -771.881
712.991; -151.137; -647.066; -664.881
713.256;  -56.534; -350.066; -332.882
713.521;  -61.731; -417.065; -381.882
713.787;  -78.429; -454.065; -472.882
714.052;  -30.626; -214.065; -400.883
714.317; -173.123;-1045.065; -981.883
714.581; 1853.479; -374.065; -268.883
714.846; 2145.582; -822.064; -888.884
715.111;  279.985;  261.936;  257.116
715.376;   -6.313;  -86.064; -223.885
715.641;   -5.510; -365.064; -367.885
715.906;  312.792;   15.936; -551.885
716.171;  248.795;  221.937;  209.114
716.436;   74.698;  -78.063; -104.886
716.700; -178.200; -818.063; -692.886
716.965; -221.997; -794.063; -807.887
717.230;  -85.794; -339.063; -392.887
717.494;  -36.392;  -40.062; -134.888
717.759; -155.289; -784.062; -640.888
718.024;   80.614;  269.938;  250.112
718.288;  231.616;  685.938;  395.111
718.553; -254.381; -803.062; -977.889
718.817; -245.879; -883.061; -899.889
719.082;  -53.676; -115.061; -125.890
719.346; -218.073;-1000.061; -947.890
719.611;  -31.971; -300.061; -255.891
719.875; -164.568; -568.060; -537.891
720.140; -106.265; -453.060; -603.891
720.404;   90.237; -136.060; -249.892
720.668;  898.140; -475.060; -411.892
720.933;  382.243;  146.940;  137.108
721.197; -161.655; -667.059; -600.893
721.461; -216.752; -851.059; -826.893
721.725;   29.150;  -21.059; -250.894
721.990;  -48.147; -284.059; -204.894
722.254;  -17.444;  -26.059; -108.894
722.518;  -73.842; -286.058; -442.895
722.782; -161.639; -743.058; -594.895
723.046;  260.464;  614.942;  570.105
723.310;  129.566;  374.942;  210.104
723.574; -146.731; -654.058; -614.896
723.838; -186.228; -576.057; -642.897
724.102;  -23.626; -226.057; -239.897
724.366; -251.323;-1032.057; -978.897
724.630; -151.520; -749.057; -571.898
724.894; -124.318; -722.057; -514.898
725.158;   28.685;   38.944; -295.898
725.422;  -78.713; -394.056; -327.899
725.685; -108.310; -441.056; -349.899
725.949; -146.607; -566.056; -519.900
726.213; -115.605; -732.056; -811.900
726.477;   79.498;-1020.055; -933.900
726.740;  204.301; -274.055; -104.901
727.004;  536.703; -384.055; -510.901
727.268; 5200.506; -442.055; -400.901
727.531; 1269.709; -961.055; -775.902
727.795;  -51.889; -713.054; -673.902
728.059;  -81.286; -552.054; -557.903
728.322; -124.584; -841.054; -669.903
728.586;  -36.481; -692.054; -701.903
728.849; -148.878; -695.053; -756.904
729.112; -200.776; -812.053; -912.904
729.376; -202.873; -959.053; -905.904
729.639; -122.070; -536.053; -536.905
729.903; -139.168; -733.053; -699.905
730.166;  -23.965; -437.052; -399.906
730.429;  -53.862; -317.052; -468.906
730.693; -110.260; -355.052; -894.906
730.956;  424.843;  810.948;  651.093
731.219;  783.245; -310.052; -103.907
731.482;   90.248;-1003.051; -894.907
731.745;   11.551; -794.051; -935.908
732.009;   79.553;  -30.051;   50.092
732.272; -162.944; -904.051; -771.909
732.535;  -16.641; -300.051; -310.909
732.798; -298.039;-1083.050;-1166.909
733.061;  -81.736; -430.050; -456.910
733.324;   34.067;   31.950; -180.910
733.587;  179.869;  290.950;  365.090
733.850; -116.128; -973.049;-1050.911
734.113;   95.575;   33.951;   32.089
734.376;  -12.923; -328.049; -447.912
734.639;  460.280; 1188.951; 1011.088
734.901;  151.882; -180.049; -402.912
735.164;  569.885; -883.048; -837.913
735.427; 1394.888; -166.048; -355.913
735.690;  186.890; -205.048; -234.913
735.952;  -76.807; -923.048; -925.914
736.215;  -88.104;-1113.048;-1009.914
736.478;   22.798; -771.047; -774.915
736.740;  354.501;   33.953;  129.085
737.003;  888.004; -658.047; -672.915
737.266; 4520.006;  -94.047;   46.084
737.528;  507.409; -682.047; -660.916
737.791;  436.411; -316.046; -327.916
738.053; 1330.314;  465.954;  649.083
738.316;16386.717; -162.046; -136.917
738.578;10014.319; -770.046; -736.918
738.841;  613.922; -382.046; -446.918
739.103;  237.225; -875.045; -777.918
739.365;  679.027;   79.955;  -69.919
739.628;  -58.870; -884.045; -805.919
739.890;  -26.967; -758.045; -710.919
740.152;  -64.665; -692.044; -754.920
740.414;   31.538; -408.044; -359.920
740.677;  -71.759; -785.044; -634.921
740.939;  -76.457; -587.044; -487.921
741.201;  250.146; -432.044; -572.921
741.463;   -1.052; -689.043; -745.922
741.725;   55.251;  -21.043; -199.922
741.987;  116.554;  220.957;  116.078
742.249;  -62.344; -751.043; -859.923
742.511;  186.659; -703.043; -794.923
742.773;  -44.338; -546.042; -546.924
743.035;  250.364;  796.958;  533.076
743.297; -144.133; -963.042;-1013.924
743.559;  901.570; -278.042; -262.925
743.821;   32.072; -735.042; -744.925
744.083;   74.275;  -44.041; -149.925
744.345; -161.323; -869.041; -892.926
744.607;  125.580;   75.959;  122.074
744.868;  -66.317; -490.041; -554.927
745.130; -202.515; -994.041;-1008.927
745.392;  129.388;   -1.040;  -44.927
745.653;   13.991; -411.040; -378.928
745.915;  336.493;  896.960;  631.072
746.177;  138.596;   35.960;  -43.928
746.438;  -41.801; -428.040; -543.929
746.700; -126.799; -947.039; -988.929
746.961;  -14.796; -659.039; -740.930
747.223;  211.306; -190.039;  -74.930
747.484;  101.309; -391.039; -471.930
747.746;  217.012;  -23.038; -106.931
748.007;  122.714; -647.038; -689.931
748.269;  417.617; -468.038; -440.931
748.530;  520.920; -852.038; -638.932
748.791;  357.722; -354.038; -420.932
749.053;  677.425;  286.963;  163.067
749.314;  635.728; -236.037; -169.933
749.575;  615.930; -945.037; -905.933
749.836; 1174.433; -217.037;   86.066
750.098; 3710.136;  -60.037;  -21.934
750.359;46224.938;  414.964;  555.066
750.620;10636.241; -121.036; -220.935
750.881; 1362.643; -585.036; -513.935
751.142; 1892.446; -950.036; -938.936
751.403;25037.549; -789.036; -705.936
751.664; 9592.451;-1034.035; -999.936
751.925;  743.854; -175.035; -262.937
752.186;  423.457; -298.035; -278.937
752.447;  221.559; -590.035; -445.937
752.708;   23.462; -532.035; -648.938
752.969;  -13.235; -566.034; -576.938
753.230;   -1.633; -777.034; -672.939
753.491;   -9.530; -650.034; -631.939
753.751;  163.872;  109.966;   19.061
754.012;  200.775;  258.967;  181.060
754.273;   98.178; -174.033;  -71.940
754.534;    8.880; -487.033; -580.940
754.794; -165.117; -926.033; -911.941
755.055;  344.486; 1051.967;  881.059
755.316;  -91.312; -700.032; -566.942
755.576;  -30.309; -606.032; -576.942
755.837;  -85.106; -527.032; -695.942
756.097;  -36.504; -530.032; -564.943
756.358; -143.301; -725.032; -770.943
756.618;  -49.999; -705.031; -641.943
756.879;   14.204; -254.031; -349.944
757.139; -210.393;-1098.031;-1116.944
757.400;  -97.091; -538.031; -553.945
757.660;   -9.888; -365.031; -401.945
757.920;   18.815; -266.030; -228.945
758.181;  -24.783; -468.030; -351.946
758.441; -160.280; -870.030; -809.946
758.701;   -7.777; -308.030; -215.946
758.961;  -33.675; -220.030; -278.947
759.222;  -25.072; -574.029; -502.947
759.482; -124.569; -683.029; -723.948
759.742; -107.067; -706.029; -547.948
760.002;   58.636;  -83.029; -143.948
760.262;  107.538;   50.972;  182.051
760.522;  -53.959; -498.028; -574.949
760.782;  -57.956; -738.028; -612.949
761.042;  -41.054; -618.028; -573.950
761.302;  119.749;   55.972;  -18.950
761.562;  141.952; -164.027; -154.951
761.822;  115.954; -710.027; -551.951
762.082; -122.043;-1104.027;-1093.951
762.342;  119.460; -328.027; -403.952
762.601;  147.862; -567.027; -506.952
762.861;  534.665; -281.026; -207.952
763.121;  749.867; -406.026; -411.953
763.381;13070.270; -499.026; -485.953
763.640;12160.573; -139.026; -307.954
763.900;  655.875; -242.026; -203.954
764.160;  165.978; -458.025; -491.954
764.419;   14.781; -726.025; -782.955
764.679;  -94.717; -795.025; -726.955
764.939;   16.586; -124.025; -210.955
765.198; -112.811; -608.025; -563.956
765.458; -149.009; -710.024; -612.956
765.717; -126.106; -454.024; -590.957
765.976;  -44.103; -428.024; -411.957
766.236; -135.101; -475.024; -610.957
766.495;  130.402;  260.977;   73.042
766.755; -206.596;-1090.023; -987.958
767.014;  -24.493; -594.023; -665.958
767.273;  -59.690; -373.023; -397.959
767.533;  -13.388; -228.023; -307.959
767.792;    7.415; -151.022; -188.960
768.051;  -30.082; -228.022; -276.960
768.310; -107.480; -546.022; -650.960
768.569;   55.123; -161.022;    4.039
768.828;  -13.174; -285.022; -363.961
769.088; -185.172;-1050.021; -942.961
769.347; -104.869; -755.021; -599.962
769.606; -114.367; -876.021; -857.962
769.865; -203.664;-1016.021;-1033.963
770.124;   71.239; -411.021; -336.963
770.383;  -99.359; -778.020; -910.963
770.641;    9.244; -398.020; -400.964
770.900;  -95.153; -953.020; -846.964
771.159;  -42.651; -851.020; -951.964
771.418;   -7.048; -917.020; -779.965
771.677;  305.755; -224.019; -293.965
771.936;  286.357; -794.019; -865.966
772.194; 5007.360; -465.019; -437.966
772.453;18274.162; -213.019; -391.966
772.712; 1363.265;  416.982;  329.033
772.970;  306.168;   32.982;   63.033
773.229;  240.870;  -22.018;  102.033
773.488; -174.627; -814.018; -770.968
773.746;  165.276;  296.982;  335.032
774.005;   73.178;  190.983;  -22.969
774.263;  111.981;  243.983;  177.031
774.522; -120.416; -422.017; -548.969
774.780;  -74.614; -484.017; -417.970
775.039; -153.911; -551.017; -531.970
775.297;   10.092; -135.016; -351.970
775.555; -167.406; -489.016; -612.971
775.814; -176.403; -618.016; -570.971
776.072; -219.301; -749.016; -740.971
776.330; -106.198; -630.016; -520.972
776.589; -191.695; -703.015; -721.972
776.847; -194.793; -645.015; -624.973
777.105; -290.990;-1016.015;-1032.973
777.363;  -83.387; -459.015; -454.973
777.621; -195.285; -660.015; -717.974
777.879;   48.118;  -42.014;   32.026
778.138; -167.279; -554.014; -717.974
778.396; -133.377; -585.014; -526.975
778.654; -276.874;-1015.014; -970.975
778.912;  -72.372; -269.014; -371.976
779.170; -205.369; -880.013; -803.976
779.427; -223.566; -922.013; -897.976
779.685; -240.964; -880.013; -832.977
779.943; -109.061; -654.013; -593.977
780.201; -278.958; -964.012; -883.978
780.459; -151.856; -651.012; -610.978
780.717; -115.353; -440.012; -390.978
780.974; -133.150; -449.012; -490.979
781.232; -110.848; -358.012; -338.979
781.490; -121.545; -551.011; -472.979
781.747; -143.243; -555.011; -476.980
782.005;  114.360;  462.989;  254.020
782.263; -296.937; -542.011;-1004.981
782.520;  -87.735; -326.011; -501.981
782.778; -271.832;-1013.010;-1051.981
783.035; -263.129; -962.010; -938.982
783.293;  -52.327; -248.010; -206.982
783.550;  -34.924; -134.010; -198.982
783.808; -214.321; -764.010; -776.983
784.065; -241.119; -745.009; -874.983
784.322;  -47.816;   25.991;  -86.984
784.580; -201.913; -915.009; -771.984
784.837; -128.211; -392.009; -466.984
785.094; -208.708; -783.009; -762.985
785.352;  -78.606; -304.008; -404.985
785.609; -214.303; -934.008; -839.985
785.866; -100.200; -345.008; -401.986
786.123; -109.498; -639.008; -583.986
786.380; -164.495; -665.008; -604.987
786.637;  -44.392; -225.007; -380.987
786.895;  -80.190; -456.007; -543.987
787.152;   -5.987; -135.007; -267.988
787.409;  -35.084; -123.007; -225.988
787.666;  -69.582; -299.006; -378.988
787.923; -169.379; -616.006; -695.989
788.179; -170.477; -551.006; -584.989
788.436; -151.374; -585.006; -585.990
788.693;   27.829;  -92.006;  -87.990
788.950;  234.031; -125.005; -112.990
789.207;  200.134; -381.005; -372.991
789.464;  -44.563; -161.005; -301.991
789.720;   57.439;  150.995;  110.009
789.977; -301.458;-1003.005; -671.992
790.234;   25.445;   44.996;  -66.992
790.490; -232.853; -884.004;-1031.993
790.747;   27.350;  -85.004;   22.007
791.004;   -2.048; -426.004; -348.993
791.260; -104.245; -430.004; -560.994
791.517; -173.842; -843.003; -788.994
791.773;  -75.040; -379.003; -342.994
792.030; -157.337; -596.003; -660.995
792.286; -132.534; -686.003; -636.995
792.543;  -17.832;  -74.002; -159.995
792.799;  -35.629; -584.002; -382.996
793.055; -281.226;-1179.002;-1210.996
793.312;  -95.724; -827.002; -816.997
793.568; -126.721; -746.002; -599.997
793.824;   68.082; -226.001; -284.997
794.081;   44.684; -447.001; -508.998
794.337;  130.687; -664.001; -561.998
794.593; 2535.189; -319.001; -271.999
794.849; 9609.192; -746.001; -772.999
795.105;  497.495; -270.000; -261.999
795.361;   54.497; -490.000; -457.000
795.617; -126.900; -875.000; -945.000
795.873;  -28.700; -360.000; -407.000
796.129;  -22.600; -368.000; -306.000
796.385;   10.900; -124.000; -156.000
796.641;  207.000;  412.000;  550.000
796.897; -103.500; -666.000; -635.000
797.153;  190.500;  453.000;  357.000
797.409; -133.100; -785.000; -868.000
797.665; -113.600; -625.000; -732.000
797.921; -127.600; -775.000; -762.000
798.176; -101.900; -744.000; -747.000
798.432;  -61.200; -824.000; -596.000
798.688; -141.000;-1174.000;-1078.000
798.943;  190.400; -165.000; -147.000
799.199;  -45.600;-1005.000; -959.000
799.455;  505.000;  369.000;  316.000
799.710;  188.900; -813.000; -380.000
799.966;  527.500; -162.000; -160.000
800.221;  794.600; -638.000; -721.000
800.477;17275.600; -743.000; -710.000
800.732;12087.300; -773.000; -800.000
800.988; 1125.000;  205.000;  -19.000
801.243; 4650.600; -454.000; -344.000
801.498;15734.300; -814.000; -739.000
801.754;  915.000; -289.000; -163.000
802.009;  258.500; -257.000; -335.000
802.264;  -65.400; -967.000;-1033.000
802.520;  126.200;  222.000;   -3.000
802.775;  -20.700; -524.000; -359.000
803.030;  208.800;  395.000;  356.000
803.285; -162.200; -840.000; -903.000
803.540;  -52.600; -686.000; -699.000
803.795;  -78.100; -648.000; -583.000
804.051;   27.300; -279.000; -346.000
804.306;   64.700;  168.000;  128.000
804.561;  274.400;  451.000;  362.000
804.816;  322.100;  714.000;  861.000
805.071;   45.700; -185.000; -280.000
805.325;  218.400; -257.000; -427.000
805.580; -155.000; -841.000; -877.000
805.835;  -13.100; -204.000; -297.000
806.090;  -86.200; -760.000; -676.000
806.345;  -11.900; -344.000; -264.000
806.600;  -35.500; -549.000; -632.000
806.854;  -14.300; -408.000; -538.000
807.109;   -9.900; -493.000; -577.000
807.364;   46.300; -407.000; -328.000
807.618;   51.800; -415.000; -381.000
807.873;   59.600; -470.000; -494.000
808.128;  179.100; -257.000; -518.000
808.382;  158.500; -224.000; -332.000
808.637;  133.700; -440.000; -511.000
808.891;  323.100; -257.000; -180.000
809.146;  153.000; -902.000; -794.000
809.400;  375.800; -848.000; -923.000
809.654;  461.800; -779.000; -551.000
809.909;  711.000; -841.000; -927.000
810.163;10608.000; -813.000; -651.000
810.418;21671.900; -940.000; -861.000
810.672; 1441.700; -685.000; -690.000
810.926; 1126.700; -993.000; -973.000
811.180; 2533.400; -439.000; -372.000
811.434;54457.700;  240.000;  135.000
811.689;17205.500; -231.000; -365.000
811.943;  931.400; -936.000; -953.000
812.197;  569.300; -893.000; -671.000
812.451;  237.000; -379.000; -514.000
812.705;  -10.900; -809.000; -619.000
812.959;  -78.300; -263.000; -388.000
813.213;   53.800; -283.000; -209.000
813.467;  211.200;  470.000;  253.000
813.721; -143.700; -764.000; -792.000
813.975; -158.600; -826.000; -877.000
814.229;  179.800;  430.000;  353.000
814.482;  -98.700; -517.000; -566.000
814.736; -171.400; -766.000; -744.000
814.990; -225.800; -779.000; -872.000
815.244;  -28.000; -228.000; -285.000
815.497; -137.500; -636.000; -601.000
815.751;   63.100; -141.000;   82.000
816.005; -131.600; -470.000; -586.000
816.258;  -61.000; -510.000; -363.000
816.512; -161.800; -693.000; -610.000
816.766;   72.400;  121.000;  157.000
817.019;  133.900;  148.000;  149.000
817.273; -162.100;-1000.000; -802.000
817.526;   -5.300; -206.000; -173.000
817.779; -139.700;-1049.000; -960.000
818.033; -173.200; -693.000; -807.000
818.286; -180.400; -725.000; -792.000
818.540; -140.900; -403.000; -403.000
818.793; -104.700; -402.000; -489.000
819.046; -171.600; -582.000; -520.000
819.299;    7.700; -157.000; -166.000
819.553; -132.900; -552.000; -592.000
819.806; -262.100;-1016.000; -838.000
820.059;  -53.900; -334.000; -354.000
820.312;   82.300;  152.000;  185.000
820.565;   32.500;  110.000;  -27.000
820.818;   -6.000;  -59.000; -173.000
821.071; -277.400;-1041.000; -957.000
821.324; -146.800; -536.000; -540.000
821.577; -154.900; -457.000; -483.000
821.830;  -72.600; -270.000; -172.000
822.083; -207.000; -733.000; -288.000
822.336;    6.500; -261.000; -167.000
822.589; -216.200; -805.000; -688.000
822.842; -210.400; -875.000; -770.000
823.094; -290.000;-1076.000;-1114.000
823.347; -223.100; -925.000; -729.000
823.600;  103.000;  402.000;  187.000
823.853;  -33.400; -311.000; -267.000
824.105;  -88.500; -331.000; -575.000
824.358; -176.800; -617.000; -716.000
824.611;   91.700;  234.000;   40.000
824.863;  -41.100; -612.000; -591.000
825.116;  118.700;  -33.000;   27.000
825.368;  126.400; -366.000; -372.000
825.621;  242.100; -186.000; -240.000
825.873;  121.500; -704.000; -737.000
826.126; 1086.500; -669.000; -641.000
826.378;18283.800; -389.000; -505.000
826.630; 3332.400; -890.000; -898.000
826.883;   73.400; -754.000; -693.000
827.135;   80.000; -279.000; -270.000
827.387; -195.100; -893.000; -839.000
827.639;   -9.700;  -86.000;   32.000
827.892; -173.700; -742.000; -582.000
828.144; -214.500; -848.000; -804.000
828.396;   -9.900;  104.000;  -80.000
828.648; -122.600; -440.000; -333.000
828.900; -227.000; -702.000; -795.000
829.152; -194.300; -684.000; -683.000
829.404;  -50.500; -215.000; -267.000
829.656;   34.500;  321.000;  214.000
829.908;   51.700;  393.000;  229.000
830.160; -281.600;-1064.000;-1047.000
830.412; -100.900; -481.000; -430.000
830.664; -202.600; -557.000; -665.000
830.916;  -60.800; -268.000; -206.000
831.167; -285.300;-1073.000; -951.000
831.419; -147.300; -623.000; -566.000
831.671; -245.200; -764.000; -809.000
831.923;  -94.400; -311.000; -447.000
832.174;  -95.800; -273.000; -331.000
832.426; -155.000; -493.000; -582.000
832.678; -318.900;-1043.000;-1091.000
832.929; -253.800; -947.000; -935.000
833.181; -109.400; -575.000; -677.000
833.432;  -47.600;  -59.000; -186.000
833.684;    4.100;  112.000;  -27.000
833.935; -156.700; -610.000; -566.000
834.187; -183.800; -829.000; -823.000
834.438;   -0.800;  -58.000;  -25.000
834.689;  -67.100; -255.000; -123.000
834.941;  -21.200; -343.000; -244.000
835.192; -174.800; -590.000; -533.000
835.443; -132.900; -419.000; -506.000
835.695;    6.600;  138.000;  -16.000
835.946;  -92.900; -608.000; -378.000
836.197; -138.400; -599.000; -622.000
836.448;  -95.900; -528.000; -395.000
836.699;  -75.500; -253.000; -341.000
836.950;   62.400;   72.000;    7.000
837.201; -274.300;-1003.000; -987.000
837.452;  -35.200; -356.000; -170.000
837.703; -191.000; -791.000; -737.000
837.954;  -32.300; -205.000; -365.000
838.205; -155.000;-1029.000;-1008.000
838.456;  279.500; -196.000; -282.000
838.707;   30.100; -423.000; -519.000
838.958;    4.800; -634.000; -647.000
839.209;  386.400;   18.000;   40.000
839.460;  213.800; -439.000; -201.000
839.710;  256.100; -135.000; -297.000
839.961;  712.200;  730.000;  612.000
840.212;  566.900; -382.000; -497.000
840.462; 2052.700; -328.000; -277.000
840.713;29818.100; -571.000; -536.000
840.964; 9148.500;  -62.000; -143.000
841.214;  736.700; -384.000; -624.000
841.465;  828.600; -214.000; -141.000
841.715;  646.000; -417.000; -380.000
841.966;  845.000; -746.000; -685.000
842.216;14643.300; -330.000; -431.000
842.466;43672.900; -169.000; -313.000
842.717; 1716.100; -964.000; -952.000
842.967;  457.800; -635.000; -641.000
843.217;  392.500;   20.000;   28.000
843.468;  134.500; -104.000; -132.000
843.718; -107.300; -718.000; -726.000
843.968; -116.600; -837.000; -765.000
844.218;   15.500; -315.000; -262.000
844.469;  -60.100; -577.000; -561.000
844.719; -129.000; -537.000; -682.000
844.969; -140.400; -550.000; -580.000
845.219; -232.600; -814.000; -862.000
845.469;  -77.500; -392.000; -342.000
845.719; -215.400; -792.000; -884.000
845.969;   32.900;  119.000;  174.000
846.219; -172.400; -738.000; -720.000
846.469;  118.300;  464.000;  432.000
846.718;  -33.700; -115.000;   31.000
846.968; -210.200; -827.000; -827.000
847.218;  -17.600; -224.000; -371.000
847.468; -158.600; -586.000; -555.000
847.718; -258.600; -827.000; -798.000
847.967; -202.200; -826.000; -915.000
848.217;  -96.400; -449.000; -569.000
848.467;  -68.000; -405.000; -376.000
848.716; -169.100; -708.000; -725.000
848.966;  -10.500; -372.000; -358.000
849.215;  -78.000; -428.000; -419.000
849.465; -151.600; -785.000; -615.000
849.714; -254.900;-1132.000;-1150.000
849.964; -104.300; -551.000; -613.000
850.213;   -5.100; -393.000; -355.000
850.463;  224.800;  137.000;  340.000
850.712;  -10.400; -542.000; -567.000
850.961;   -7.000; -739.000; -678.000
851.211;  175.300; -513.000; -504.000
851.460;  251.600; -635.000; -650.000
851.709;  995.400;  -25.000;   18.000
851.958;17921.600; -912.000; -750.000
852.208;16810.100; -859.000; -879.000
852.457;  628.500; -181.000;  -13.000
852.706;   67.400; -791.000; -823.000
852.955;   27.800; -507.000; -528.000
853.204;  -95.500; -521.000; -461.000
853.453;  -99.100; -418.000; -458.000
853.702; -210.300; -660.000; -750.000
853.951; -132.500; -532.000; -520.000
854.200; -147.800; -613.000; -562.000
854.449; -213.400; -695.000; -661.000
854.698; -125.500; -340.000; -279.000
854.946;  -68.000; -181.000; -284.000
855.195; -220.300; -843.000; -868.000
855.444; -101.600; -395.000; -420.000
855.693; -164.400; -345.000; -432.000
855.941; -105.200; -387.000; -516.000
856.190;  -57.000; -256.000; -382.000
856.439; -180.400; -652.000; -703.000
856.687;  -38.200;  -99.000;  -72.000
856.936; -169.900; -621.000; -323.000
857.184; -298.300;-1067.000;-1020.000
857.433; -133.800; -423.000; -512.000
857.681; -255.800; -989.000; -953.000
857.930;  -92.000; -282.000; -433.000
858.178; -281.300; -856.000; -929.000
858.427; -228.200; -802.000; -781.000
858.675; -183.700; -377.000; -544.000
858.923; -161.000; -527.000; -819.000
859.172; -320.600;-1094.000;-1070.000
859.420; -124.900; -339.000; -239.000
859.668; -210.800; -624.000; -628.000
859.916;    8.600;  109.000;  115.000
860.164; -186.700; -699.000; -603.000
860.413;  269.700; -878.000; -696.000
860.661;   96.800; -709.000; -577.000
860.909;  -78.000; -339.000; -325.000
861.157;  -96.100; -277.000; -444.000
861.405; -175.200; -534.000; -670.000
861.653;   94.100;  310.000;  310.000
861.901;  158.900; -543.000; -613.000
862.149; -124.500; -801.000; -824.000
862.396;  -84.800; -297.000; -187.000
862.644; -139.000; -368.000; -347.000
862.892;   10.300;   98.000;  138.000
863.140; -133.800; -549.000; -530.000
863.388; -232.600; -815.000; -759.000
863.635; -165.600; -642.000; -601.000
863.883;   40.300;  231.000;  190.000
864.131; -117.800; -288.000; -357.000
864.378; -165.600; -675.000; -540.000
864.626; -146.100; -347.000; -415.000
864.873; -158.300; -556.000; -505.000
865.121; -229.300; -714.000; -799.000
865.368;  -12.500; -173.000;   75.000
865.616;  -23.300;  -33.000;  -40.000
865.863;  -63.000; -462.000; -506.000
866.111; -144.900; -795.000; -824.000
866.358;  158.600; -426.000; -420.000
866.605; 5572.100;  -64.000; -804.000
866.853; 4316.500; -621.000; -537.000
867.100;  -34.800; -728.000; -775.000
867.347; -107.500; -672.000; -611.000
867.594; -119.000; -740.000; -714.000
867.841;  178.600;   97.000;   17.000
868.089; -236.200; -746.000; -698.000
868.336; -126.100; -477.000; -420.000
868.583; -212.700; -637.000; -741.000
868.830;  -12.700; -131.000; -170.000
869.077; -265.800; -859.000; -787.000
869.324; -154.800; -502.000; -458.000
869.571; -197.900; -398.000; -430.000
869.818; -160.700; -485.000; -439.000
870.065; -172.500; -439.000; -513.000
870.311; -130.800; -456.000; -542.000
870.558; -159.200; -332.000; -311.000
870.805;  -84.100; -320.000; -384.000
871.052; -143.900; -494.000; -369.000
871.298;  -45.800; -204.000; -131.000
871.545;  -71.300; -151.000; -185.000
871.792;  -72.200; -173.000; -222.000
872.038;  -87.200;   43.000; -126.000
872.285; -171.500; -496.000; -387.000
872.532; -143.700; -357.000; -387.000
872.778;   96.300;  556.000;  403.000
873.025; -145.000; -384.000; -359.000
873.271;  159.700;  501.000;  578.000
873.517;  -24.200; -133.000; -209.000
873.764;  -33.200; -193.000;  -80.000
874.010; -102.600; -143.000; -230.000
874.257;   37.800;  123.000;   90.000
874.503; -198.800; -579.000; -479.000
874.749;  -78.400;   31.000;  275.000
874.995;  -82.300;  -80.000;  -20.000
875.242; -162.400; -540.000; -478.000
875.488; -151.000; -414.000; -439.000
875.734;  -24.000; -106.000; -234.000
875.980;  164.400; -872.000;-1032.000
876.226;  307.500; -157.000; -255.000
876.472;   38.400;  343.000;  237.000
876.718;   10.300;  184.000;  158.000
876.964;  -16.700;   56.000;   55.000
877.210; -188.000; -547.000; -677.000
877.456; -205.100; -630.000; -557.000
877.702; -267.300; -821.000; -832.000
877.948; -174.800; -377.000; -497.000
878.193;   87.000;  361.000;  255.000
878.439; -137.600; -487.000; -472.000
878.685;  -94.500; -272.000; -343.000
878.931; -201.000; -618.000; -676.000
879.176;  -73.700; -201.000; -201.000
879.422; -263.400; -933.000; -820.000
879.668;  194.700;   10.000;   79.000
879.913;  193.300;   53.000;  137.000
880.159;  -54.700; -112.000;  -17.000
880.404;  -54.600; -152.000; -162.000
880.650;   -5.900;   91.000;  141.000
880.895; -241.100; -670.000; -710.000
881.141; -150.600; -454.000; -428.000
881.386; -213.700; -503.000; -658.000
881.631; -117.800; -311.000; -166.000
881.877;   -7.700;  112.000;  -13.000
882.122; -193.000; -684.000; -600.000
882.367; -107.700; -136.000; -186.000
882.612;  -59.500;  -80.000; -176.000
882.858; -301.300; -877.000; -823.000
883.103; -102.500; -297.000; -267.000
883.348; -232.900; -759.000; -852.000
883.593; -201.200; -677.000; -602.000
883.838;  -64.400; -311.000;  -24.000
884.083;   95.200;  353.000;  288.000
884.328; -132.700; -564.000; -545.000
884.573;  -20.000; -196.000; -143.000
884.818;  211.400; -694.000; -531.000
885.063;  142.000; -348.000; -315.000
885.308; -142.900; -475.000; -398.000
885.553;   79.200;  245.000;  325.000
885.797; -202.200; -545.000; -615.000
886.042;   -8.700;    8.000;   58.000
886.287; -141.700; -253.000; -211.000
886.532;  -11.100;   26.000;  204.000
886.776; -130.300; -407.000; -525.000
887.021; -197.400; -621.000; -574.000
887.265; -265.400; -685.000; -689.000
887.510; -213.200; -557.000; -496.000
887.755; -107.800; -194.000; -164.000
887.999; -205.900; -552.000; -575.000
888.244;  -36.000;  -58.000;  161.000
888.488;   88.700;  371.000;  393.000
888.732; -176.500; -368.000; -520.000
888.977; -191.200; -622.000; -567.000
889.221; -261.400; -683.000; -659.000
889.465; -183.400; -422.000; -566.000
889.710;  -81.200;  -56.000; -299.000
889.954;  112.300;  579.000;  467.000
890.198; -221.100; -584.000; -707.000
890.442; -209.800; -716.000; -712.000
890.687; -259.400; -800.000; -753.000
890.931; -104.500; -273.000; -210.000
891.175; -191.700; -502.000; -500.000
891.419;  -57.900; -105.000; -110.000
891.663; -114.200; -239.000; -112.000
891.907; -243.800; -801.000; -545.000
892.151; -313.900; -920.000; -815.000
892.395; -131.200; -274.000; -387.000
892.638;   62.600;  408.000;  291.000
892.882; -282.200; -780.000; -867.000
893.126;  105.700;  758.000;  558.000
893.370; -107.800; -167.000; -168.000
893.614; -203.700; -714.000; -715.000
893.857; -113.800; -183.000; -197.000
894.101; -206.300; -527.000; -631.000
894.345;  -30.700;  300.000;  150.000
894.588;  131.200;  569.000;  380.000
894.832;  -88.800; -178.000;  -84.000
895.075;  -85.100;   15.000;  -92.000
895.319; -184.800; -552.000; -420.000
895.563; -174.200; -413.000; -353.000
895.806; -229.700; -628.000; -741.000
896.049; -101.800; -576.000; -368.000
896.293;  207.300;  527.000;  405.000
896.536; -119.400; -465.000; -468.000
896.779;   -6.600; -149.000;   -1.000
897.023; -228.200; -751.000; -714.000
897.266;   28.800;  325.000;  269.000
897.509; -283.500; -900.000; -901.000
897.752;   24.700;  149.000;  171.000
897.996; -320.100; -972.000; -864.000
898.239;   11.800;  168.000;  102.000
898.482; -168.600; -431.000; -453.000
898.725;    5.700;  101.000;   53.000
898.968; -245.000; -609.000; -744.000
899.211; -150.200; -513.000; -361.000
899.454; -211.600; -633.000; -539.000
899.697;  -58.100;   90.000;  -43.000
899.940; -255.100; -761.000; -757.000
900.182; -119.000; -335.000; -405.000
900.425; -100.900; -150.000; -298.000
900.668;   50.100;  491.000;  350.000
900.911; -139.900; -292.000; -345.000
901.154;   -6.300;  141.000;   -3.000
901.396; -205.900; -407.000; -412.000
901.639; -194.800; -430.000; -496.000
901.882; -295.800; -790.000; -809.000
902.124;  -82.900;  -29.000; -143.000
902.367; -176.800; -315.000; -361.000
902.609; -182.700; -476.000; -453.000
902.852;  -83.600; -108.000; -260.000
903.094; -165.400; -458.000; -337.000
903.337;  -21.200;  -26.000;   53.000
903.579; -126.200; -228.000; -441.000
903.821; -254.200; -597.000; -744.000
904.064;  -23.700;   85.000;  127.000
904.306; -109.900; -126.000; -166.000
904.548; -117.100; -152.000; -366.000
904.790; -149.800; -195.000; -340.000
905.033; -205.400; -625.000; -577.000
905.275; -189.600; -513.000; -524.000
905.517;  107.300;  468.000;  256.000
905.759; -172.700; -667.000; -761.000
906.001; -121.500; -322.000; -369.000
906.243; -110.400; -162.000; -224.000
906.485;  181.500; -265.000; -207.000
906.727;   67.300; -499.000; -542.000
906.969;  -43.000;  -30.000; -135.000
907.211;  118.400; -316.000; -382.000
907.453;  334.500; -188.000; -237.000
907.695;   -0.900; -158.000; -385.000
907.936;  166.200;  818.000;  706.000
908.178;  -52.600;   92.000; -135.000
908.420;  -64.100; -111.000; -162.000
908.662; -187.200; -633.000; -682.000
908.903; -101.100; -208.000; -123.000
909.145;  -42.300; -240.000; -305.000
909.386;   95.600;  315.000;  280.000
909.628;  142.600;  363.000;  397.000
909.870;   66.200;   29.000;  264.000
910.111; -138.400; -809.000; -949.000
910.353;   90.000; -123.000; -161.000
910.594;   15.000; -574.000; -606.000
910.835;  225.000; -265.000; -326.000
911.077;  287.800; -503.000; -604.000
911.318;  574.400; -505.000; -471.000
911.559;  800.800; -577.000; -880.000
911.801; 2676.700; -284.000; -280.000
912.042;22596.300;  -50.000; -159.000
912.283;47451.100;  404.000;  371.000
912.524; 5700.200; -396.000; -457.000
912.765;  924.700; -193.000;   79.000
913.006;  496.000; -307.000; -338.000
913.247;  145.500; -270.000; -290.000
913.488;   37.600;  -43.000;   30.000
913.729;  -90.100; -373.000; -373.000
913.970;  -73.300;  -96.000; -292.000
914.211;  -59.800; -160.000; -198.000
914.452;  -62.300; -118.000;  -11.000
914.693;  113.300;  510.000;  592.000
914.934;   91.200;  510.000;  440.000
915.175;  -60.600;   53.000;  -95.000
915.415;  -88.500; -137.000;   27.000
915.656;  -46.500;  -28.000;  192.000
915.897; -124.700; -252.000;  -82.000
916.137;  -44.500;   74.000;   -9.000
916.378; -192.500; -573.000; -517.000
916.619;  -73.500; -159.000;  -63.000
916.859;   20.700;  303.000;  330.000
917.100;  378.600; 1655.000; 1070.000
917.340;  192.400;  930.000;  728.000
917.581;  179.400;  965.000;  789.000
917.821;  -58.000; -171.000;  143.000
918.061;   20.300; -199.000;  -72.000
918.302;  -35.400; -152.000; -211.000
918.542;   21.400;  -22.000;    3.000
918.782;  106.800;  369.000;  377.000
919.023;  273.200;  360.000;  427.000
919.263; 2499.700; 8131.000;  202.000
919.503; 1434.900; -137.000;  -54.000
919.743;  828.700;  390.000;  266.000
919.983;  340.900; -134.000;  -26.000
920.223;  189.300;  135.000;   14.000
920.463;  327.600;  631.000;  554.000
920.703;  289.500;   84.000;   39.000
920.943;  326.800; -110.000;   90.000
921.183;  445.200; -414.000; -405.000
921.423;  958.700;  307.000;  546.000
921.663; 1269.500; -174.000; -257.000
921.903; 3018.700;  237.000;  173.000
922.143;18253.500;  372.000;  389.000
922.383;61146.600;  158.000;  115.000
922.622;16138.400; -120.000;  -15.000
922.862; 2090.800;  796.000;  785.000
923.102;  827.300;  -51.000;   33.000
923.341;  373.200;   59.000;   74.000
923.581;  229.900;  450.000;  360.000
923.821;  106.300;  301.000;  398.000
924.060;   66.000;  351.000;  193.000
924.300;  -61.700;  -16.000; -128.000
924.539;   47.600;  584.000;  473.000
924.779;  160.400;  812.000;  597.000
925.018;  -13.800;  247.000;  353.000
925.257;  116.700;  595.000;  666.000
925.497;   14.700;  447.000;  412.000
925.736;  -67.000;  -35.000;  102.000
925.975;   57.100;  687.000;  669.000
926.214;  135.800;  907.000;  850.000
926.454;  121.100;  706.000;  757.000
926.693;   17.300;  419.000;  543.000
926.932;  164.000; 1021.000;  825.000
927.171;  228.200; 1107.000; 1044.000
927.410;  167.700; 1144.000;  967.000
927.649;  128.800;  924.000;  742.000
927.888;   47.800;  590.000;  564.000
928.127;   81.000;  680.000;  678.000
928.366;  122.800;  842.000;  826.000
928.605;  160.700;  831.000;  737.000
928.844;  501.400; 1451.000; 1393.000
929.083;  975.500;  770.000;  613.000
929.321;  530.100; 1335.000; 1359.000
929.560;  287.700; 1158.000; 1122.000
929.799;   26.600;  574.000;  475.000
930.038;  284.900; 1025.000; 1394.000
930.276;  -15.600;  334.000;  397.000
930.515;   88.800;  827.000;  681.000
930.753;   58.000;  614.000;  589.000
930.992;   54.500;  664.000;  717.000
931.230;   62.300;  847.000;  847.000
931.469;  469.800; 2162.000;  892.000
931.707;  234.600;  840.000;  751.000
931.946;  230.700; 1278.000; 1344.000
932.184;  187.500; 1437.000; 1175.000
932.423;  158.800; 1265.000;  963.000
932.661;  240.700; 1296.000; 1428.000
932.899;  146.300;  987.000;  821.000
933.137;   73.700;  754.000;  564.000
933.376;  308.000; 1664.000; 1335.000
933.614;  399.100; 1759.000; 1196.000
933.852;  195.200; 1357.000; 1171.000
934.090;  362.900; 1722.000; 1747.000
934.328;  282.400; 1252.000; 1457.000
934.566;  309.700; 1431.000; 1110.000
934.804;  402.000; 1263.000; 1309.000
935.042; 1185.800; 1861.000; 1850.000
935.280; 4768.100; 2088.000; 2063.000
935.518; 3646.200; 2113.000; 2007.000
935.756;  793.700; 2481.000; 2316.000
935.994;  448.400; 1808.000; 1751.000
936.231;  742.200; 2890.000; 2950.000
936.469;  437.400; 2367.000; 2378.000
936.707;  418.300; 2220.000; 2167.000
936.945;  567.000; 2825.000; 2882.000
937.182;  525.500; 2679.000; 2741.000
937.420;  708.600; 3602.000; 3031.000
937.657;  817.500; 3365.000; 3478.000
937.895;  696.900; 3331.000; 3488.000
938.133;  750.100; 3540.000; 3528.000
938.370;  785.200; 3896.000; 4191.000
938.607;  891.600; 4488.000; 4205.000
938.845; 1227.700; 5587.000; 5549.000
939.082; 1067.000; 5387.000; 5177.000
939.320; 1182.800; 5799.000; 5728.000
939.557; 1383.000; 6549.000; 6491.000
939.794; 1527.400; 7285.000; 7097.000
940.031; 1905.800; 8421.000; 8368.000
940.269; 2151.300; 9552.000; 9107.000
940.506; 2383.100;10901.000;10507.000

