
Integration time [ms]: 100.000
Averaging Nr. [scans]: 40
Smoothing Nr. [pixels]: 0
Data measured with spectrometer [name]: 2101013U2
Wave   ;Sample   ;Dark     ;Reference
[nm]   ;[counts] ;[counts] ;[counts] 

394.013;   69.738; -450.257; -315.536
394.305;  263.811; -461.258; -419.536
394.596; 1057.235; -676.269; -527.514
394.887; 2473.676; -796.268; -654.518
395.178;  963.781;  145.736;   11.476
395.470;  105.142; -210.263; -356.526
395.761;  244.191;  305.734;  394.479
396.052;  446.212; -545.284; -306.489
396.343;  447.880; -557.276; -454.503
396.634;  173.550; -200.279; -290.497
396.926;  176.499; -618.268; -565.517
397.217;  163.960;   11.725;  -17.504
397.508;   78.350; -366.273; -154.507
397.799;   90.225; -555.279; -571.497
398.090;   24.869; -973.280; -902.495
398.381;  156.838;   11.708;  -11.473
398.672;   11.389; -585.292; -742.473
398.963;   86.031; -348.279; -373.498
399.254;  143.623;   54.709; -209.475
399.545;   -2.913;-1017.266; -883.520
399.836;   94.120; -407.277; -343.501
400.127;   75.890; -205.295; -209.468
400.418;   90.170; -423.274; -392.506
400.709;  108.807; -359.281; -333.493
401.000;   69.702; -268.291; -309.476
401.290;  118.253;  225.698;  115.545
401.581;   88.670; -166.286; -228.485
401.872;   32.863; -542.298; -486.462
402.163;   63.008; -313.296; -252.467
402.454;  118.324; -123.291; -163.475
402.744;  125.899; -844.297; -813.465
403.035;  571.880; -226.293;  -86.471
403.326;  742.592; -366.292; -384.474
403.617;  459.832;  204.701;  165.539
403.907;  255.468; -593.283; -679.490
404.198; 2225.658; -545.307; -599.446
404.489; 5831.772; -618.283; -588.491
404.779; 2092.281; -618.302; -660.456
405.070;  251.760;  -67.304; -174.451
405.360;  348.607; -259.293; -238.472
405.651;  371.042;  125.699;   98.542
405.942;  217.940;  209.714;  127.516
406.232;  403.030; -432.285; -413.487
406.523;  631.950;  641.706;  758.530
406.813;  139.592; -579.286; -644.484
407.104;  444.587;  261.708;  144.527
407.394;  250.558; -604.299; -591.462
407.685;  180.254;  336.715;  222.513
407.975;   75.621; -400.283; -382.490
408.265;  137.463; -134.289; -190.478
408.556;   73.246; -472.291; -459.475
408.846;  184.351;  474.706;  429.530
409.137;   88.296;   -1.288; -216.480
409.427;   66.729; -193.285; -271.487
409.717;   37.629; -776.273; -692.508
410.007;  169.973;    4.715; -170.486
410.298;  123.468; -360.295; -342.469
410.588;   73.727; -495.285; -510.486
410.878;   54.832; -792.287; -873.482
411.168;  142.690; -481.298; -478.463
411.459;  119.291; -295.283; -242.489
411.749;   76.345; -609.292; -507.474
412.039;   81.270; -755.289; -386.480
412.329;  225.513;   40.722;  132.501
412.619;  215.993;  -62.286; -148.485
412.909;  406.891;  639.711;  594.521
413.199;  395.094; -130.280; -251.495
413.490;  458.607;  521.710;  352.523
413.780;  151.948;-1013.279; -913.496
414.070;  332.506;  -46.276;  235.497
414.360;  397.359; -729.278; -666.498
414.650;  440.328; -726.288; -688.482
414.940;  504.948; -538.280; -441.496
415.230;  903.375;   50.712;   74.519
415.520; 5744.659;  155.730;   66.486
415.809;22503.131; -305.281; -125.493
416.099;17299.222; -388.277; -229.501
416.389; 4715.368;  435.726;  236.494
416.679; 2732.871;   91.738;   85.473
416.969;  501.012; -527.287; -503.483
417.259;  457.975;  341.721;  171.503
417.549;  705.855;  522.718;  318.508
417.838; 1533.501; -205.268; -147.518
418.128; 4984.587;  650.710;  492.522
418.418; 4155.310; -491.272; -579.509
418.708; 2828.193;    9.726;  -48.506
418.997;10446.039; -474.275; -480.505
419.287;10895.550; -733.273; -790.507
419.577;10002.465; -160.283; -123.489
419.866;33688.095; -588.277; -498.501
420.156;35135.105; -242.270;  -55.513
420.446; 6451.388; -112.263;  -26.526
420.735;  998.224; -376.271; -446.512
421.025;  850.233; 1830.722;  315.502
421.314;  860.297; -203.271; -226.512
421.604; 2009.668;   89.732;  233.484
421.893; 1165.794; -705.271; -602.511
422.183;  248.763; -487.263; -461.526
422.472;  419.520;  -36.271; -107.511
422.762;  497.543; -416.266; -379.521
423.051;  282.007; -916.276; -916.503
423.341;  366.502; -491.273; -439.507
423.630;  458.124; -121.265;   15.477
423.919;  415.463;   58.725;   49.495
424.209;  380.519;  -31.263;   56.473
424.498;  490.223;   68.732;  161.483
424.787; 1055.279; -535.267; -601.518
425.077; 3322.998;   34.735;   29.478
425.366; 5162.724; -734.262; -744.528
425.655; 9344.777;  639.727;  259.493
425.945;18315.876; -313.247; -268.554
426.234;10242.972;  117.741;  300.467
426.523; 4740.852;  -86.259; -350.534
426.812; 6520.539;  107.734;  159.480
427.101; 9435.965; -127.269; -323.515
427.390;12253.759;  -55.270;  -86.514
427.680; 3313.521; -624.257; -411.538
427.969;  549.657; -330.255; -301.540
428.258;  361.338; -385.257; -477.536
428.547;  615.589;  449.728;  397.490
428.836; 1605.947; -421.253; -398.543
429.125; 2342.453; -199.259;  -72.534
429.414;  938.295; -330.251; -294.548
429.703; 2952.220; -231.251; -213.548
429.992; 8587.923; -938.250; -828.549
430.281; 5604.206; -397.264; -331.524
430.570;  642.860;  -21.252;   32.454
430.859;  713.676;  279.741;  352.466
431.148;  499.372;  636.752;  631.446
431.437;  314.360;  391.748;  367.454
431.725;  163.439; -544.257; -481.536
432.014;  124.655; -845.253; -756.545
432.303;  428.571; -149.239; -105.569
432.592;  725.188; -460.263; -178.525
432.881; 1023.723; -601.248; -437.554
433.169; 5555.007; -343.255;  -61.540
433.458;11280.704;  445.765;  540.424
433.747; 4876.230; -397.261; -289.529
434.036; 1053.772; -275.242; -280.564
434.324; 2038.260; -395.249; -379.551
434.613; 3423.191;   40.757;  159.437
434.902; 1269.761;  333.760;  439.433
435.190;  821.620;   75.761;  295.431
435.479;  473.348;  -52.245;   83.441
435.767;  144.681; -411.244; -427.561
436.056;  291.043; -340.242; -294.563
436.345;  402.739; -372.240; -223.568
436.633;  432.806;   60.750;  383.450
436.922;  356.691;  208.760;  414.432
437.210;  923.419; -194.236;    1.426
437.499; 2985.252; -583.235; -432.576
437.787; 3279.494; -339.236;  -10.574
438.075;  767.850;   56.761;  162.430
438.364; 1041.553;  -44.238;  250.429
438.652;  617.705; -286.226; -138.592
438.941;  183.595;    3.770;  269.415
439.229;   24.807; -665.252; -466.545
439.517;   76.135; -160.234;  -85.577
439.806;    1.146; -501.225; -290.595
440.094;  216.343;  377.766;  650.421
440.382;  286.047; -653.233; -302.580
440.670;  307.227; -361.235; -285.576
440.959;   59.538; -347.223; -170.599
441.247;  102.881; -151.229; -109.587
441.535;  137.809; -266.235;   31.423
441.823;   78.790; -497.234; -305.578
442.111;  206.935;  173.771;  327.412
442.400;  743.972; -628.245; -335.559
442.688; 2039.692; -111.234; -620.579
442.976; 1545.874; -786.213; -450.617
443.264;  166.302; -324.224; -364.597
443.552;  139.981; -258.226;   51.408
443.840;  199.107;  602.765;  876.423
444.128;  153.196;  265.767;  269.420
444.416;   27.888; -694.228; -312.588
444.704;   37.217; -465.219;  -92.605
444.992;  108.784;   -0.226;  240.407
445.280;   81.971; -517.230;  -94.585
445.568;   82.452; -694.212; -396.618
445.856;  476.526; -174.221;  357.398
446.143; 1084.413;  -54.220;   -7.604
446.431;  882.292;  -25.228;  625.411
446.719;  308.386;  489.783;  675.391
447.007;  213.065;  481.769;  705.416
447.295;  188.135;  597.777;  871.402
447.583;  112.204; -464.229;  -34.587
447.870;  189.273; -434.221; -202.601
448.158;  549.095; -104.230;  129.415
448.446;  431.364; -800.219; -338.604
448.733;  216.054;   13.776;  269.403
449.021;  292.277;   60.788;  341.382
449.309;  216.367; -296.210;  208.379
449.596;  236.732;  128.783;   59.392
449.884;  171.792; -571.222; -325.600
450.172;  131.122; -756.227; -406.590
450.459;  435.207;  645.786;  780.387
450.747; 2064.256; -411.218; -147.608
451.034; 6642.693;  493.772;  889.411
451.322; 5427.835; -413.214; -170.614
451.609;  477.905;  292.777;  508.403
451.897;  531.978; -550.203; -183.634
452.184; 1610.910; -622.223; -400.598
452.472; 1544.363;   97.792;  269.375
452.759;  376.715;  512.781;  864.395
453.047;  153.500; -407.212; -125.617
453.334;  116.547; -732.219; -216.606
453.621;  116.913; -438.214; -161.615
453.909;  159.795;   13.796;  384.368
454.196;  130.015; -299.199; -123.641
454.483;  245.216;  317.798;  540.364
454.771;  165.141; -215.208;  196.374
455.058;   51.044; -316.207;  102.374
455.345;  112.369;   71.807;  344.347
455.632;   85.522; -128.207;  235.373
455.919;   49.137;  -82.196;  182.354
456.207;  -45.131; -774.198; -450.642
456.494;   -0.672; -475.200;  -66.639
456.781;   12.837; -399.202; -198.635
457.068;   71.803; -253.206;  -29.628
457.355;   29.679; -698.206; -401.629
457.642;   15.260; -552.205; -290.630
457.929;   29.110; -778.194; -417.651
458.216;   51.050; -575.212; -354.617
458.503;  222.365; -173.193;  -19.652
458.790;  194.338; -864.208; -630.625
459.077;  281.367;  -77.202;  110.364
459.364;  735.478; -350.195; -210.649
459.651; 1541.826;  -46.206;  220.372
459.938;  729.354; -864.209; -665.623
460.225;  183.720;  132.799;  276.363
460.512;  -27.741; -836.197; -688.645
460.799;  131.054;  -32.218;  320.392
461.086;   94.807; -370.200; -251.640
461.372;   85.870; -509.198; -279.642
461.659;  143.688; -165.196;  108.354
461.946;  103.988; -445.193;  -54.651
462.233;  253.880;  842.800;  888.361
462.519;  362.852; -814.201; -464.639
462.806;  915.810; -768.197; -497.645
463.093;  806.384; -445.191;  -66.656
463.380;  -17.751; -920.186; -824.664
463.666;   69.386; -259.197;  -18.646
463.953;   96.873; -406.195; -243.648
464.239;  178.048; -173.195;  -77.648
464.526;  424.459;  413.806;  743.350
464.813;  400.295; -565.190; -304.658
465.099;  400.789;  606.807;  607.348
465.386;  411.593;  903.807;  921.348
465.672;   78.985; -694.197; -522.645
465.959;   65.588; -598.188; -520.662
466.245;   28.043; -468.193; -359.652
466.532;  132.796; -109.195;   63.352
466.818;  104.199; -357.186; -216.664
467.104;   30.088; -488.182; -415.672
467.391;  -19.753; -628.189; -459.658
467.677;   37.552; -289.186;    9.335
467.964;   23.128; -682.189; -471.660
468.250;  109.605; -331.186; -160.665
468.536;   97.698;   90.811;  180.341
468.822;  -21.408; -821.184; -574.668
469.109;  158.417;  351.827;  471.311
469.395;  213.003;  729.808;  787.346
469.681;  214.951;   46.811;  156.341
469.967; 1159.081; -699.188; -382.660
470.254; 2460.463; -494.188; -306.662
470.540; 1552.012; -601.196; -476.646
470.826;  229.699; -488.181; -397.675
471.112;  291.770;  288.816;  113.331
471.398;   81.450; -253.183;  -58.670
471.684;   63.727; -626.177; -447.680
471.970;   12.053; -918.180; -981.675
472.256;   31.827; -521.192; -441.654
472.542;   33.778; -499.171; -434.691
472.828;   47.959; -743.182; -607.672
473.114;   48.721; -380.166; -283.700
473.400;   32.718; -504.175; -293.684
473.686;   51.027; -452.166; -400.701
473.972;   72.932; -230.174; -131.687
474.258;  -47.533; -925.173; -843.689
474.544;  170.719; -183.178;   -2.679
474.830;  258.320;  -65.175;   45.316
475.116;  394.371; -123.190; -196.658
475.401;  567.705; -558.180; -467.676
475.687;  188.754; -725.180; -718.676
475.973;   22.642; -673.181; -770.673
476.259;  277.072;  736.825;  764.315
476.544;  352.960; -539.176; -437.682
476.830;  697.624; -398.172; -322.690
477.116;  573.533; -430.177; -336.682
477.401;  141.804;  346.820;  358.324
477.687;  -29.732; -289.175; -405.684
477.973;   51.220;   21.819;   28.326
478.258;   -0.953; -448.163; -348.706
478.544;   69.985;   21.815;   61.334
478.829;  -35.717; -818.171; -738.692
479.115;  -26.226; -749.172; -651.690
479.401;   -4.772; -444.174; -449.686
479.686;   38.503; -253.180;  -74.676
479.972;  -39.851; -886.178; -776.680
480.257;   42.172; -258.166;  -65.700
480.542;  -11.888; -614.170; -469.693
480.828;  239.316; 1288.824; 1392.317
481.113;  -21.661; -464.176; -426.683
481.399;    9.845; -236.161; -202.711
481.684;  -46.129; -620.166; -462.700
481.969;   23.933; -158.159;  -73.713
482.255;    0.098; -439.169; -285.695
482.540;   10.474; -569.178; -441.680
482.825;   -1.281; -395.187; -404.663
483.110;   96.776;  -85.169; -105.696
483.396;  141.329; -840.157; -652.718
483.681;  445.857;  543.826;  730.313
483.966;  127.802; -696.160; -700.712
484.251;   26.006; -404.174; -310.687
484.536;    9.582; -356.165; -378.703
484.822;   13.234; -205.173; -218.687
485.107;  -24.633; -599.152; -502.726
485.392;  137.162;  662.836;  541.296
485.677;   66.360;  354.832;  163.302
485.962;  114.327;  160.843;  270.283
486.247;  113.029;  -14.162;   -8.707
486.532;   38.423; -178.166; -325.701
486.817;  169.939;  381.839;  431.291
487.102;  133.250; -453.154; -514.722
487.387;  553.306; -637.156; -652.718
487.672;  954.068; -154.164;  -38.705
487.957;  624.746; -394.160; -286.711
488.241;  203.783; -290.150; -314.729
488.526;  621.418; -280.152; -148.726
488.811; 1022.201; -881.177; -818.680
489.096;  775.603; -666.154; -702.723
489.381;  452.039;    3.847;  162.275
489.666;  303.495; -428.161; -510.710
489.950;  168.881;  558.846;  627.277
490.235;  -37.847; -480.151; -458.728
490.520;  -39.331; -756.161; -723.710
490.804;  -53.342; -827.156; -736.719
491.089;    0.648; -469.149; -299.732
491.374;   30.016; -132.164;  -75.704
491.658;   17.235; -817.147; -717.735
491.943;  215.922; -657.152; -609.727
492.227;  305.146; -178.155;  -38.721
492.512;   69.301; -294.157; -341.717
492.797;  -59.558; -713.149; -716.731
493.081;  -51.063; -588.147; -598.735
493.366;  -28.305; -751.161; -635.711
493.650;  216.739;  831.859;  917.254
493.935;   32.309; -648.147; -447.734
494.219;  -44.523; -778.142; -687.743
494.503;  -28.387; -585.150; -487.730
494.788;   47.243;   46.842;   74.285
495.072;  109.634;  184.850;  434.271
495.356;  168.527; -463.148; -343.733
495.641;  490.194; -812.146; -736.736
495.925;  487.963; -976.156; -903.719
496.209;   51.573; -599.149; -451.732
496.494;  -33.523; -763.142; -544.744
496.778;   19.025; -364.154; -360.722
497.062;  -51.038; -819.156; -627.719
497.346;  -29.677; -869.160; -640.711
497.631;  136.305;  580.852;  560.266
497.915;   95.579;  -64.145;  175.261
498.199;   73.104; -341.157; -277.718
498.483;   73.366; -562.152; -508.725
498.767;  183.560;  301.850;  300.271
499.051;  177.096; -126.149; -100.732
499.335;   29.894; -693.149; -739.731
499.619;  -23.112; -381.129; -423.767
499.903;   32.945; -272.155;  -65.721
500.187;   47.482; -588.153; -316.724
500.471;   27.971; -796.152; -595.727
500.755;  136.944;   62.839;  -96.710
501.039;   39.145; -270.155; -357.721
501.323;  104.741;  -21.141;  264.254
501.607;   63.447; -447.163; -503.706
501.891;   15.931; -607.156; -512.718
502.174;  -34.760; -726.144; -585.741
502.458;   85.425;   89.849;  370.273
502.742;   47.464; -180.138; -191.751
503.026;   87.959; -412.147; -254.734
503.310;  140.082; -437.159; -375.713
503.593;  109.460; -464.147; -325.735
503.877;  135.079; -232.133; -156.760
504.161;  207.734;    2.847;  -50.724
504.444;  136.695; -841.158; -710.716
504.728;  385.965; -487.164; -522.704
505.012;  617.732; -257.150;  -76.729
505.295;  489.220; -417.161; -212.711
505.579;  456.762; -256.156; -496.719
505.862;  626.575; -555.145; -333.738
506.146;  606.784; -681.159; -758.714
506.429;  372.685;  568.841;  461.286
506.713;   62.429; -732.151; -667.728
506.996;  312.249;   90.846;  295.278
507.280;  283.511; -633.165; -474.703
507.563;  201.068; -469.155; -261.721
507.847;   77.458; -423.153; -112.724
508.130;   78.296; -665.161; -456.711
508.413;   96.843; -758.167; -577.700
508.697;  223.818; -151.167;   12.300
508.980;  110.559; -422.153; -312.724
509.263;    4.690; -466.155; -450.720
509.547;   44.382; -124.150;   82.271
509.830;   51.073; -172.160;  140.289
510.113;   74.812;  128.844;  298.281
510.396;   49.615; -530.152; -300.725
510.680;  263.427; -818.145; -812.738
510.963;  944.104;  184.846;  180.277
511.246;  874.140; -493.150; -357.730
511.529;  301.482; -482.145;  -83.739
511.812;  318.475; -250.134;   10.241
512.095;  222.977; -740.151; -396.728
512.378;   62.539; -317.147; -245.736
512.661;   24.197; -703.137; -623.753
512.944;   23.279; -750.142; -637.744
513.227;   77.519; -170.137; -171.752
513.510;   26.840; -479.144; -671.741
513.793;   33.245; -485.140; -435.747
514.076;  133.159;  -43.127;  -39.771
514.359;  116.599; -294.149; -135.732
514.642;   68.057; -442.142; -567.744
514.925;  629.594;  581.860;  561.253
515.208;  835.247; -498.134; -443.758
515.491;  553.735; -276.133; -182.761
515.773;  311.694; -410.143; -337.742
516.056; 1771.378;  249.864;  409.246
516.339; 2454.557; -754.136; -652.755
516.622; 2112.437; -518.150; -488.730
516.904; 1712.350;  882.857;  975.257
517.187;  833.368; -730.138; -523.752
517.470;  418.974; -568.143; -510.743
517.752;  378.610; -624.136; -470.756
518.035;  296.256; -708.139; -725.749
518.318;  297.507; -799.136; -744.755
518.600; 1974.189; -300.132; -325.762
518.883; 2718.406;  310.858;   88.256
519.165; 1362.586; -585.138; -426.751
519.448;  435.389;  -61.132;  -19.762
519.730;  229.516; -573.126; -415.773
520.013;  375.132;  588.867;  664.240
520.295; 1182.202;  -94.134;  -15.759
520.578; 2694.501; -335.131; -305.764
520.860; 2930.989; -254.132;   56.238
521.143; 1456.062; -763.135; -584.756
521.425;  484.754; -251.125; -279.775
521.707;  614.784; -622.127; -380.771
521.990; 1486.384; -199.127;  167.229
522.272; 1732.872; -116.140;   -4.748
522.554;  884.369; -237.143; -157.742
522.836;  505.325;  -24.134;   99.241
523.119;  266.307; -496.148; -189.734
523.401;  173.683; -448.130; -314.766
523.683;   76.847; -865.137; -693.753
523.965;  247.741;  408.862;  260.248
524.247;  234.099;   54.878;  170.220
524.529;  196.052; -451.134; -367.759
524.812;  342.285;   -3.130;  191.234
525.094;  716.465; -773.138; -631.751
525.376; 1119.288; -143.124;   78.223
525.658;  698.304; -441.136; -339.754
525.940;   20.348; -805.131; -671.764
526.222;   40.108; -188.136;  -88.755
526.504;  139.446; -190.131;   32.237
526.786;  289.454; -960.133; -647.760
527.068;  431.243; -124.123;  -67.778
527.349;  226.676; -865.137; -774.754
527.631;  143.113; -137.132;   22.238
527.913;  119.183; -664.127; -450.771
528.195;  121.922; -761.125; -639.774
528.477;  211.222;  -93.134;  -30.758
528.759;   95.560; -648.130; -522.766
529.040;   45.667; -569.123; -293.778
529.322;   56.374; -235.125;  -10.774
529.604;  159.462;  -47.130;   93.233
529.886;  177.566; -546.126; -302.773
530.167;  149.154;  232.870;  192.235
530.449;   38.239;    1.853;   63.265
530.731;   20.049; -572.122; -459.779
531.012;   54.994; -513.120; -216.784
531.294;   72.782; -118.116;  -43.792
531.575;  131.679;  290.875;  538.225
531.857;   37.692; -548.135; -266.757
532.138;   87.415; -113.141;   40.254
532.420;  219.038;  294.865;  403.244
532.701;  286.807; -722.133; -751.760
532.983;  420.460;  232.867;  182.239
533.264;  145.939; -243.126;  175.228
533.546;  -18.017; -491.136; -508.755
533.827;   53.603;  173.867;   -1.759
534.109;   81.692; -352.135;  -80.757
534.390;  135.517; -725.132; -582.762
534.671;  283.738; -270.135;  -82.756
534.953;  136.594; -751.123; -611.779
535.234;   31.292; -426.117; -255.789
535.515;  -78.848; -891.119; -735.785
535.796;  -20.421; -431.128; -193.770
536.078;  -96.338;-1050.124; -904.777
536.359;    4.895;  -22.123;    3.221
536.640;    3.798; -480.125; -197.774
536.921;  164.767;  225.871;  143.232
537.202;  319.012;  -87.138;  -16.751
537.483;  393.276;  251.869;  377.236
537.764;  140.929;   17.870;   98.235
538.045;  -29.754; -543.134; -371.758
538.326;  -25.006; -596.129; -447.768
538.607;   10.685; -686.127; -476.771
538.888;  136.060;   98.879;    5.218
539.169;  159.355; -704.122; -535.781
539.450;  317.766;  236.871;   16.233
539.731;  216.139; -361.121; -182.783
540.012;  133.069;  199.880;  412.216
540.293;   94.282;   82.876;  158.224
540.574;   14.677; -895.113; -717.796
540.855;  488.237;  435.879;  377.218
541.136;  513.752;   47.878;  139.220
541.416;  268.460; -161.130; -220.766
541.697;  157.247; -274.131; -170.763
541.978;  882.240; -270.135; -315.757
542.259; 1123.535; -211.127; -236.771
542.539;  540.651; -191.116; -186.790
542.820;  192.528;  461.875;  480.225
543.101;  146.728;  -52.145;  -77.738
543.381;   35.659; -638.127; -591.771
543.662;  249.257;  159.873; -254.771
543.942;  488.880; -751.127; -830.770
544.223;  905.829;  193.878;  161.219
544.504;  561.237; -275.124; -182.777
544.784;  502.466; -592.126; -408.773
545.065; 1428.505;  104.884; -254.791
545.345; 1728.552;  227.881;   14.215
545.626; 1092.277;  -14.113; -108.796
545.906;  741.578;   77.869;   98.235
546.186;  301.520;   92.874;  -95.773
546.467;  187.589;   99.877;  -95.778
546.747;  285.826;  264.884;  327.210
547.027;  310.986;   91.876;  111.223
547.308;  270.055; -376.127; -530.770
547.588;  342.545;  299.871;  371.232
547.868;  181.329;  458.870;  588.235
548.149;  184.437;  609.885;  593.207
548.429;   86.958; -347.127; -299.771
548.709;  144.519; -645.120; -461.784
548.989;  396.087;   84.882;   88.213
549.269; 1744.837;   10.868;  139.239
549.550; 4021.343;  215.877;  117.222
549.830; 3577.619; -758.111; -556.799
550.110;  698.751; -468.110; -320.801
550.390;  702.999; -128.122;  -56.779
550.670;  937.122; -868.114; -783.795
550.950;  680.912; -509.121; -471.782
551.230;  170.833;  549.879;  460.218
551.510;  -17.889; -381.121; -326.782
551.790;   22.409; -173.109; -127.803
552.070;  242.414;  940.877; 1181.223
552.350;  323.806; -492.119; -377.786
552.630;  484.481;   -2.121;   77.219
552.909;  244.180;  181.884;   73.209
553.189;  208.843;  -49.132;   33.237
553.469;  152.081; -703.119; -514.786
553.749;  147.761; -469.127; -357.772
554.029;  126.097;   33.883;  -24.790
554.308;  126.966; -154.115;  -37.794
554.588;   40.503; -196.128; -204.770
554.868;   57.138; -366.121;  -47.782
555.147;  116.338; -114.115;  -46.793
555.427;  477.707; -260.116; -250.792
555.707; 3225.511; -284.115; -200.793
555.986; 3895.647; -719.111; -538.800
556.266; 1998.075;   23.884;   72.210
556.546;   78.536; -888.121; -675.782
556.825;  221.195; -657.114; -556.794
557.105; 1479.476; -125.128;   17.230
557.384; 1741.879;  122.884;  187.209
557.664;  641.332; -717.116; -508.792
557.943;   83.112; -557.121; -411.782
558.222;  122.765; -345.118; -344.788
558.502;  227.590; -116.115;  -76.793
558.781;  425.810;  194.885;  499.208
559.061;  326.789; -232.118; -227.788
559.340;  256.169;  302.883;  353.211
559.619;  559.525;   93.884;  148.210
559.899;  817.146; -239.117; -266.789
560.178;  749.939; -778.115; -593.793
560.457; 2561.573; -623.117; -562.790
560.736; 3602.249; -472.111; -482.800
561.015; 2373.349; -500.128; -502.769
561.295;  326.954;  180.893;  215.193
561.574;  326.387;  119.885;  116.207
561.853;  464.588;  274.891;  303.197
562.132;  394.567;  -45.114;  182.206
562.411;  358.682;  396.879;  553.219
562.690;  104.960; -592.115; -458.792
562.969;  125.259;  472.888;  630.203
563.248;  480.079; 2966.878; 2487.219
563.527;  207.248; -290.111; -408.800
563.806;  297.633; -650.127; -521.771
564.085;  341.818; -297.105; -206.810
564.364;  195.924; -594.117; -405.790
564.643;  394.057; -276.121; -223.781
564.922; 1565.332;  221.890;  397.198
565.201; 1517.436; -640.109; -700.803
565.479;  660.134; -297.115; -219.792
565.758;  257.077; -810.128; -712.770
566.037;  399.587; -155.109; -100.803
566.316;  203.304; -286.116;  -28.791
566.595;   36.436;  -17.115;  -12.793
566.873;   92.100; -166.111;  -79.801
567.152;  -59.067; -490.113; -590.797
567.431;   -1.749; -113.116;    6.210
567.709;    9.979; -344.107; -212.807
567.988;  197.845; -810.114; -769.794
568.266;  469.011; -160.115;  -68.793
568.545;  313.039; -644.100; -514.819
568.824;  467.658;  160.885;  356.208
569.102;  421.745; -351.114; -235.794
569.381;  156.932; -492.116; -407.792
569.659;  -53.571; -553.113; -553.796
569.938;   21.278; -743.122; -465.780
570.216;   76.965; -225.109; -225.804
570.494;  -25.577; -632.114; -572.795
570.773;   35.936;  202.879;  114.218
571.051;    9.467; -373.123; -357.778
571.330;   30.327; -221.113; -174.796
571.608;   33.057; -181.098; -173.823
571.886;  -72.758; -671.111; -581.799
572.164;  -69.412; -739.121; -621.782
572.443;  -54.678; -562.105; -512.811
572.721;  -38.727; -399.117; -289.790
572.999;  -25.634; -280.117; -168.788
573.277;   93.066;  379.894;  620.191
573.555;  227.368;   94.894;   37.190
573.834; 1086.666;  -86.117; -114.788
574.112; 1284.356;  880.893;  811.193
574.390;  407.524; -143.111;  -96.801
574.668;    8.284;  -91.112;  -61.797
574.946;  -13.457; -165.106; -187.810
575.224;    4.536;   71.891;  -16.803
575.502;  -26.998; -200.116; -204.791
575.780;  -84.815; -767.112; -829.798
576.058;  229.973; 1589.889; 1004.200
576.336;  -24.471; -210.110; -129.801
576.614;  -47.089; -511.112; -340.798
576.891;   22.016; -711.115; -823.794
577.169;  385.022; -158.108; -285.805
577.447;  472.430;  169.893;  202.193
577.725;  240.790;  629.888;  854.201
578.003;   19.113;  -71.112; -371.798
578.280;   88.056; -208.104; -242.812
578.558;   62.240; -450.115; -422.793
578.836;  153.173; -210.114; -145.795
579.114;   45.784; -630.112; -670.797
579.391;   71.268;   -6.117;  -18.789
579.669;  -81.683; -595.114; -704.794
579.947;  145.502; -326.107; -127.806
580.224;  249.877; -692.107; -524.806
580.502;  259.606;  127.893;   76.193
580.779;    9.324;  -42.117;   75.210
581.057;  -71.285; -584.109; -470.804
581.334; -108.480; -726.102; -695.815
581.612;   38.619;   54.895;  511.190
581.889;  -42.967;  -83.101; -129.818
582.167;  -34.728; -298.099; -190.821
582.444; -102.147; -845.102; -814.817
582.721;   98.179;  657.899;  715.183
582.999;   31.770; -326.100; -167.821
583.276;  411.946; -812.123; -713.779
583.553;  559.748; -364.102; -294.816
583.831;  170.378; -607.104; -631.812
584.108;   43.695;  349.892;  174.195
584.385;   -0.955; -122.102;  -98.815
584.662;  -70.675; -651.111; -828.801
584.940;   22.649;  204.889;  204.199
585.217;  -21.721;  -73.113; -303.796
585.494;   42.033;   71.890;  118.198
585.771;  175.616; -250.109; -354.804
586.048;  422.829; -196.113;  -76.796
586.325;  263.378; -721.110; -773.801
586.602;   78.456;  230.896;  213.188
586.879;  -29.309; -499.100; -580.820
587.156;   46.269; -156.105; -331.810
587.433;  -55.699; -701.102; -667.817
587.710;   60.461;  152.888;  234.202
587.987;  248.500; -264.105; -236.811
588.264;  698.638;  315.888;  387.202
588.541; 1165.609;  -61.104;   26.187
588.818; 2345.143;   72.892;  171.196
589.095; 1990.754; -163.104; -174.812
589.371;  323.464; -459.109; -414.804
589.648;   -9.894; -581.107; -437.807
589.925;   31.849; -517.114; -621.795
590.202;   -6.389; -741.112; -607.798
590.478;   66.576; -166.105;  -73.811
590.755;  215.724; -241.108; -132.806
591.032; 2022.755; -741.110; -699.802
591.308; 2801.471; -732.094; -790.831
591.585; 1442.479; -573.110; -560.802
591.862;  103.127;-1056.102; -950.817
592.138;   38.096; -475.108; -474.805
592.415;  102.007; -486.104; -495.813
592.691; 1256.480;  460.896;  518.188
592.968; 1605.709; -208.098; -123.824
593.244;  789.626; -695.116; -595.790
593.521;   59.253; -105.102;  -42.817
593.797;  -18.700; -810.122; -720.780
594.074;  272.196; -611.096; -588.826
594.350;  576.082;  828.905;  729.172
594.626;  240.225; -303.111; -283.801
594.903;   82.228; -643.101; -645.817
595.179;  153.511;  243.896;  418.187
595.455;   14.057; -136.107; -150.807
595.731;   -6.288;  -19.103;  -38.814
596.008;  -35.905; -464.111; -434.800
596.284;   25.168; -187.100; -242.820
596.560;   47.727; -501.093; -493.833
596.836;  159.271; -173.105;  -70.810
597.112;  292.772; -582.108; -437.805
597.388;  239.619;  -49.097;  -48.826
597.665;  108.332;  437.887;  530.203
597.941;  -80.469; -572.089; -658.839
598.217;    6.233; -323.110; -293.802
598.493;  221.142;   61.891; -204.804
598.769;  434.838; -175.100;  -50.819
599.045;  255.400; -490.108; -562.806
599.321;   33.042; -193.100; -261.820
599.597;   99.317; -355.109; -476.804
599.872;  409.183;  409.896;  429.187
600.148;  297.120;  -61.097; -172.826
600.424;  246.080;   91.893;  202.193
600.700;  178.157; -170.107; -280.807
600.976;   89.565; -442.097; -464.825
601.252;  189.413; -226.109; -272.803
601.527;  160.584; -833.104; -840.813
601.803;  106.252; -453.105; -404.812
602.079;  156.513; -124.100; -118.819
602.354;  464.612; -620.092; -531.835
602.630;  695.929; -140.113; -482.796
602.906; 1886.808; -910.101; -863.818
603.181; 5571.031; -627.119; -534.786
603.457; 4732.293;   98.903; -278.826
603.733;  673.365; -605.120; -626.783
604.008;  788.943; -245.106; -164.810
604.284; 2594.380; -636.101; -580.817
604.559; 2279.365;   -3.112;  -42.799
604.835;  396.921; -163.105; -225.810
605.110;  320.048; -732.099; -892.821
605.385;  590.255;  224.907;  267.167
605.661;  504.184; -625.095; -729.829
605.936;  944.600; -664.108; -737.806
606.211;  793.519;  -17.103; -170.815
606.487;  153.744; -329.114; -376.794
606.762;   -5.719; -791.119; -745.786
607.037;  -31.379; -501.105; -433.810
607.313;  -61.622; -589.096; -574.828
607.588;   -9.732; -375.106; -137.810
607.863;   28.433;  -28.101; -143.818
608.138;  146.207;  513.890;  516.198
608.413;    0.176; -576.099; -592.822
608.688;   20.647; -203.108; -267.805
608.964;  151.837; -509.106; -218.809
609.239;  181.369; -107.105; -212.810
609.514;  202.927;  281.895;  240.188
609.789;  530.256; -187.104; -716.812
610.064;  730.777; -435.096; -609.827
610.339;  699.064; -855.109; -799.804
610.614;  929.068; -131.100; -315.820
610.889;  520.852;  215.895;  107.188
611.163;   16.102; -407.104; -591.812
611.438;   70.520;   81.886; -167.794
611.713;  -19.645; -467.101; -499.817
611.988;   23.982; -144.101; -328.818
612.263;  -37.080; -771.102; -717.815
612.538;  172.628;  385.887;  251.204
612.812;  131.719; -832.100; -911.820
613.087;   91.006; -358.098; -338.823
613.362;  -60.893; -497.107; -557.807
613.637;   37.815;  261.897;  138.186
613.911;  -12.113; -256.092; -345.835
614.186;   85.305; -249.107; -292.807
614.460;  505.754; -842.081; -758.854
614.735;  633.454;  -55.087;  -17.843
615.010;  127.844;   43.912;  -82.841
615.284;  206.396;  360.892;  246.195
615.559;  305.461; -792.092; -955.835
615.833;  244.225;  -76.099;  -87.822
616.108;   -6.002; -225.090; -390.837
616.382;  115.405;  274.913;  402.156
616.656;  121.448; -241.090; -232.837
616.931;  403.925; -785.099; -700.822
617.205;  870.760; -973.104; -979.813
617.480;  821.127;  -91.125;    6.225
617.754;  111.249; -396.125; -128.774
618.028;    5.970; -369.129; -382.768
618.302;   50.820;   73.892;  -25.805
618.577;  -58.284; -371.103; -518.815
618.851;  -67.315; -399.109; -600.803
619.125;  -53.323; -335.134; -378.759
619.399;  -25.865; -244.104; -374.813
619.673;  -54.492; -330.115; -515.792
619.947;  -59.702; -333.114; -448.795
620.222;   -6.974; -198.110; -204.801
620.496;  -15.087;  -47.121;  -96.782
620.770;   18.354; -187.122;  -93.781
621.044;  184.969;  323.895;  346.190
621.318;  618.815; -653.120; -614.783
621.592;  537.763; -430.121; -409.783
621.866;  279.041; -476.112; -572.799
622.140;    3.202; -207.116; -356.791
622.413;   43.120;  138.889;  112.200
622.687;  -44.220; -746.101; -492.817
622.961;    3.645; -130.108; -143.805
623.235;  -72.404; -633.111; -661.800
623.509;  -97.599; -816.105; -848.811
623.783;    0.678;  -12.107;   48.193
624.056;  -19.234; -254.120; -280.783
624.330;   32.784;   63.888;   -3.797
624.604;   35.949; -271.116; -355.790
624.877;   58.756;  180.890;   26.198
625.151;   23.117; -249.114; -238.794
625.425;  -33.763; -150.103; -283.814
625.698;  -68.424; -367.119; -374.785
625.972;  -98.192; -799.110; -765.802
626.245;   61.876;  685.884;  484.210
626.519;  -47.780; -426.120; -340.784
626.792;  -39.768; -192.107; -380.807
627.066;  -99.002; -485.122; -662.779
627.339;  -95.371; -736.110; -663.802
627.613;   33.119;  351.880;  148.216
627.886;   46.760;  187.891; -612.803
628.160;   -9.035;  312.880; -161.783
628.433;  -87.121; -695.125; -703.775
628.706;  -75.480; -517.120; -615.784
628.979;   36.086;  296.876;  117.223
629.253; -106.895; -785.119; -833.786
629.526;  271.339; -334.126; -253.772
629.799;  246.918; -641.123; -479.778
630.072;  122.472; -497.128; -516.769
630.346;  -82.649;-1115.116;-1080.790
630.619;  358.958; -467.107; -545.808
630.892;  538.446;  709.889;  593.200
631.165;  280.085;  790.896;  679.187
631.438; -102.587;-1092.112;-1055.798
631.711;   60.421;  453.877;  257.221
631.984;  -78.154; -523.117; -624.789
632.257;  -61.332; -636.117; -681.789
632.530;  -58.024; -412.119; -433.785
632.803;   12.840; -109.115;    7.207
633.076;  -63.486; -360.123; -422.777
633.349;    6.851;  173.872;  121.231
633.622;  -36.075; -187.119; -240.785
633.895; -122.109; -903.120; -823.783
634.167;  -68.559; -496.126; -525.773
634.440;   -1.818;  -19.116; -137.792
634.713;   -6.721;  -22.119; -120.786
634.986;   85.866;  593.871;  453.233
635.258;  -89.561; -507.115; -597.793
635.531;  107.089;  742.882; -343.788
635.804;  -30.230; -303.117; -318.789
636.077;  -86.672; -830.116; -852.791
636.349;  -23.313; -586.115; -474.793
636.622;  360.288; 1695.874; 1392.228
636.894;  170.596; -474.120; -909.784
637.167;  102.808; -836.127; -789.771
637.439;    8.654; -278.128; -213.770
637.712;  -38.285; -312.126; -293.772
637.984; -106.621; -635.116; -707.791
638.257;  332.215;  515.877;  488.222
638.529;  491.155; -881.125; -924.776
638.802;  210.747; -508.128; -449.769
639.074; -120.946; -927.122; -952.781
639.346; -122.181; -942.135; -930.757
639.619;   10.955;  -79.142; -319.744
639.891;   -8.177;  -83.122; -168.779
640.163;  -79.626; -689.122; -756.780
640.435;   38.901;  273.878;  103.220
640.708;   -7.422;  -72.122; -132.780
640.980;  -30.770; -366.122; -362.781
641.252;  157.657;  -25.121;  -71.781
641.524; 1623.183;  580.879;  573.219
641.796; 1634.960;-1094.121; -907.782
642.068;  306.837; -191.121; -300.782
642.340;  -51.811; -486.121; -566.783
642.613;   46.940;  294.880;  323.217
642.885;  -91.333; -787.120; -878.783
643.157;  -55.831; -810.120; -658.784
643.428;   32.246;  170.880;  218.216
643.700;  -67.477; -498.120; -425.784
643.972;  -34.251;  -16.119; -133.785
644.244;  -78.274; -474.119; -559.785
644.516;  -49.147; -250.119; -114.786
644.788;   56.280;  662.881;  548.214
645.060;  -16.393;  -12.119; -124.786
645.332;  -91.742; -525.118; -535.787
645.603;   22.160;  479.882;  342.213
645.875;  -68.163; -334.118; -369.787
646.147;  146.639; 1487.882; 1242.212
646.418;  -77.210; -931.117; -918.788
646.690;   75.892; -714.117; -715.789
646.962;    7.969; -413.117; -451.789
647.233;   -8.304;   15.883;   11.211
647.505; -101.777; -595.117; -475.790
647.776;   10.324;  328.884;  229.210
648.048;   -5.199; -248.116; -418.790
648.320;  -76.497; -752.116; -679.791
648.591; -154.395;-1055.116; -958.791
648.862;  -97.318; -505.116; -577.792
649.134;   19.458;  115.885;  198.208
649.405;  -62.040; -661.115; -618.792
649.677;  -57.863; -475.115; -598.793
649.948;  -29.761; -181.115; -296.793
650.219;   -2.885;  -37.115; -147.793
650.491;  -82.508; -431.114; -520.794
650.762; -111.031; -705.114; -731.794
651.033;  -75.954; -437.114; -424.795
651.304;  -96.002; -743.114; -728.795
651.576;  -76.601; -680.114; -645.795
651.847;  -37.524; -250.113; -140.796
652.118;  -25.747;  -32.113; -189.796
652.389;  -98.520; -639.113; -722.796
652.660;  -36.018; -147.113;  -89.797
652.931; -134.917; -897.112; -871.797
653.202;  -88.715; -382.112; -541.798
653.473;  -64.563; -633.112; -533.798
653.744;  127.339; -595.112; -590.798
654.015;  109.215; -356.112; -303.799
654.286;  -78.033; -642.111; -663.799
654.557;  -50.406; -586.111; -521.799
654.828; -164.679;-1114.111;-1088.800
655.099;  -70.427; -404.111; -291.800
655.370;  -95.501; -427.111; -543.801
655.641; -113.474; -656.110; -714.801
655.911; -115.222; -618.110; -638.801
656.182;   52.130;  437.890;  387.198
656.453;  107.607;  830.890;  746.198
656.724;  -72.542; -466.110; -426.802
656.994;  -99.215; -553.109; -568.803
657.265; -108.613; -862.109; -873.803
657.536;  -82.861; -500.109; -377.804
657.806; -101.634; -561.109; -593.804
658.077; -136.683; -866.109; -950.804
658.347;  -80.931; -523.108; -598.805
658.618; -112.729; -646.108; -694.805
658.888;  -21.777;  -41.108;  112.195
659.159;  -87.826; -432.108; -548.806
659.429;  -24.499; -292.108; -349.806
659.700;    0.878; -435.107; -390.807
659.970;  -20.820; -370.107; -359.807
660.241;   -2.143; -754.107; -921.807
660.511;  434.658; -147.107; -174.808
660.781;   64.585; -793.106; -748.808
661.052;  -40.088; -222.106; -381.808
661.322;  -25.311;   21.894;   -9.809
661.592;    4.616;  257.894;  148.191
661.862;  -85.858; -369.106; -382.810
662.133;  -92.206; -551.105; -502.810
662.403; -115.029; -770.105; -676.810
662.673;  -56.852; -256.105; -213.811
662.943; -112.001; -612.105; -551.811
663.213;   -6.499;  -85.105;  -81.811
663.483;  -93.022; -593.104; -568.812
663.753;  -45.095; -194.104; -152.812
664.023;  -10.168;   68.896;  -32.813
664.293;  -63.442; -319.104; -126.813
664.563; -110.790; -694.104; -648.813
664.833; -115.413; -743.103; -608.814
665.103; -131.586; -730.103; -793.814
665.373; -104.434; -766.103; -806.814
665.643;  -91.483; -863.103; -918.815
665.913;   27.794; -534.103; -714.815
666.182;  117.221; -685.102; -719.816
666.452;  234.123;  -22.102;  -89.816
666.722;  -52.226; -724.102; -784.816
666.992; -118.299; -948.102; -921.817
667.261;  -98.797; -824.102; -808.817
667.531;  183.180;  134.899;   45.183
667.801;  513.007; -440.101; -412.818
668.070;  239.908;  714.899;  697.182
668.340; -111.815; -883.101; -840.819
668.609;   85.912;  588.900;  301.181
668.879;  -82.961; -490.100; -558.819
669.149;  -68.209; -539.100; -516.820
669.418; -107.733; -698.100; -726.820
669.688;  -43.631; -482.100; -666.820
669.957;   44.321; -423.099; -546.821
670.226;  -16.952; -268.099; -331.821
670.496;  -87.101; -431.099; -635.822
670.765;  -79.024; -418.099; -501.822
671.034; -152.347; -872.099; -828.822
671.304;  -15.370;   55.902; -111.823
671.573; -154.468;-1085.098; -957.823
671.842;   61.208; -380.098; -294.823
672.112;    1.360; -692.098; -586.824
672.381;   -7.513; -239.098; -214.824
672.650; -141.411;-1005.097;-1021.825
672.919;  -97.884; -631.097; -507.825
673.188; -102.158; -681.097; -878.825
673.457; -150.556;-1101.097;-1143.826
673.726;  -91.029; -579.096; -646.826
673.995;  -35.952; -533.096; -479.826
674.265;  -40.525; -263.096; -333.827
674.534;   -7.199; -183.096; -235.827
674.802;  -17.947; -618.096; -703.828
675.071;  797.605; -886.095; -801.828
675.340; 3248.132; -464.095; -339.828
675.609; 1071.733;  103.905;   82.171
675.878;   42.010; -949.095; -893.829
676.147;   28.087;  -26.095;   -8.829
676.416;   55.664; -210.094; -294.830
676.685;  623.516; 1000.906; -622.830
676.953;   79.742; -603.094; -452.831
677.222;  -22.856; -193.094; -273.831
677.491;  -33.154;  -24.094; -127.831
677.759;   -4.777;   11.907;  172.168
678.028;  -27.875; -279.093; -222.832
678.297;   -9.274;   71.907;  197.168
678.565; -144.672; -898.093; -944.833
678.834;  -45.520; -311.093; -268.833
679.102;  -66.793; -411.092; -391.834
679.371; -145.717; -898.092; -727.834
679.639; -133.440; -797.092; -786.834
679.908; -110.763; -794.092; -724.835
680.176; -153.611; -895.091; -941.835
680.445;  -77.084; -346.091; -352.835
680.713;  -24.433;  -58.091;  -23.836
680.982;  -77.081; -523.091; -525.836
681.250; -108.604; -578.091; -507.837
681.518; -104.327; -534.090; -751.837
681.787;  -30.225; -204.090; -167.837
682.055;  -69.749; -490.090; -422.838
682.323; -145.197; -993.090; -992.838
682.591;    9.855; -216.090; -538.838
682.859;   49.332;    9.911;  -35.839
683.128;   13.183;  232.911;  497.161
683.396; -162.140;-1102.089;-1122.840
683.664;  -52.913; -241.089;   21.160
683.932;    3.214;  144.911;  -76.840
684.200;  -81.209; -576.088; -320.841
684.468;  -35.008;  -73.088; -124.841
684.736;  -32.781; -214.088; -175.841
685.004; -133.229;-1024.088; -982.842
685.272;  -61.777; -880.088; -774.842
685.540;  -73.375; -499.087; -557.843
685.808;  -79.099; -651.087; -682.843
686.076; -106.547; -894.087; -969.843
686.343;  -65.370; -601.087; -815.844
686.611;   23.982; -195.087; -224.844
686.879;  366.408; -530.086; -553.844
687.147; 2787.085; -483.086; -480.845
687.414;  809.587;  -12.086; -169.845
687.682;  -16.736; -658.086; -757.846
687.950;  263.341;  259.915;  263.154
688.217;    1.492; -792.085; -760.846
688.485;  -25.031; -632.085; -636.847
688.753;  430.196;  -11.085; -102.847
689.020;  103.073; -820.085; -851.847
689.288; -109.125; -853.084; -787.848
689.555;  -32.849; -195.084; -148.848
689.823;  -50.497; -241.084; -345.849
690.090;  -86.820; -546.084; -651.849
690.358; -163.218; -877.084; -897.849
690.625;   13.858;  120.917;   45.150
690.892;  -84.290; -403.083; -369.850
691.160;   -4.713;   72.917;  -35.850
691.427;  -15.011;  141.917;  130.149
691.694; -140.609; -855.083; -929.851
691.962; -155.383;-1177.082;-1060.852
692.229;   22.869;  127.918;   56.148
692.496;   61.171;  130.918;  -49.852
692.763;   -0.827; -164.082; -201.853
693.031;  -87.350; -739.082; -716.853
693.298;  -50.724; -509.081; -368.853
693.565;  232.103; -155.081; -163.854
693.832; 1066.030;   -5.081;   -9.854
694.099;  110.807; -643.081; -642.855
694.366;  -78.616; -882.081; -896.855
694.633;  -59.440; -920.080; -633.855
694.900;  727.112; 4367.920; -114.856
695.167;  366.214; -214.080; -380.856
695.434;   87.841; -646.080; -623.856
695.701;  179.442;  121.921;  -61.857
695.968;  419.944; -365.079; -361.857
696.234;  917.596; -415.079; -646.858
696.501;10150.648; -776.079; -614.858
696.768; 5294.600; -554.079; -617.858
697.035;  297.951; -632.078; -667.859
697.302;   27.103; -448.078; -552.859
697.568;    6.430; -458.078; -497.859
697.835;  -42.693; -683.078; -624.860
698.102;  -23.816; -498.078; -407.860
698.368;   57.410;  384.923;  396.139
698.635;  -35.288;  -47.077; -424.861
698.901;  -21.386; -240.077; -348.861
699.168;   40.266; -534.077; -456.862
699.435;   52.817;  -72.077;  -13.862
699.701; -111.006; -868.076; -764.862
699.968;    3.521;  144.924; -441.863
700.234;  -91.452; -783.076; -822.863
700.500;  -58.275; -448.076; -539.864
700.767;    6.676;   -1.075;   26.136
701.033; -124.472;-1015.075; -963.864
701.299;  -47.845; -450.075; -483.865
701.566;  106.932;  950.925;  763.135
701.832;   22.259;  -31.075;  -76.865
702.098; -104.440;-1054.074;-1034.866
702.365;  -79.663;-1098.074;-1030.866
702.631;  -39.186;-1038.074;-1063.867
702.897; 1195.341; -765.074; -676.867
703.163; 2038.367;  348.926;  254.133
703.429;  160.619; -256.073; -273.868
703.695;  -49.529; -796.073; -792.868
703.961;   24.973; -214.073; -210.868
704.227;  -74.350; -630.073; -725.869
704.493;  134.651;  613.927;  510.131
704.759;  -18.597; -565.072; -540.870
705.025;   27.905; -203.072; -194.870
705.291;   -4.818; -666.072; -562.870
705.557;  193.334;  719.928;   34.129
705.823;   39.035; -742.072; -694.871
706.089;  147.087; -307.071; -326.871
706.355;  359.064; -315.071; -244.872
706.620; 5793.766; -776.071; -729.872
706.886; 8050.367; -309.071; -362.873
707.152;  701.094; -818.070; -973.873
707.418;  -25.854;-1153.070;-1186.873
707.683;   -5.902; -550.070; -530.874
707.949;  -45.450; -547.070; -578.874
708.215;    6.326; -129.070; -207.874
708.480;  -25.897; -520.069; -420.875
708.746;   91.455;   68.931;   28.125
709.011;  -77.718; -578.069; -612.876
709.277;  -70.666; -538.069; -543.876
709.542;  -54.465; -428.069; -387.876
709.808;   -6.463;  -59.068;   89.123
710.073;  -91.311; -577.068; -695.877
710.339;  -32.334; -242.068; -228.877
710.604;   54.393; -780.068; -845.878
710.869;  308.144; -277.068; -366.878
711.135;  -81.004; -715.067; -628.879
711.400;  -83.527; -507.067; -608.879
711.665;  -64.050; -404.067; -479.879
711.931;  -74.999; -661.067; -677.880
712.196; -120.847; -876.067; -954.880
712.461;   76.980; -402.066; -490.880
712.726;   89.357; -727.066; -771.881
712.991;  -85.166; -647.066; -664.881
713.256;  -43.590; -350.066; -332.882
713.521;  -48.613; -417.065; -381.882
713.787;  -75.861; -454.065; -472.882
714.052;  -18.659; -214.065; -400.883
714.317;  -93.207;-1045.065; -981.883
714.581; 1061.769; -374.065; -268.883
714.846; 1477.296; -822.064; -888.884
715.111;  154.148;  261.936;  257.116
715.376;  -26.375;  -86.064; -223.885
715.641;  -10.924; -365.064; -367.885
715.906;  234.353;   15.936; -551.885
716.171;  127.755;  221.937;  209.114
716.436;   30.507;  -78.063; -104.886
716.700; -114.116; -818.063; -692.886
716.965; -136.665; -794.063; -807.887
717.230;  -67.888; -339.063; -392.887
717.494;  -25.936;  -40.062; -134.888
717.759;  -88.659; -784.062; -640.888
718.024;    2.643;  269.938;  250.112
718.288;   87.569;  685.938;  395.111
718.553; -149.629; -803.062; -977.889
718.817; -145.027; -883.061; -899.889
719.082;  -35.150; -115.061; -125.890
719.346; -133.624;-1000.061; -947.890
719.611;  -50.472; -300.061; -255.891
719.875;  -91.670; -568.060; -537.891
720.140;  -74.068; -453.060; -603.891
720.404;   30.734; -136.060; -249.892
720.668;  707.485; -475.060; -411.892
720.933;  279.112;  146.940;  137.108
721.197;  -96.961; -667.059; -600.893
721.461; -127.559; -851.059; -826.893
721.725;  -16.907;  -21.059; -250.894
721.990;  -56.906; -284.059; -204.894
722.254;  -37.479;  -26.059; -108.894
722.518;  -67.552; -286.058; -442.895
722.782; -100.425; -743.058; -594.895
723.046;  125.326;  614.942;  570.105
723.310;   15.778;  374.942;  210.104
723.574;  -94.120; -654.058; -614.896
723.838; -117.968; -576.057; -642.897
724.102;  -54.916; -226.057; -239.897
724.366; -139.915;-1032.057; -978.897
724.630;  -79.588; -749.057; -571.898
724.894;  -78.161; -722.057; -514.898
725.158;   -7.459;   38.944; -295.898
725.422;  -54.532; -394.056; -327.899
725.685;  -63.081; -441.056; -349.899
725.949;  -86.779; -566.056; -519.900
726.213;  -63.502; -732.056; -811.900
726.477;  112.725;-1020.055; -933.900
726.740;  134.376; -274.055; -104.901
727.004;  301.878; -384.055; -510.901
727.268; 3363.705; -442.055; -400.901
727.531;  980.407; -961.055; -775.902
727.795;  -32.891; -713.054; -673.902
728.059;  -53.940; -552.054; -557.903
728.322;  -67.888; -841.054; -669.903
728.586;   16.264; -692.054; -701.903
728.849;  -80.834; -695.053; -756.904
729.112; -116.282; -812.053; -912.904
729.376; -116.981; -959.053; -905.904
729.639;  -73.554; -536.053; -536.905
729.903; -101.127; -733.053; -699.905
730.166;  -47.400; -437.052; -399.906
730.429;  -37.448; -317.052; -468.906
730.693;  -71.997; -355.052; -894.906
730.956;  187.380;  810.948;  651.093
731.219;  606.607; -310.052; -103.907
731.482;   81.609;-1003.051; -894.907
731.745;   65.285; -794.051; -935.908
732.009;   12.862;  -30.051;   50.092
732.272;  -96.136; -904.051; -771.909
732.535;  -48.009; -300.051; -310.909
732.798; -157.907;-1083.050;-1166.909
733.061;  -63.631; -430.050; -456.910
733.324;    9.546;   31.950; -180.910
733.587;   66.323;  290.950;  365.090
733.850;  -79.175; -973.049;-1050.911
734.113;   16.102;   33.951;   32.089
734.376;  -19.572; -328.049; -447.912
734.639;  208.455; 1188.951; 1011.088
734.901;   48.582; -180.049; -402.912
735.164;  412.209; -883.048; -837.913
735.427; 1169.610; -166.048; -355.913
735.690;  113.512; -205.048; -234.913
735.952;  -44.236; -923.048; -925.914
736.215;  -39.134;-1113.048;-1009.914
736.478;   18.368; -771.047; -774.915
736.740;  178.094;   33.953;  129.085
737.003;  549.946; -658.047; -672.915
737.266; 3479.623;  -94.047;   46.084
737.528;  391.450; -682.047; -660.916
737.791;  307.277; -316.046; -327.916
738.053;  755.903;  465.954;  649.083
738.316;10316.530; -162.046; -136.917
738.578; 7574.332; -770.046; -736.918
738.841;  448.634; -382.046; -446.918
739.103;  151.060; -875.045; -777.918
739.365;  458.762;   79.955;  -69.919
739.628;  -13.186; -884.045; -805.919
739.890;  -24.409; -758.045; -710.919
740.152;  -53.182; -692.044; -754.920
740.414;   -7.781; -408.044; -359.920
740.677;  -54.004; -785.044; -634.921
740.939;  -46.677; -587.044; -487.921
741.201;  223.425; -432.044; -572.921
741.463;   21.527; -689.043; -745.922
741.725;    5.328;  -21.043; -199.922
741.987;   55.455;  220.957;  116.078
742.249;  -23.618; -751.043; -859.923
742.511;  178.584; -703.043; -794.923
742.773;    2.760; -546.042; -546.924
743.035;  129.562;  796.958;  533.076
743.297;  -60.661; -963.042;-1013.924
743.559;  683.041; -278.042; -262.925
743.821;   49.168; -735.042; -744.925
744.083;    7.844;  -44.041; -149.925
744.345; -107.454; -869.041; -892.926
744.607;   28.648;   75.959;  122.074
744.868;  -58.225; -490.041; -554.927
745.130; -109.598; -994.041;-1008.927
745.392;   39.078;   -1.040;  -44.927
745.653;  -14.795; -411.040; -378.928
745.915;  131.607;  896.960;  631.072
746.177;   56.784;   35.960;  -43.928
746.438;  -20.939; -428.040; -543.929
746.700;  -53.163; -947.039; -988.929
746.961;   -8.086; -659.039; -740.930
747.223;  133.366; -190.039;  -74.930
747.484;   70.168; -391.039; -471.930
747.746;  137.269;  -23.038; -106.931
748.007;   92.871; -647.038; -689.931
748.269;  268.798; -468.038; -440.931
748.530;  428.675; -852.038; -638.932
748.791;  229.327; -354.038; -420.932
749.053;  387.778;  286.963;  163.067
749.314;  445.680; -236.037; -169.933
749.575;  474.382; -945.037; -905.933
749.836;  790.059; -217.037;   86.066
750.098; 2161.036;  -60.037;  -21.934
750.359;33282.487;  414.964;  555.066
750.620; 8925.314; -121.036; -220.935
750.881;  947.816; -585.036; -513.935
751.142; 1218.718; -950.036; -938.936
751.403;15710.794; -789.036; -705.936
751.664; 7288.246;-1034.035; -999.936
751.925;  474.523; -175.035; -262.937
752.186;  236.550; -298.035; -278.937
752.447;  133.002; -590.035; -445.937
752.708;   40.228; -532.035; -648.938
752.969;   -4.470; -566.034; -576.938
753.230;  -12.568; -777.034; -672.939
753.491;    0.634; -650.034; -631.939
753.751;   55.261;  109.966;   19.061
754.012;   83.412;  258.967;  181.060
754.273;   45.464; -174.033;  -71.940
754.534;   -8.859; -487.033; -580.940
754.794;  -91.307; -926.033; -911.941
755.055;  131.344; 1051.967;  881.059
755.316;  -40.729; -700.032; -566.942
755.576;  -15.627; -606.032; -576.942
755.837;  -52.375; -527.032; -695.942
756.097;  -40.848; -530.032; -564.943
756.358;  -71.422; -725.032; -770.943
756.618;  -54.770; -705.031; -641.943
756.879;  -11.393; -254.031; -349.944
757.139; -114.916;-1098.031;-1116.944
757.400;  -55.889; -538.031; -553.945
757.660;  -15.288; -365.031; -401.945
757.920;   -7.161; -266.030; -228.945
758.181;  -20.684; -468.030; -351.946
758.441;  -93.807; -870.030; -809.946
758.701;  -25.406; -308.030; -215.946
758.961;  -22.129; -220.030; -278.947
759.222;  -35.677; -574.029; -502.947
759.482;  -80.675; -683.029; -723.948
759.742;  -79.748; -706.029; -547.948
760.002;    3.228;  -83.029; -143.948
760.262;   21.255;   50.972;  182.051
760.522;  -53.618; -498.028; -574.949
760.782;  -39.341; -738.028; -612.949
761.042;  -33.914; -618.028; -573.950
761.302;   47.262;   55.972;  -18.950
761.562;   48.889; -164.027; -154.951
761.822;   52.566; -710.027; -551.951
762.082;  -47.282;-1104.027;-1093.951
762.342;   62.945; -328.027; -403.952
762.601;   61.421; -567.027; -506.952
762.861;  332.248; -281.026; -207.952
763.121;  375.500; -406.026; -411.953
763.381; 6929.802; -499.026; -485.953
763.640; 8073.028; -139.026; -307.954
763.900;  363.755; -242.026; -203.954
764.160;   85.107; -458.025; -491.954
764.419;  -10.741; -726.025; -782.955
764.679;  -70.764; -795.025; -726.955
764.939;   -7.413; -124.025; -210.955
765.198;  -80.436; -608.025; -563.956
765.458;  -84.959; -710.024; -612.956
765.717;  -77.907; -454.024; -590.957
765.976;  -49.705; -428.024; -411.957
766.236;  -81.529; -475.024; -610.957
766.495;    7.498;  260.977;   73.042
766.755; -111.675;-1090.023; -987.958
767.014;   -9.698; -594.023; -665.958
767.273;  -67.972; -373.023; -397.959
767.533;  -45.445; -228.023; -307.959
767.792;  -21.543; -151.022; -188.960
768.051;  -44.866; -228.022; -276.960
768.310;  -79.889; -546.022; -650.960
768.569;    5.912; -161.022;    4.039
768.828;  -35.336; -285.022; -363.961
769.088; -127.684;-1050.021; -942.961
769.347;  -77.057; -755.021; -599.962
769.606;  -70.755; -876.021; -857.962
769.865; -116.379;-1016.021;-1033.963
770.124;   -0.377; -411.021; -336.963
770.383;  -53.700; -778.020; -910.963
770.641;   11.877; -398.020; -400.964
770.900;  -64.722; -953.020; -846.964
771.159;  -43.395; -851.020; -951.964
771.418;  -14.968; -917.020; -779.965
771.677;  141.234; -224.019; -293.965
771.936;  147.361; -794.019; -865.966
772.194; 2178.412; -465.019; -437.966
772.453;11524.714; -213.019; -391.966
772.712;  800.091;  416.982;  329.033
772.970;  125.518;   32.982;   63.033
773.229;   97.945;  -22.018;  102.033
773.488;  -78.754; -814.018; -770.968
773.746;   56.223;  296.982;  335.032
774.005;    0.900;  190.983;  -22.969
774.263;   17.177;  243.983;  177.031
774.522;  -51.972; -422.017; -548.969
774.780;  -79.370; -484.017; -417.970
775.039;  -75.768; -551.017; -531.970
775.297;  -21.841; -135.016; -351.970
775.555; -115.839; -489.016; -612.971
775.814; -111.938; -618.016; -570.971
776.072; -131.986; -749.016; -740.971
776.330;  -94.259; -630.016; -520.972
776.589; -109.782; -703.015; -721.972
776.847; -119.405; -645.015; -624.973
777.105; -177.129;-1016.015;-1032.973
777.363;  -78.052; -459.015; -454.973
777.621; -130.875; -660.015; -717.974
777.879;  -21.773;  -42.014;   32.026
778.138;  -98.047; -554.014; -717.974
778.396; -108.470; -585.014; -526.975
778.654; -161.718;-1015.014; -970.975
778.912;  -65.916; -269.014; -371.976
779.170; -132.514; -880.013; -803.976
779.427; -148.788; -922.013; -897.976
779.685; -131.061; -880.013; -832.977
779.943; -102.059; -654.013; -593.977
780.201; -165.607; -964.012; -883.978
780.459; -110.355; -651.012; -610.978
780.717;  -86.254; -440.012; -390.978
780.974;  -98.702; -449.012; -490.979
781.232;  -76.575; -358.012; -338.979
781.490;  -80.648; -551.011; -472.979
781.747; -114.896; -555.011; -476.980
782.005;   31.655;  462.989;  254.020
782.263; -181.793; -542.011;-1004.981
782.520;  -79.191; -326.011; -501.981
782.778; -167.714;-1013.010;-1051.981
783.035; -156.538; -962.010; -938.982
783.293;  -57.661; -248.010; -206.982
783.550;  -69.659; -134.010; -198.982
783.808; -123.832; -764.010; -776.983
784.065; -152.505; -745.009; -874.983
784.322;  -70.079;   25.991;  -86.984
784.580; -135.127; -915.009; -771.984
784.837; -100.425; -392.009; -466.984
785.094; -122.373; -783.009; -762.985
785.352;  -75.671; -304.008; -404.985
785.609; -114.395; -934.008; -839.985
785.866;  -88.093; -345.008; -401.986
786.123;  -83.791; -639.008; -583.986
786.380;  -99.214; -665.008; -604.987
786.637;  -48.938; -225.007; -380.987
786.895;  -25.836; -456.007; -543.987
787.152;  -51.134; -135.007; -267.988
787.409;  -52.557; -123.007; -225.988
787.666;  -80.555; -299.006; -378.988
787.923; -120.104; -616.006; -695.989
788.179;  -98.777; -551.006; -584.989
788.436; -111.725; -585.006; -585.990
788.693;  -29.573;  -92.006;  -87.990
788.950;  101.229; -125.005; -112.990
789.207;  178.180; -381.005; -372.991
789.464;  -53.743; -161.005; -301.991
789.720;    8.984;  150.995;  110.009
789.977; -173.814;-1003.005; -671.992
790.234;  -17.963;   44.996;  -66.992
790.490; -147.061; -884.004;-1031.993
790.747;  -17.309;  -85.004;   22.007
791.004;  -21.032; -426.004; -348.993
791.260;  -72.880; -430.004; -560.994
791.517; -107.504; -843.003; -788.994
791.773;  -47.377; -379.003; -342.994
792.030; -106.600; -596.003; -660.995
792.286; -103.948; -686.003; -636.995
792.543;   -7.221;  -74.002; -159.995
792.799;  -49.320; -584.002; -382.996
793.055; -154.343;-1179.002;-1210.996
793.312;  -95.116; -827.002; -816.997
793.568;  -72.639; -746.002; -599.997
793.824;   33.687; -226.001; -284.997
794.081;    4.764; -447.001; -508.998
794.337;   53.091; -664.001; -561.998
794.593; 1142.693; -319.001; -271.999
794.849; 6301.670; -746.001; -772.999
795.105;  318.371; -270.000; -261.999
795.361;   14.073; -490.000; -457.000
795.617;  -71.250; -875.000; -945.000
795.873;  -50.500; -360.000; -407.000
796.129;  -41.550; -368.000; -306.000
796.385;  -13.925; -124.000; -156.000
796.641;   59.375;  412.000;  550.000
796.897;  -77.300; -666.000; -635.000
797.153;   63.500;  453.000;  357.000
797.409;  -99.625; -785.000; -868.000
797.665;  -83.475; -625.000; -732.000
797.921;  -63.325; -775.000; -762.000
798.176;  -60.250; -744.000; -747.000
798.432;  -44.500; -824.000; -596.000
798.688;  -91.150;-1174.000;-1078.000
798.943;   82.675; -165.000; -147.000
799.199;    6.225;-1005.000; -959.000
799.455;  242.500;  369.000;  316.000
799.710;  131.025; -813.000; -380.000
799.966;  311.600; -162.000; -160.000
800.221;  467.500; -638.000; -721.000
800.477; 9895.675; -743.000; -710.000
800.732; 9547.875; -773.000; -800.000
800.988;  684.850;  205.000;  -19.000
801.243; 1872.225; -454.000; -344.000
801.498; 8897.100; -814.000; -739.000
801.754;  521.875; -289.000; -163.000
802.009;   89.400; -257.000; -335.000
802.264;  -43.625; -967.000;-1033.000
802.520;   44.725;  222.000;   -3.000
802.775;  -51.975; -524.000; -359.000
803.030;   61.975;  395.000;  356.000
803.285; -108.875; -840.000; -903.000
803.540;  -50.250; -686.000; -699.000
803.795;  -53.925; -648.000; -583.000
804.051;  -38.450; -279.000; -346.000
804.306;   18.725;  168.000;  128.000
804.561;  125.350;  451.000;  362.000
804.816;  117.575;  714.000;  861.000
805.071;   -1.325; -185.000; -280.000
805.325;  176.100; -257.000; -427.000
805.580; -101.450; -841.000; -877.000
805.835;  -28.300; -204.000; -297.000
806.090;  -69.875; -760.000; -676.000
806.345;  -33.475; -344.000; -264.000
806.600;  -29.025; -549.000; -632.000
806.854;  -22.300; -408.000; -538.000
807.109;  -14.150; -493.000; -577.000
807.364;   -6.625; -407.000; -328.000
807.618;   -3.700; -415.000; -381.000
807.873;   31.675; -470.000; -494.000
808.128;   89.475; -257.000; -518.000
808.382;   95.775; -224.000; -332.000
808.637;   76.325; -440.000; -511.000
808.891;  167.850; -257.000; -180.000
809.146;   86.300; -902.000; -794.000
809.400;  227.900; -848.000; -923.000
809.654;  309.000; -779.000; -551.000
809.909;  445.125; -841.000; -927.000
810.163; 5639.200; -813.000; -651.000
810.418;15858.225; -940.000; -861.000
810.672; 1003.825; -685.000; -690.000
810.926;  697.600; -993.000; -973.000
811.180; 1339.900; -439.000; -372.000
811.434;30800.725;  240.000;  135.000
811.689;13614.450; -231.000; -365.000
811.943;  648.075; -936.000; -953.000
812.197;  330.550; -893.000; -671.000
812.451;  112.225; -379.000; -514.000
812.705;  -11.350; -809.000; -619.000
812.959;   -6.200; -263.000; -388.000
813.213;    2.625; -283.000; -209.000
813.467;   72.575;  470.000;  253.000
813.721;  -99.225; -764.000; -792.000
813.975; -120.775; -826.000; -877.000
814.229;   53.025;  430.000;  353.000
814.482;  -63.175; -517.000; -566.000
814.736; -100.500; -766.000; -744.000
814.990; -139.475; -779.000; -872.000
815.244;  -39.825; -228.000; -285.000
815.497;  -95.175; -636.000; -601.000
815.751;  -13.725; -141.000;   82.000
816.005;  -92.075; -470.000; -586.000
816.258;  -62.225; -510.000; -363.000
816.512; -113.500; -693.000; -610.000
816.766;   14.900;  121.000;  157.000
817.019;   23.050;  148.000;  149.000
817.273; -123.675;-1000.000; -802.000
817.526;  -38.675; -206.000; -173.000
817.779;  -53.500;-1049.000; -960.000
818.033;  -86.525; -693.000; -807.000
818.286; -110.200; -725.000; -792.000
818.540;  -96.950; -403.000; -403.000
818.793;  -79.975; -402.000; -489.000
819.046; -100.275; -582.000; -520.000
819.299;  -31.200; -157.000; -166.000
819.553; -111.900; -552.000; -592.000
819.806; -159.475;-1016.000; -838.000
820.059;  -54.850; -334.000; -354.000
820.312;   14.500;  152.000;  185.000
820.565;  -30.400;  110.000;  -27.000
820.818;  -62.875;  -59.000; -173.000
821.071; -168.975;-1041.000; -957.000
821.324; -110.525; -536.000; -540.000
821.577; -114.750; -457.000; -483.000
821.830;  -64.925; -270.000; -172.000
822.083; -122.525; -733.000; -288.000
822.336;  -50.950; -261.000; -167.000
822.589; -129.925; -805.000; -688.000
822.842; -136.650; -875.000; -770.000
823.094; -168.175;-1076.000;-1114.000
823.347; -128.575; -925.000; -729.000
823.600;    7.700;  402.000;  187.000
823.853;  -39.600; -311.000; -267.000
824.105;  -77.900; -331.000; -575.000
824.358; -101.625; -617.000; -716.000
824.611;   10.075;  234.000;   40.000
824.863;  -48.575; -612.000; -591.000
825.116;   36.725;  -33.000;   27.000
825.368;   70.925; -366.000; -372.000
825.621;  142.600; -186.000; -240.000
825.873;   89.725; -704.000; -737.000
826.126;  530.375; -669.000; -641.000
826.378;11062.100; -389.000; -505.000
826.630; 2976.175; -890.000; -898.000
826.883;   58.000; -754.000; -693.000
827.135;   36.025; -279.000; -270.000
827.387; -102.575; -893.000; -839.000
827.639;  -31.800;  -86.000;   32.000
827.892; -130.325; -742.000; -582.000
828.144; -152.500; -848.000; -804.000
828.396;  -35.650;  104.000;  -80.000
828.648;  -99.975; -440.000; -333.000
828.900; -136.375; -702.000; -795.000
829.152; -126.350; -684.000; -683.000
829.404;  -70.950; -215.000; -267.000
829.656;  -64.225;  321.000;  214.000
829.908;  -29.800;  393.000;  229.000
830.160; -172.275;-1064.000;-1047.000
830.412;  -94.550; -481.000; -430.000
830.664; -116.150; -557.000; -665.000
830.916;  -68.325; -268.000; -206.000
831.167; -186.175;-1073.000; -951.000
831.419; -114.475; -623.000; -566.000
831.671; -157.350; -764.000; -809.000
831.923;  -99.775; -311.000; -447.000
832.174;  -86.750; -273.000; -331.000
832.426; -113.750; -493.000; -582.000
832.678; -184.475;-1043.000;-1091.000
832.929; -158.825; -947.000; -935.000
833.181;  -85.000; -575.000; -677.000
833.432;  -53.825;  -59.000; -186.000
833.684;  -35.925;  112.000;  -27.000
833.935; -110.975; -610.000; -566.000
834.187; -127.150; -829.000; -823.000
834.438;  -59.050;  -58.000;  -25.000
834.689;  -60.100; -255.000; -123.000
834.941;  -57.150; -343.000; -244.000
835.192; -111.800; -590.000; -533.000
835.443;  -97.475; -419.000; -506.000
835.695;  -24.825;  138.000;  -16.000
835.946;  -88.800; -608.000; -378.000
836.197; -122.500; -599.000; -622.000
836.448;  -81.475; -528.000; -395.000
836.699;  -62.875; -253.000; -341.000
836.950;   -2.200;   72.000;    7.000
837.201; -159.875;-1003.000; -987.000
837.452;  -53.275; -356.000; -170.000
837.703; -123.675; -791.000; -737.000
837.954;  -27.325; -205.000; -365.000
838.205;  -83.600;-1029.000;-1008.000
838.456;  145.150; -196.000; -282.000
838.707;    8.050; -423.000; -519.000
838.958;    6.475; -634.000; -647.000
839.209;  234.200;   18.000;   40.000
839.460;   96.500; -439.000; -201.000
839.710;  135.975; -135.000; -297.000
839.961;  401.150;  730.000;  612.000
840.212;  320.325; -382.000; -497.000
840.462; 1042.625; -328.000; -277.000
840.713;17072.000; -571.000; -536.000
840.964; 7587.450;  -62.000; -143.000
841.214;  477.925; -384.000; -624.000
841.465;  506.775; -214.000; -141.000
841.715;  456.675; -417.000; -380.000
841.966;  565.525; -746.000; -685.000
842.216; 7388.125; -330.000; -431.000
842.466;30890.025; -169.000; -313.000
842.717; 1921.600; -964.000; -952.000
842.967;  282.825; -635.000; -641.000
843.217;  236.975;   20.000;   28.000
843.468;   67.875; -104.000; -132.000
843.718;  -44.475; -718.000; -726.000
843.968; -108.250; -837.000; -765.000
844.218;   -4.475; -315.000; -262.000
844.469;  -49.350; -577.000; -561.000
844.719; -124.100; -537.000; -682.000
844.969;  -94.775; -550.000; -580.000
845.219; -146.650; -814.000; -862.000
845.469;  -80.125; -392.000; -342.000
845.719; -133.375; -792.000; -884.000
845.969;   -5.975;  119.000;  174.000
846.219; -122.550; -738.000; -720.000
846.469;   17.200;  464.000;  432.000
846.718;  -62.600; -115.000;   31.000
846.968; -131.000; -827.000; -827.000
847.218;  -54.325; -224.000; -371.000
847.468;  -88.825; -586.000; -555.000
847.718; -144.350; -827.000; -798.000
847.967; -130.475; -826.000; -915.000
848.217;  -92.075; -449.000; -569.000
848.467;  -65.925; -405.000; -376.000
848.716; -108.000; -708.000; -725.000
848.966;   -8.500; -372.000; -358.000
849.215;  -59.850; -428.000; -419.000
849.465;  -89.250; -785.000; -615.000
849.714; -144.500;-1132.000;-1150.000
849.964;  -43.400; -551.000; -613.000
850.213;  -42.500; -393.000; -355.000
850.463;   78.425;  137.000;  340.000
850.712;  -15.350; -542.000; -567.000
850.961;   27.800; -739.000; -678.000
851.211;   79.750; -513.000; -504.000
851.460;  161.500; -635.000; -650.000
851.709;  536.525;  -25.000;   18.000
851.958; 9693.450; -912.000; -750.000
852.208;13009.775; -859.000; -879.000
852.457;  479.375; -181.000;  -13.000
852.706;   81.525; -791.000; -823.000
852.955;   14.950; -507.000; -528.000
853.204;  -69.900; -521.000; -461.000
853.453;  -97.375; -418.000; -458.000
853.702; -140.550; -660.000; -750.000
853.951;  -99.650; -532.000; -520.000
854.200; -119.075; -613.000; -562.000
854.449; -135.250; -695.000; -661.000
854.698; -103.975; -340.000; -279.000
854.946;  -55.775; -181.000; -284.000
855.195; -142.700; -843.000; -868.000
855.444;  -90.025; -395.000; -420.000
855.693; -124.700; -345.000; -432.000
855.941;  -99.250; -387.000; -516.000
856.190;  -81.350; -256.000; -382.000
856.439; -132.225; -652.000; -703.000
856.687;  -76.275;  -99.000;  -72.000
856.936; -100.775; -621.000; -323.000
857.184; -188.075;-1067.000;-1020.000
857.433; -102.525; -423.000; -512.000
857.681; -159.825; -989.000; -953.000
857.930;  -87.575; -282.000; -433.000
858.178; -172.675; -856.000; -929.000
858.427; -148.050; -802.000; -781.000
858.675; -122.225; -377.000; -544.000
858.923; -100.175; -527.000; -819.000
859.172; -189.250;-1094.000;-1070.000
859.420;  -88.225; -339.000; -239.000
859.668; -134.350; -624.000; -628.000
859.916;  -16.525;  109.000;  115.000
860.164; -127.775; -699.000; -603.000
860.413;  191.175; -878.000; -696.000
860.661;  179.300; -709.000; -577.000
860.909;  -81.375; -339.000; -325.000
861.157;  -88.125; -277.000; -444.000
861.405; -125.125; -534.000; -670.000
861.653;   -3.025;  310.000;  310.000
861.901;  122.550; -543.000; -613.000
862.149;   -9.975; -801.000; -824.000
862.396;  -79.450; -297.000; -187.000
862.644; -100.600; -368.000; -347.000
862.892;  -41.325;   98.000;  138.000
863.140; -148.800; -549.000; -530.000
863.388; -152.675; -815.000; -759.000
863.635; -130.450; -642.000; -601.000
863.883;   -9.050;  231.000;  190.000
864.131; -100.600; -288.000; -357.000
864.378; -121.425; -675.000; -540.000
864.626;  -91.650; -347.000; -415.000
864.873; -114.125; -556.000; -505.000
865.121; -142.625; -714.000; -799.000
865.368;  -39.100; -173.000;   75.000
865.616;  -42.300;  -33.000;  -40.000
865.863;  -71.150; -462.000; -506.000
866.111; -111.575; -795.000; -824.000
866.358;   42.725; -426.000; -420.000
866.605; 2434.900;  -64.000; -804.000
866.853; 2795.400; -621.000; -537.000
867.100;  -22.350; -728.000; -775.000
867.347;  -80.300; -672.000; -611.000
867.594;  -87.800; -740.000; -714.000
867.841;   75.400;   97.000;   17.000
868.089; -153.000; -746.000; -698.000
868.336; -115.325; -477.000; -420.000
868.583; -135.100; -637.000; -741.000
868.830;  -48.450; -131.000; -170.000
869.077; -164.125; -859.000; -787.000
869.324; -117.325; -502.000; -458.000
869.571; -135.975; -398.000; -430.000
869.818; -117.250; -485.000; -439.000
870.065; -108.750; -439.000; -513.000
870.311; -105.200; -456.000; -542.000
870.558; -108.350; -332.000; -311.000
870.805;  -83.175; -320.000; -384.000
871.052; -111.025; -494.000; -369.000
871.298;  -58.950; -204.000; -131.000
871.545;  -69.725; -151.000; -185.000
871.792;  -73.000; -173.000; -222.000
872.038;  -80.950;   43.000; -126.000
872.285; -122.900; -496.000; -387.000
872.532;  -99.925; -357.000; -387.000
872.778;   17.425;  556.000;  403.000
873.025; -101.500; -384.000; -359.000
873.271;   22.975;  501.000;  578.000
873.517;  -49.200; -133.000; -209.000
873.764;  -35.150; -193.000;  -80.000
874.010;  -64.750; -143.000; -230.000
874.257;  -39.525;  123.000;   90.000
874.503; -140.150; -579.000; -479.000
874.749;  -70.000;   31.000;  275.000
874.995;  -65.075;  -80.000;  -20.000
875.242; -115.250; -540.000; -478.000
875.488; -121.725; -414.000; -439.000
875.734;  -61.050; -106.000; -234.000
875.980;  115.600; -872.000;-1032.000
876.226;  327.750; -157.000; -255.000
876.472;  -16.775;  343.000;  237.000
876.718;  -43.275;  184.000;  158.000
876.964;  -44.750;   56.000;   55.000
877.210; -142.550; -547.000; -677.000
877.456; -131.950; -630.000; -557.000
877.702; -161.350; -821.000; -832.000
877.948; -117.275; -377.000; -497.000
878.193;    8.950;  361.000;  255.000
878.439; -100.050; -487.000; -472.000
878.685; -112.825; -272.000; -343.000
878.931; -140.425; -618.000; -676.000
879.176;  -89.225; -201.000; -201.000
879.422; -182.075; -933.000; -820.000
879.668;   55.200;   10.000;   79.000
879.913;  103.850;   53.000;  137.000
880.159;  -66.225; -112.000;  -17.000
880.404;  -61.950; -152.000; -162.000
880.650;  -36.075;   91.000;  141.000
880.895; -169.925; -670.000; -710.000
881.141; -110.250; -454.000; -428.000
881.386; -149.250; -503.000; -658.000
881.631;  -92.500; -311.000; -166.000
881.877;  -33.725;  112.000;  -13.000
882.122; -127.300; -684.000; -600.000
882.367;  -91.400; -136.000; -186.000
882.612;  -62.450;  -80.000; -176.000
882.858; -175.825; -877.000; -823.000
883.103;  -95.175; -297.000; -267.000
883.348; -153.475; -759.000; -852.000
883.593; -134.325; -677.000; -602.000
883.838;  -67.050; -311.000;  -24.000
884.083;   19.525;  353.000;  288.000
884.328; -111.575; -564.000; -545.000
884.573;  -53.150; -196.000; -143.000
884.818;  128.600; -694.000; -531.000
885.063;  151.350; -348.000; -315.000
885.308; -109.225; -475.000; -398.000
885.553;   -4.275;  245.000;  325.000
885.797; -141.550; -545.000; -615.000
886.042;  -59.050;    8.000;   58.000
886.287;  -99.000; -253.000; -211.000
886.532;  -45.125;   26.000;  204.000
886.776;  -99.825; -407.000; -525.000
887.021; -141.350; -621.000; -574.000
887.265; -153.125; -685.000; -689.000
887.510; -130.725; -557.000; -496.000
887.755;  -86.350; -194.000; -164.000
887.999; -139.300; -552.000; -575.000
888.244;  -65.275;  -58.000;  161.000
888.488;   -3.150;  371.000;  393.000
888.732; -134.675; -368.000; -520.000
888.977; -126.575; -622.000; -567.000
889.221; -156.025; -683.000; -659.000
889.465; -117.425; -422.000; -566.000
889.710;  -81.950;  -56.000; -299.000
889.954;   -3.825;  579.000;  467.000
890.198; -153.875; -584.000; -707.000
890.442; -146.200; -716.000; -712.000
890.687; -165.675; -800.000; -753.000
890.931;  -88.450; -273.000; -210.000
891.175; -142.050; -502.000; -500.000
891.419;  -54.750; -105.000; -110.000
891.663;  -89.025; -239.000; -112.000
891.907; -156.350; -801.000; -545.000
892.151; -178.475; -920.000; -815.000
892.395; -109.575; -274.000; -387.000
892.638;  -26.100;  408.000;  291.000
892.882; -182.775; -780.000; -867.000
893.126;    3.400;  758.000;  558.000
893.370;  -78.150; -167.000; -168.000
893.614; -143.150; -714.000; -715.000
893.857; -106.775; -183.000; -197.000
894.101; -139.375; -527.000; -631.000
894.345;  -49.925;  300.000;  150.000
894.588;    4.375;  569.000;  380.000
894.832;  -79.325; -178.000;  -84.000
895.075;  -90.675;   15.000;  -92.000
895.319; -134.275; -552.000; -420.000
895.563; -128.050; -413.000; -353.000
895.806; -142.275; -628.000; -741.000
896.049;  -81.550; -576.000; -368.000
896.293;   85.500;  527.000;  405.000
896.536;  -83.500; -465.000; -468.000
896.779;  -55.650; -149.000;   -1.000
897.023; -144.325; -751.000; -714.000
897.266;  -24.125;  325.000;  269.000
897.509; -179.825; -900.000; -901.000
897.752;  -46.175;  149.000;  171.000
897.996; -195.650; -972.000; -864.000
898.239;  -40.775;  168.000;  102.000
898.482; -139.225; -431.000; -453.000
898.725;  -43.375;  101.000;   53.000
898.968; -153.425; -609.000; -744.000
899.211; -113.750; -513.000; -361.000
899.454; -132.175; -633.000; -539.000
899.697;  -72.150;   90.000;  -43.000
899.940; -171.450; -761.000; -757.000
900.182; -113.625; -335.000; -405.000
900.425; -106.100; -150.000; -298.000
900.668;  -12.225;  491.000;  350.000
900.911; -105.475; -292.000; -345.000
901.154;  -44.475;  141.000;   -3.000
901.396; -141.225; -407.000; -412.000
901.639; -131.075; -430.000; -496.000
901.882; -192.975; -790.000; -809.000
902.124;  -73.775;  -29.000; -143.000
902.367; -118.625; -315.000; -361.000
902.609; -138.250; -476.000; -453.000
902.852;  -93.625; -108.000; -260.000
903.094; -130.325; -458.000; -337.000
903.337;  -70.725;  -26.000;   53.000
903.579; -103.775; -228.000; -441.000
903.821; -155.250; -597.000; -744.000
904.064;  -60.200;   85.000;  127.000
904.306;  -93.000; -126.000; -166.000
904.548; -102.950; -152.000; -366.000
904.790; -107.650; -195.000; -340.000
905.033; -134.200; -625.000; -577.000
905.275; -138.700; -513.000; -524.000
905.517;   26.775;  468.000;  256.000
905.759;  -85.450; -667.000; -761.000
906.001; -114.400; -322.000; -369.000
906.243;  -76.250; -162.000; -224.000
906.485;   72.150; -265.000; -207.000
906.727;   68.050; -499.000; -542.000
906.969;  -31.575;  -30.000; -135.000
907.211;   66.150; -316.000; -382.000
907.453;  221.725; -188.000; -237.000
907.695;  -10.800; -158.000; -385.000
907.936;   43.050;  818.000;  706.000
908.178;  -51.300;   92.000; -135.000
908.420;  -82.475; -111.000; -162.000
908.662; -121.625; -633.000; -682.000
908.903;  -87.775; -208.000; -123.000
909.145;  -59.225; -240.000; -305.000
909.386;   -4.650;  315.000;  280.000
909.628;   24.075;  363.000;  397.000
909.870;    2.225;   29.000;  264.000
910.111;  -82.500; -809.000; -949.000
910.353;   13.825; -123.000; -161.000
910.594;  -10.550; -574.000; -606.000
910.835;   69.200; -265.000; -326.000
911.077;  145.650; -503.000; -604.000
911.318;  271.025; -505.000; -471.000
911.559;  437.275; -577.000; -880.000
911.801; 1264.525; -284.000; -280.000
912.042; 9641.000;  -50.000; -159.000
912.283;26658.800;  404.000;  371.000
912.524; 4429.250; -396.000; -457.000
912.765;  505.950; -193.000;   79.000
913.006;  227.175; -307.000; -338.000
913.247;   57.925; -270.000; -290.000
913.488;   -4.675;  -43.000;   30.000
913.729;  -87.150; -373.000; -373.000
913.970;  -77.225;  -96.000; -292.000
914.211;  -68.400; -160.000; -198.000
914.452;  -73.200; -118.000;  -11.000
914.693;    3.600;  510.000;  592.000
914.934;   -5.750;  510.000;  440.000
915.175;  -70.175;   53.000;  -95.000
915.415;  -71.600; -137.000;   27.000
915.656;  -67.275;  -28.000;  192.000
915.897;  -97.975; -252.000;  -82.000
916.137;  -73.925;   74.000;   -9.000
916.378; -137.475; -573.000; -517.000
916.619;  -91.050; -159.000;  -63.000
916.859;  -38.875;  303.000;  330.000
917.100;  125.300; 1655.000; 1070.000
917.340;   48.675;  930.000;  728.000
917.581;   48.000;  965.000;  789.000
917.821;  -53.525; -171.000;  143.000
918.061;    1.875; -199.000;  -72.000
918.302;  -67.725; -152.000; -211.000
918.542;  -21.750;  -22.000;    3.000
918.782;   31.775;  369.000;  377.000
919.023;  129.950;  360.000;  427.000
919.263; 1645.500; 8131.000;  202.000
919.503; 1049.850; -137.000;  -54.000
919.743;  537.950;  390.000;  266.000
919.983;  232.650; -134.000;  -26.000
920.223;   66.750;  135.000;   14.000
920.463;  155.150;  631.000;  554.000
920.703;  127.750;   84.000;   39.000
920.943;  170.700; -110.000;   90.000
921.183;  253.150; -414.000; -405.000
921.423;  515.850;  307.000;  546.000
921.663;  727.300; -174.000; -257.000
921.903; 1587.350;  237.000;  173.000
922.143; 8568.950;  372.000;  389.000
922.383;34235.150;  158.000;  115.000
922.622;12628.825; -120.000;  -15.000
922.862; 1284.750;  796.000;  785.000
923.102;  498.725;  -51.000;   33.000
923.341;  196.125;   59.000;   74.000
923.581;   84.325;  450.000;  360.000
923.821;   11.800;  301.000;  398.000
924.060;    7.300;  351.000;  193.000
924.300;  -55.600;  -16.000; -128.000
924.539;   -8.400;  584.000;  473.000
924.779;   21.650;  812.000;  597.000
925.018;  -64.250;  247.000;  353.000
925.257;   -0.125;  595.000;  666.000
925.497;  -44.900;  447.000;  412.000
925.736;  -59.325;  -35.000;  102.000
925.975;   18.150;  687.000;  669.000
926.214;   33.875;  907.000;  850.000
926.454;   14.450;  706.000;  757.000
926.693;  -36.525;  419.000;  543.000
926.932;   25.700; 1021.000;  825.000
927.171;   73.475; 1107.000; 1044.000
927.410;   63.950; 1144.000;  967.000
927.649;   40.275;  924.000;  742.000
927.888;    6.775;  590.000;  564.000
928.127;   -8.225;  680.000;  678.000
928.366;   12.975;  842.000;  826.000
928.605;   39.175;  831.000;  737.000
928.844;  217.175; 1451.000; 1393.000
929.083;  573.200;  770.000;  613.000
929.321;  345.675; 1335.000; 1359.000
929.560;  100.550; 1158.000; 1122.000
929.799;  -29.750;  574.000;  475.000
930.038;   82.275; 1025.000; 1394.000
930.276;  -48.100;  334.000;  397.000
930.515;    7.600;  827.000;  681.000
930.753;  -30.600;  614.000;  589.000
930.992;  -24.000;  664.000;  717.000
931.230;   -4.025;  847.000;  847.000
931.469;  158.450; 2162.000;  892.000
931.707;   65.425;  840.000;  751.000
931.946;   73.600; 1278.000; 1344.000
932.184;   41.425; 1437.000; 1175.000
932.423;   51.100; 1265.000;  963.000
932.661;   76.975; 1296.000; 1428.000
932.899;   21.200;  987.000;  821.000
933.137;    2.150;  754.000;  564.000
933.376;  141.050; 1664.000; 1335.000
933.614;  155.950; 1759.000; 1196.000
933.852;   70.525; 1357.000; 1171.000
934.090;  137.450; 1722.000; 1747.000
934.328;  113.800; 1252.000; 1457.000
934.566;   82.850; 1431.000; 1110.000
934.804;  150.550; 1263.000; 1309.000
935.042;  516.850; 1861.000; 1850.000
935.280; 2022.625; 2088.000; 2063.000
935.518; 2028.100; 2113.000; 2007.000
935.756;  430.025; 2481.000; 2316.000
935.994;  177.725; 1808.000; 1751.000
936.231;  326.775; 2890.000; 2950.000
936.469;  184.225; 2367.000; 2378.000
936.707;  169.975; 2220.000; 2167.000
936.945;  227.525; 2825.000; 2882.000
937.182;  206.050; 2679.000; 2741.000
937.420;  294.475; 3602.000; 3031.000
937.657;  396.050; 3365.000; 3478.000
937.895;  338.125; 3331.000; 3488.000
938.133;  325.000; 3540.000; 3528.000
938.370;  325.800; 3896.000; 4191.000
938.607;  379.000; 4488.000; 4205.000
938.845;  541.000; 5587.000; 5549.000
939.082;  481.350; 5387.000; 5177.000
939.320;  526.950; 5799.000; 5728.000
939.557;  650.825; 6549.000; 6491.000
939.794;  722.075; 7285.000; 7097.000
940.031;  913.225; 8421.000; 8368.000
940.269; 1075.050; 9552.000; 9107.000
940.506; 1123.200;10901.000;10507.000

