
Integration time [ms]: 100.000
Averaging Nr. [scans]: 40
Smoothing Nr. [pixels]: 0
Data measured with spectrometer [name]: 2101013U2
Wave   ;Sample   ;Dark     ;Reference
[nm]   ;[counts] ;[counts] ;[counts] 

394.013;   77.568; -450.257; -315.536
394.305;  283.541; -461.258; -419.536
394.596; 1113.837; -676.269; -527.514
394.887; 2557.604; -796.268; -654.518
395.178;  977.834;  145.736;   11.476
395.470;  110.171; -210.263; -356.526
395.761;  247.944;  305.734;  394.479
396.052;  461.010; -545.284; -306.489
396.343;  451.056; -557.276; -454.503
396.634;  174.599; -200.279; -290.497
396.926;  187.376; -618.268; -565.517
397.217;  158.760;   11.725;  -17.504
397.508;   83.251; -366.273; -154.507
397.799;   80.624; -555.279; -571.497
398.090;   30.818; -973.280; -902.495
398.381;  170.759;   11.708;  -11.473
398.672;   41.235; -585.292; -742.473
398.963;   80.305; -348.279; -373.498
399.254;  131.219;   54.709; -209.475
399.545;   -1.660;-1017.266; -883.520
399.836;   97.894; -407.277; -343.501
400.127;   73.535; -205.295; -209.468
400.418;   86.221; -423.274; -392.506
400.709;   87.630; -359.281; -333.493
401.000;   84.573; -268.291; -309.476
401.290;  116.896;  225.698;  115.545
401.581;   98.167; -166.286; -228.485
401.872;   25.232; -542.298; -486.462
402.163;   69.052; -313.296; -252.467
402.454;  113.470; -123.291; -163.475
402.744;  119.269; -844.297; -813.465
403.035;  568.075; -226.293;  -86.471
403.326;  751.588; -366.292; -384.474
403.617;  461.401;  204.701;  165.539
403.907;  279.691; -593.283; -679.490
404.198; 2306.624; -545.307; -599.446
404.489; 6101.446; -618.283; -588.491
404.779; 2134.149; -618.302; -660.456
405.070;  262.678;  -67.304; -174.451
405.360;  346.577; -259.293; -238.472
405.651;  385.836;  125.699;   98.542
405.942;  221.838;  209.714;  127.516
406.232;  388.252; -432.285; -413.487
406.523;  618.395;  641.706;  758.530
406.813;  145.365; -579.286; -644.484
407.104;  450.033;  261.708;  144.527
407.394;  268.352; -604.299; -591.462
407.685;  186.451;  336.715;  222.513
407.975;   95.919; -400.283; -382.490
408.265;  137.110; -134.289; -190.478
408.556;  106.417; -472.291; -459.475
408.846;  162.896;  474.706;  429.530
409.137;  104.268;   -1.288; -216.480
409.427;   62.477; -193.285; -271.487
409.717;   56.704; -776.273; -692.508
410.007;  163.471;    4.715; -170.486
410.298;  112.813; -360.295; -342.469
410.588;   77.749; -495.285; -510.486
410.878;   53.554; -792.287; -873.482
411.168;  136.534; -481.298; -478.463
411.459;  137.814; -295.283; -242.489
411.749;   64.140; -609.292; -507.474
412.039;   89.816; -755.289; -386.480
412.329;  234.337;   40.722;  132.501
412.619;  223.515;  -62.286; -148.485
412.909;  392.187;  639.711;  594.521
413.199;  403.993; -130.280; -251.495
413.490;  450.678;  521.710;  352.523
413.780;  174.123;-1013.279; -913.496
414.070;  337.132;  -46.276;  235.497
414.360;  440.983; -729.278; -666.498
414.650;  450.375; -726.288; -688.482
414.940;  542.397; -538.280; -441.496
415.230;  915.922;   50.712;   74.519
415.520; 5936.761;  155.730;   66.486
415.809;23286.255; -305.281; -125.493
416.099;17688.922; -388.277; -229.501
416.389; 4807.493;  435.726;  236.494
416.679; 2843.899;   91.738;   85.473
416.969;  502.209; -527.287; -503.483
417.259;  482.474;  341.721;  171.503
417.549;  725.004;  522.718;  318.508
417.838; 1576.228; -205.268; -147.518
418.128; 5160.408;  650.710;  492.522
418.418; 4285.836; -491.272; -579.509
418.708; 2925.444;    9.726;  -48.506
418.997;10905.239; -474.275; -480.505
419.287;11113.950; -733.273; -790.507
419.577;10379.463; -160.283; -123.489
419.866;34952.745; -588.277; -498.501
420.156;36358.407; -242.270;  -55.513
420.446; 6536.117; -112.263;  -26.526
420.735; 1000.051; -376.271; -446.512
421.025;  859.508; 1830.722;  315.502
421.314;  848.599; -203.271; -226.512
421.604; 1965.146;   89.732;  233.484
421.893; 1115.870; -705.271; -602.511
422.183;  248.742; -487.263; -461.526
422.472;  401.746;  -36.271; -107.511
422.762;  512.071; -416.266; -379.521
423.051;  289.132; -916.276; -916.503
423.341;  360.102; -491.273; -439.507
423.630;  483.877; -121.265;   15.477
423.919;  426.539;   58.725;   49.495
424.209;  389.723;  -31.263;   56.473
424.498;  505.450;   68.732;  161.483
424.787; 1076.982; -535.267; -601.518
425.077; 3371.126;   34.735;   29.478
425.366; 5119.478; -734.262; -744.528
425.655; 9387.953;  639.727;  259.493
425.945;18940.609; -313.247; -268.554
426.234;10404.726;  117.741;  300.467
426.523; 4934.981;  -86.259; -350.534
426.812; 6712.017;  107.734;  159.480
427.101; 9747.317; -127.269; -323.515
427.390;12447.986;  -55.270;  -86.514
427.680; 3248.626; -624.257; -411.538
427.969;  555.612; -330.255; -301.540
428.258;  379.568; -385.257; -477.536
428.547;  592.565;  449.728;  397.490
428.836; 1553.779; -421.253; -398.543
429.125; 2285.608; -199.259;  -72.534
429.414;  928.777; -330.251; -294.548
429.703; 3030.852; -231.251; -213.548
429.992; 8980.180; -938.250; -828.549
430.281; 5768.860; -397.264; -331.524
430.570;  634.192;  -21.252;   32.454
430.859;  683.506;  279.741;  352.466
431.148;  526.579;  636.752;  631.446
431.437;  320.441;  391.748;  367.454
431.725;  191.694; -544.257; -481.536
432.014;  141.036; -845.253; -756.545
432.303;  421.956; -149.239; -105.569
432.592;  751.791; -460.263; -178.525
432.881; 1058.556; -601.248; -437.554
433.169; 5734.063; -343.255;  -61.540
433.458;11677.990;  445.765;  540.424
433.747; 4981.234; -397.261; -289.529
434.036; 1046.382; -275.242; -280.564
434.324; 2107.168; -395.249; -379.551
434.613; 3491.025;   40.757;  159.437
434.902; 1250.046;  333.760;  439.433
435.190;  823.180;   75.761;  295.431
435.479;  434.932;  -52.245;   83.441
435.767;  158.815; -411.244; -427.561
436.056;  271.702; -340.242; -294.563
436.345;  407.223; -372.240; -223.568
436.633;  420.038;   60.750;  383.450
436.922;  340.326;  208.760;  414.432
437.210;  888.905; -194.236;    1.426
437.499; 2878.738; -583.235; -432.576
437.787; 3139.105; -339.236;  -10.574
438.075;  739.760;   56.761;  162.430
438.364; 1028.288;  -44.238;  250.429
438.652;  642.194; -286.226; -138.592
438.941;  171.758;    3.770;  269.415
439.229;   33.839; -665.252; -466.545
439.517;   68.022; -160.234;  -85.577
439.806;   21.760; -501.225; -290.595
440.094;  233.229;  377.766;  650.421
440.382;  293.283; -653.233; -302.580
440.670;  296.563; -361.235; -285.576
440.959;   69.702; -347.223; -170.599
441.247;   99.419; -151.229; -109.587
441.535;  155.995; -266.235;   31.423
441.823;   63.552; -497.234; -305.578
442.111;  213.073;  173.771;  327.412
442.400;  715.331; -628.245; -335.559
442.688; 1991.829; -111.234; -620.579
442.976; 1516.941; -786.213; -450.617
443.264;  151.317; -324.224; -364.597
443.552;  133.395; -258.226;   51.408
443.840;  206.394;  602.765;  876.423
444.128;  130.582;  265.767;  269.420
444.416;   28.901; -694.228; -312.588
444.704;   36.782; -465.219;  -92.605
444.992;  106.998;   -0.226;  240.407
445.280;   87.633; -517.230;  -94.585
445.568;   77.445; -694.212; -396.618
445.856;  448.991; -174.221;  357.398
446.143; 1048.704;  -54.220;   -7.604
446.431;  825.655;  -25.228;  625.411
446.719;  296.577;  489.783;  675.391
447.007;  202.453;  481.769;  705.416
447.295;  203.649;  597.777;  871.402
447.583;  110.567; -464.229;  -34.587
447.870;  197.613; -434.221; -202.601
448.158;  521.257; -104.230;  129.415
448.446;  417.905; -800.219; -338.604
448.733;  201.043;   13.776;  269.403
449.021;  317.044;   60.788;  341.382
449.309;  200.759; -296.210;  208.379
449.596;  239.473;  128.783;   59.392
449.884;  168.231; -571.222; -325.600
450.172;  163.385; -756.227; -406.590
450.459;  415.149;  645.786;  780.387
450.747; 2131.747; -411.218; -147.608
451.034; 6858.431;  493.772;  889.411
451.322; 5593.002; -413.214; -170.614
451.609;  467.269;  292.777;  508.403
451.897;  569.348; -550.203; -183.634
452.184; 1694.225; -622.223; -400.598
452.472; 1583.881;   97.792;  269.375
452.759;  370.005;  512.781;  864.395
453.047;  151.667; -407.212; -125.617
453.334;  123.463; -732.219; -216.606
453.621;  135.705; -438.214; -161.615
453.909;  131.890;   13.796;  384.368
454.196;  133.211; -299.199; -123.641
454.483;  244.336;  317.798;  540.364
454.771;  161.159; -215.208;  196.374
455.058;   43.862; -316.207;  102.374
455.345;  119.417;   71.807;  344.347
455.632;   91.591; -128.207;  235.373
455.919;   51.384;  -82.196;  182.354
456.207;  -37.235; -774.198; -450.642
456.494;    1.598; -475.200;  -66.639
456.781;   21.007; -399.202; -198.635
457.068;   81.897; -253.206;  -29.628
457.355;   13.673; -698.206; -401.629
457.642;   12.279; -552.205; -290.630
457.929;   26.658; -778.194; -417.651
458.216;   75.117; -575.212; -354.617
458.503;  198.337; -173.193;  -19.652
458.790;  220.282; -864.208; -630.625
459.077;  280.762;  -77.202;  110.364
459.364;  771.375; -350.195; -210.649
459.651; 1598.745;  -46.206;  220.372
459.938;  733.597; -864.209; -665.623
460.225;  189.965;  132.799;  276.363
460.512;  -21.219; -836.197; -688.645
460.799;  124.095;  -32.218;  320.392
461.086;  118.728; -370.200; -251.640
461.372;   83.316; -509.198; -279.642
461.659;  155.360; -165.196;  108.354
461.946;   82.211; -445.193;  -54.651
462.233;  261.051;  842.800;  888.361
462.519;  371.572; -814.201; -464.639
462.806;  992.656; -768.197; -497.645
463.093;  820.932; -445.191;  -66.656
463.380;  -23.402; -920.186; -824.664
463.666;   67.733; -259.197;  -18.646
463.953;  106.770; -406.195; -243.648
464.239;  183.370; -173.195;  -77.648
464.526;  435.581;  413.806;  743.350
464.813;  403.668; -565.190; -304.658
465.099;  382.437;  606.807;  607.348
465.386;  369.841;  903.807;  921.348
465.672;   73.656; -694.197; -522.645
465.959;   50.437; -598.188; -520.662
466.245;   15.291; -468.193; -359.652
466.532;  123.218; -109.195;   63.352
466.818;  115.448; -357.186; -216.664
467.104;   16.764; -488.182; -415.672
467.391;    0.120; -628.189; -459.658
467.677;   54.802; -289.186;    9.335
467.964;   18.252; -682.189; -471.660
468.250;   90.630; -331.186; -160.665
468.536;   88.572;   90.811;  180.341
468.822;  -21.833; -821.184; -574.668
469.109;  150.895;  351.827;  471.311
469.395;  215.401;  729.808;  787.346
469.681;  209.175;   46.811;  156.341
469.967; 1174.054; -699.188; -382.660
470.254; 2528.512; -494.188; -306.662
470.540; 1585.208; -601.196; -476.646
470.826;  252.525; -488.181; -397.675
471.112;  302.220;  288.816;  113.331
471.398;   96.525; -253.183;  -58.670
471.684;   68.279; -626.177; -447.680
471.970;   19.154; -918.180; -981.675
472.256;   28.100; -521.192; -441.654
472.542;   37.731; -499.171; -434.691
472.828;   45.485; -743.182; -607.672
473.114;   51.525; -380.166; -283.700
473.400;   20.520; -504.175; -293.684
473.686;   70.382; -452.166; -400.701
473.972;   61.160; -230.174; -131.687
474.258;  -46.980; -925.173; -843.689
474.544;  155.945; -183.178;   -2.679
474.830;  268.897;  -65.175;   45.316
475.116;  405.045; -123.190; -196.658
475.401;  566.356; -558.180; -467.676
475.687;  203.955; -725.180; -718.676
475.973;   38.943; -673.181; -770.673
476.259;  272.499;  736.825;  764.315
476.544;  369.412; -539.176; -437.682
476.830;  716.277; -398.172; -322.690
477.116;  581.335; -430.177; -336.682
477.401;  137.381;  346.820;  358.324
477.687;    3.545; -289.175; -405.684
477.973;   30.021;   21.819;   28.326
478.258;    4.552; -448.163; -348.706
478.544;   65.560;   21.815;   61.334
478.829;  -40.963; -818.171; -738.692
479.115;  -16.873; -749.172; -651.690
479.401;   -6.395; -444.174; -449.686
479.686;   24.029; -253.180;  -74.676
479.972;  -10.875; -886.178; -776.680
480.257;   22.177; -258.166;  -65.700
480.542;    4.466; -614.170; -469.693
480.828;  232.069; 1288.824; 1392.317
481.113;  -26.209; -464.176; -426.683
481.399;   -2.049; -236.161; -202.711
481.684;  -44.049; -620.166; -462.700
481.969;   18.940; -158.159;  -73.713
482.255;   10.277; -439.169; -285.695
482.540;    8.326; -569.178; -441.680
482.825;    3.268; -395.187; -404.663
483.110;  105.455;  -85.169; -105.696
483.396;  146.012; -840.157; -652.718
483.681;  426.460;  543.826;  730.313
483.966;  125.684; -696.160; -700.712
484.251;   28.584; -404.174; -310.687
484.536;   25.962; -356.165; -378.703
484.822;   33.712; -205.173; -218.687
485.107;   -5.125; -599.152; -502.726
485.392;  121.693;  662.836;  541.296
485.677;   85.915;  354.832;  163.302
485.962;  107.034;  160.843;  270.283
486.247;  101.760;  -14.162;   -8.707
486.532;   48.478; -178.166; -325.701
486.817;  157.971;  381.839;  431.291
487.102;  124.208; -453.154; -514.722
487.387;  598.364; -637.156; -652.718
487.672; 1025.898; -154.164;  -38.705
487.957;  655.028; -394.160; -286.711
488.241;  187.967; -290.150; -314.729
488.526;  637.002; -280.152; -148.726
488.811; 1037.553; -881.177; -818.680
489.096;  793.511; -666.154; -702.723
489.381;  463.773;    3.847;  162.275
489.666;  332.626; -428.161; -510.710
489.950;  170.964;  558.846;  627.277
490.235;  -28.738; -480.151; -458.728
490.520;  -42.750; -756.161; -723.710
490.804;  -42.259; -827.156; -736.719
491.089;   -1.317; -469.149; -299.732
491.374;   36.897; -132.164;  -75.704
491.658;    6.620; -817.147; -717.735
491.943;  218.756; -657.152; -609.727
492.227;  306.079; -178.155;  -38.721
492.512;   73.909; -294.157; -341.717
492.797;  -62.223; -713.149; -716.731
493.081;  -34.328; -588.147; -598.735
493.366;  -18.398; -751.161; -635.711
493.650;  203.201;  831.859;  917.254
493.935;   29.194; -648.147; -447.734
494.219;  -28.637; -778.142; -687.743
494.503;  -41.878; -585.150; -487.730
494.788;   55.850;   46.842;   74.285
495.072;  121.943;  184.850;  434.271
495.356;  170.761; -463.148; -343.733
495.641;  477.379; -812.146; -736.736
495.925;  490.546; -976.156; -903.719
496.209;   57.282; -599.149; -451.732
496.494;  -24.386; -763.142; -544.744
496.778;   19.158; -364.154; -360.722
497.062;  -31.930; -819.156; -627.719
497.346;  -38.720; -869.160; -640.711
497.631;  140.265;  580.852;  560.266
497.915;   66.465;  -64.145;  175.261
498.199;   84.112; -341.157; -277.718
498.483;   66.050; -562.152; -508.725
498.767;  178.295;  301.850;  300.271
499.051;  156.980; -126.149; -100.732
499.335;   17.203; -693.149; -739.731
499.619;  -20.122; -381.129; -423.767
499.903;   45.778; -272.155;  -65.721
500.187;   48.765; -588.153; -316.724
500.471;   43.905; -796.152; -595.727
500.755;  115.825;   62.839;  -96.710
501.039;   46.728; -270.155; -357.721
501.323;  115.903;  -21.141;  264.254
501.607;   60.728; -447.163; -503.706
501.891;   17.788; -607.156; -512.718
502.174;  -23.374; -726.144; -585.741
502.458;   81.884;   89.849;  370.273
502.742;   43.677; -180.138; -191.751
503.026;   86.143; -412.147; -254.734
503.310;  151.639; -437.159; -375.713
503.593;  113.720; -464.147; -325.735
503.877;  135.018; -232.133; -156.760
504.161;  191.293;    2.847;  -50.724
504.444;  147.153; -841.158; -710.716
504.728;  396.771; -487.164; -522.704
505.012;  646.991; -257.150;  -76.729
505.295;  481.626; -417.161; -212.711
505.579;  473.045; -256.156; -496.719
505.862;  647.561; -555.145; -333.738
506.146;  632.691; -681.159; -758.714
506.429;  354.492;  568.841;  461.286
506.713;   68.539; -732.151; -667.728
506.996;  284.583;   90.846;  295.278
507.280;  311.216; -633.165; -474.703
507.563;  222.076; -469.155; -261.721
507.847;   89.566; -423.153; -112.724
508.130;   77.952; -665.161; -456.711
508.413;  100.222; -758.167; -577.700
508.697;  228.023; -151.167;   12.300
508.980;  122.218; -422.153; -312.724
509.263;  -18.978; -466.155; -450.720
509.547;   31.291; -124.150;   82.271
509.830;   57.354; -172.160;  140.289
510.113;   85.320;  128.844;  298.281
510.396;   50.348; -530.152; -300.725
510.680;  264.637; -818.145; -812.738
510.963;  910.012;  184.846;  180.277
511.246;  825.949; -493.150; -357.730
511.529;  290.817; -482.145;  -83.739
511.812;  331.214; -250.134;   10.241
512.095;  220.036; -740.151; -396.728
512.378;   74.399; -317.147; -245.736
512.661;   38.410; -703.137; -623.753
512.944;   31.815; -750.142; -637.744
513.227;   54.782; -170.137; -171.752
513.510;   27.351; -479.144; -671.741
513.793;   47.282; -485.140; -435.747
514.076;  146.399;  -43.127;  -39.771
514.359;  109.133; -294.149; -135.732
514.642;   70.493; -442.142; -567.744
514.925;  661.231;  581.860;  561.253
515.208;  869.960; -498.134; -443.758
515.491;  555.874; -276.133; -182.761
515.773;  324.305; -410.143; -337.742
516.056; 1829.691;  249.864;  409.246
516.339; 2569.045; -754.136; -652.755
516.622; 2086.147; -518.150; -488.730
516.904; 1691.987;  882.857;  975.257
517.187;  798.456; -730.138; -523.752
517.470;  421.711; -568.143; -510.743
517.752;  395.373; -624.136; -470.756
518.035;  288.993; -708.139; -725.749
518.318;  321.495; -799.136; -744.755
518.600; 2026.578; -300.132; -325.762
518.883; 2854.168;  310.858;   88.256
519.165; 1384.573; -585.138; -426.751
519.448;  432.078;  -61.132;  -19.762
519.730;  230.932; -573.126; -415.773
520.013;  366.970;  588.867;  664.240
520.295; 1129.891;  -94.134;  -15.759
520.578; 2588.566; -335.131; -305.764
520.860; 2828.803; -254.132;   56.238
521.143; 1450.700; -763.135; -584.756
521.425;  492.495; -251.125; -279.775
521.707;  648.125; -622.127; -380.771
521.990; 1554.425; -199.127;  167.229
522.272; 1769.059; -116.140;   -4.748
522.554;  891.030; -237.143; -157.742
522.836;  451.714;  -24.134;   99.241
523.119;  263.092; -496.148; -189.734
523.401;  175.673; -448.130; -314.766
523.683;   80.585; -865.137; -693.753
523.965;  250.153;  408.862;  260.248
524.247;  240.466;   54.878;  170.220
524.529;  190.941; -451.134; -367.759
524.812;  328.275;   -3.130;  191.234
525.094;  757.028; -773.138; -631.751
525.376; 1183.904; -143.124;   78.223
525.658;  704.542; -441.136; -339.754
525.940;   27.562; -805.131; -671.764
526.222;   53.796; -188.136;  -88.755
526.504;  142.910; -190.131;   32.237
526.786;  279.193; -960.133; -647.760
527.068;  418.035; -124.123;  -67.778
527.349;  193.814; -865.137; -774.754
527.631;  163.402; -137.132;   22.238
527.913;  130.049; -664.127; -450.771
528.195;  141.138; -761.125; -639.774
528.477;  211.961;  -93.134;  -30.758
528.759;  122.849; -648.130; -522.766
529.040;   53.208; -569.123; -293.778
529.322;   58.440; -235.125;  -10.774
529.604;  162.677;  -47.130;   93.233
529.886;  174.431; -546.126; -302.773
530.167;  145.718;  232.870;  192.235
530.449;   51.724;    1.853;   63.265
530.731;    6.590; -572.122; -459.779
531.012;   55.786; -513.120; -216.784
531.294;   57.026; -118.116;  -43.792
531.575;  132.220;  290.875;  538.225
531.857;   38.881; -548.135; -266.757
532.138;   85.426; -113.141;   40.254
532.420;  210.102;  294.865;  403.244
532.701;  306.396; -722.133; -751.760
532.983;  415.824;  232.867;  182.239
533.264;  155.854; -243.126;  175.228
533.546;  -17.254; -491.136; -508.755
533.827;   81.067;  173.867;   -1.759
534.109;   66.405; -352.135;  -80.757
534.390;  132.207; -725.132; -582.762
534.671;  264.576; -270.135;  -82.756
534.953;  146.836; -751.123; -611.779
535.234;   31.261; -426.117; -255.789
535.515;  -71.605; -891.119; -735.785
535.796;  -18.205; -431.128; -193.770
536.078; -110.346;-1050.124; -904.777
536.359;    5.487;  -22.123;    3.221
536.640;  -16.411; -480.125; -197.774
536.921;  168.432;  225.871;  143.232
537.202;  361.600;  -87.138;  -16.751
537.483;  412.815;  251.869;  377.236
537.764;  160.293;   17.870;   98.235
538.045;  -25.865; -543.134; -371.758
538.326;  -23.266; -596.129; -447.768
538.607;   10.351; -686.127; -476.771
538.888;  141.877;   98.879;    5.218
539.169;  170.597; -704.122; -535.781
539.450;  333.581;  236.871;   16.233
539.731;  219.756; -361.121; -182.783
540.012;  131.586;  199.880;  412.216
540.293;   82.673;   82.876;  158.224
540.574;   43.872; -895.113; -717.796
540.855;  477.955;  435.879;  377.218
541.136;  538.094;   47.878;  139.220
541.416;  264.475; -161.130; -220.766
541.697;  173.461; -274.131; -170.763
541.978;  903.854; -270.135; -315.757
542.259; 1183.125; -211.127; -236.771
542.539;  570.495; -191.116; -186.790
542.820;  184.419;  461.875;  480.225
543.101;  139.189;  -52.145;  -77.738
543.381;   51.625; -638.127; -591.771
543.662;  233.748;  159.873; -254.771
543.942;  505.646; -751.127; -830.770
544.223;  925.171;  193.878;  161.219
544.504;  593.553; -275.124; -182.777
544.784;  498.456; -592.126; -408.773
545.065; 1484.998;  104.884; -254.791
545.345; 1784.845;  227.881;   14.215
545.626; 1129.646;  -14.113; -108.796
545.906;  770.718;   77.869;   98.235
546.186;  296.611;   92.874;  -95.773
546.467;  166.056;   99.877;  -95.778
546.747;  288.769;  264.884;  327.210
547.027;  332.777;   91.876;  111.223
547.308;  278.820; -376.127; -530.770
547.588;  344.560;  299.871;  371.232
547.868;  178.344;  458.870;  588.235
548.149;  200.856;  609.885;  593.207
548.429;  101.498; -347.127; -299.771
548.709;  164.236; -645.120; -461.784
548.989;  403.330;   84.882;   88.213
549.269; 1796.951;   10.868;  139.239
549.550; 4191.535;  215.877;  117.222
549.830; 3729.314; -758.111; -556.799
550.110;  737.472; -468.110; -320.801
550.390;  718.716; -128.122;  -56.779
550.670; 1010.367; -868.114; -783.795
550.950;  710.679; -509.121; -471.782
551.230;  184.701;  549.879;  460.218
551.510;   10.228; -381.121; -326.782
551.790;   38.554; -173.109; -127.803
552.070;  236.506;  940.877; 1181.223
552.350;  353.174; -492.119; -377.786
552.630;  512.473;   -2.121;   77.219
552.909;  312.399;  181.884;   73.209
553.189;  202.283;  -49.132;   33.237
553.469;  148.149; -703.119; -514.786
553.749;  146.377; -469.127; -357.772
554.029;  142.340;   33.883;  -24.790
554.308;  105.460; -154.115;  -37.794
554.588;   49.444; -196.128; -204.770
554.868;   42.930; -366.121;  -47.782
555.147;  117.232; -114.115;  -46.793
555.427;  494.476; -260.116; -250.792
555.707; 3272.955; -284.115; -200.793
555.986; 4043.792; -719.111; -538.800
556.266; 2098.243;   23.884;   72.210
556.546;   72.903; -888.121; -675.782
556.825;  191.964; -657.114; -556.794
557.105; 1535.217; -125.128;   17.230
557.384; 1804.098;  122.884;  187.209
557.664;  667.550; -717.116; -508.792
557.943;   98.304; -557.121; -411.782
558.222;  149.833; -345.118; -344.788
558.502;  243.709; -116.115;  -76.793
558.781;  434.354;  194.885;  499.208
559.061;  344.632; -232.118; -227.788
559.340;  250.937;  302.883;  353.211
559.619;  582.918;   93.884;  148.210
559.899;  834.839; -239.117; -266.789
560.178;  780.958; -778.115; -593.793
560.457; 2659.141; -623.117; -562.790
560.736; 3759.094; -472.111; -482.800
561.015; 2458.539; -500.128; -502.769
561.295;  351.674;  180.893;  215.193
561.574;  327.906;  119.885;  116.207
561.853;  455.109;  274.891;  303.197
562.132;  430.461;  -45.114;  182.206
562.411;  383.999;  396.879;  553.219
562.690;   92.529; -592.115; -458.792
562.969;  124.703;  472.888;  630.203
563.248;  435.346; 2966.878; 2487.219
563.527;  237.168; -290.111; -408.800
563.806;  313.473; -650.127; -521.771
564.085;  352.790; -297.105; -206.810
564.364;  191.417; -594.117; -405.790
564.643;  418.124; -276.121; -223.781
564.922; 1603.178;  221.890;  397.198
565.201; 1572.781; -640.109; -700.803
565.479;  666.127; -297.115; -219.792
565.758;  268.792; -810.128; -712.770
566.037;  405.282; -155.109; -100.803
566.316;  186.973; -286.116;  -28.791
566.595;   49.755;  -17.115;  -12.793
566.873;   91.620; -166.111;  -79.801
567.152;  -53.798; -490.113; -590.797
567.431;   -8.231; -113.116;    6.210
567.709;    6.800; -344.107; -212.807
567.988;  221.889; -810.114; -769.794
568.266;  452.480; -160.115;  -68.793
568.545;  322.212; -644.100; -514.819
568.824;  482.152;  160.885;  356.208
569.102;  458.164; -351.114; -235.794
569.381;  186.876; -492.116; -407.792
569.659;  -43.851; -553.113; -553.796
569.938;   17.270; -743.122; -465.780
570.216;   87.335; -225.109; -225.804
570.494;  -38.508; -632.114; -572.795
570.773;   44.028;  202.879;  114.218
571.051;    8.284; -373.123; -357.778
571.330;   44.996; -221.113; -174.796
571.608;   14.080; -181.098; -173.823
571.886;  -65.213; -671.111; -581.799
572.164;  -68.070; -739.121; -621.782
572.443;  -51.682; -562.105; -512.811
572.721;  -42.734; -399.117; -289.790
572.999;  -22.540; -280.117; -168.788
573.277;   82.162;  379.894;  620.191
573.555;  227.139;   94.894;   37.190
573.834; 1123.809;  -86.117; -114.788
574.112; 1341.852;  880.893;  811.193
574.390;  381.169; -143.111;  -96.801
574.668;   -7.046;  -91.112;  -61.797
574.946;  -19.261; -165.106; -187.810
575.224;    0.906;   71.891;  -16.803
575.502;  -24.629; -200.116; -204.791
575.780;  -79.020; -767.112; -829.798
576.058;  225.343; 1589.889; 1004.200
576.336;   -0.676; -210.110; -129.801
576.614;  -64.045; -511.112; -340.798
576.891;   21.485; -711.115; -823.794
577.169;  399.618; -158.108; -285.805
577.447;  516.651;  169.893;  202.193
577.725;  243.859;  629.888;  854.201
578.003;    9.057;  -71.112; -371.798
578.280;   87.127; -208.104; -242.812
578.558;   64.784; -450.115; -422.793
578.836;  123.317; -210.114; -145.795
579.114;   46.653; -630.112; -670.797
579.391;   83.311;   -6.117;  -18.789
579.669;  -79.990; -595.114; -704.794
579.947;  142.398; -326.107; -127.806
580.224;  264.948; -692.107; -524.806
580.502;  254.027;  127.893;   76.193
580.779;   18.017;  -42.117;   75.210
581.057;  -55.140; -584.109; -470.804
581.334;  -92.782; -726.102; -695.815
581.612;   33.365;   54.895;  511.190
581.889;  -22.094;  -83.101; -129.818
582.167;  -30.630; -298.099; -190.821
582.444;  -84.400; -845.102; -814.817
582.721;   99.626;  657.899;  715.183
582.999;   24.643; -326.100; -167.821
583.276;  409.288; -812.123; -713.779
583.553;  602.896; -364.102; -294.816
583.831;  184.124; -607.104; -631.812
584.108;   54.316;  349.892;  174.195
584.385;   13.692; -122.102;  -98.815
584.662;  -60.430; -651.111; -828.801
584.940;   38.094;  204.889;  204.199
585.217;  -29.902;  -73.113; -303.796
585.494;   38.878;   71.890;  118.198
585.771;  169.936; -250.109; -354.804
586.048;  429.198; -196.113;  -76.796
586.325;  272.873; -721.110; -773.801
586.602;   91.428;  230.896;  213.188
586.879;  -17.786; -499.100; -580.820
587.156;   41.041; -156.105; -331.810
587.433;  -38.052; -701.102; -667.817
587.710;   62.256;  152.888;  234.202
587.987;  263.246; -264.105; -236.811
588.264;  716.382;  315.888;  387.202
588.541; 1199.980;  -61.104;   26.187
588.818; 2421.863;   72.892;  171.196
589.095; 2092.751; -163.104; -174.812
589.371;  330.309; -459.109; -414.804
589.648;   17.177; -581.107; -437.807
589.925;   14.418; -517.114; -621.795
590.202;    0.905; -741.112; -607.798
590.478;   69.773; -166.105;  -73.811
590.755;  225.394; -241.108; -132.806
591.032; 2104.375; -741.110; -699.802
591.308; 2915.471; -732.094; -790.831
591.585; 1480.024; -573.110; -560.802
591.862;   96.825;-1056.102; -950.817
592.138;   48.642; -475.108; -474.805
592.415;  116.129; -486.104; -495.813
592.691; 1286.876;  460.896;  518.188
592.968; 1692.282; -208.098; -123.824
593.244;  773.594; -695.116; -595.790
593.521;   60.500; -105.102;  -42.817
593.797;  -20.683; -810.122; -720.780
594.074;  292.195; -611.096; -588.826
594.350;  589.981;  828.905;  729.172
594.626;  248.220; -303.111; -283.801
594.903;   89.901; -643.101; -645.817
595.179;  159.432;  243.896;  418.187
595.455;    2.928; -136.107; -150.807
595.731;   14.684;  -19.103;  -38.814
596.008;  -35.835; -464.111; -434.800
596.284;   25.591; -187.100; -242.820
596.560;   40.102; -501.093; -493.833
596.836;  161.943; -173.105;  -70.810
597.112;  284.693; -582.108; -437.805
597.388;  247.043;  -49.097;  -48.826
597.665;   85.001;  437.887;  530.203
597.941;  -53.968; -572.089; -658.839
598.217;   -1.022; -323.110; -293.802
598.493;  225.088;   61.891; -204.804
598.769;  442.786; -175.100;  -50.819
599.045;  253.096; -490.108; -562.806
599.321;   38.090; -193.100; -261.820
599.597;  103.537; -355.109; -476.804
599.872;  407.280;  409.896;  429.187
600.148;  310.919;  -61.097; -172.826
600.424;  247.076;   91.893;  202.193
600.700;  195.003; -170.107; -280.807
600.976;   94.238; -442.097; -464.825
601.252;  188.609; -226.109; -272.803
601.527;  163.906; -833.104; -840.813
601.803;  138.923; -453.105; -404.812
602.079;  153.461; -124.100; -118.819
602.354;  487.737; -620.092; -531.835
602.630;  723.673; -140.113; -482.796
602.906; 1945.681; -910.101; -863.818
603.181; 5842.274; -627.119; -534.786
603.457; 4912.017;   98.903; -278.826
603.733;  692.407; -605.120; -626.783
604.008;  812.890; -245.106; -164.810
604.284; 2674.702; -636.101; -580.817
604.559; 2322.709;   -3.112;  -42.799
604.835;  420.768; -163.105; -225.810
605.110;  337.071; -732.099; -892.821
605.385;  598.155;  224.907;  267.167
605.661;  537.134; -625.095; -729.829
605.936;  982.096; -664.108; -737.806
606.211;  852.941;  -17.103; -170.815
606.487;  169.713; -329.114; -376.794
606.762;   -3.251; -791.119; -745.786
607.037;  -18.757; -501.105; -433.810
607.313;  -50.748; -589.096; -574.828
607.588;  -17.811; -375.106; -137.810
607.863;   33.105;  -28.101; -143.818
608.138;  160.102;  513.890;  516.198
608.413;   -1.350; -576.099; -592.822
608.688;   23.217; -203.108; -267.805
608.964;  166.684; -509.106; -218.809
609.239;  202.340; -107.105; -212.810
609.514;  229.473;  281.895;  240.188
609.789;  580.578; -187.104; -716.812
610.064;  744.601; -435.096; -609.827
610.339;  723.309; -855.109; -799.804
610.614;  987.841; -131.100; -315.820
610.889;  545.348;  215.895;  107.188
611.163;   17.424; -407.104; -591.812
611.438;   64.264;   81.886; -167.794
611.713;    2.927; -467.101; -499.817
611.988;   41.254; -144.101; -328.818
612.263;  -35.182; -771.102; -717.815
612.538;  176.998;  385.887;  251.204
612.812;  137.317; -832.100; -911.820
613.087;   99.655; -358.098; -338.823
613.362;  -59.322; -497.107; -557.807
613.637;   29.262;  261.897;  138.186
613.911;  -15.437; -256.092; -345.835
614.186;   85.476; -249.107; -292.807
614.460;  562.282; -842.081; -758.854
614.735;  646.805;  -55.087;  -17.843
615.010;  124.870;   43.912;  -82.841
615.284;  216.142;  360.892;  246.195
615.559;  302.361; -792.092; -955.835
615.833;  249.848;  -76.099;  -87.822
616.108;    1.723; -225.090; -390.837
616.382;  123.507;  274.913;  402.156
616.656;  131.074; -241.090; -232.837
616.931;  418.048; -785.099; -700.822
617.205;  913.957; -973.104; -979.813
617.480;  844.343;  -91.125;    6.225
617.754;  146.540; -396.125; -128.774
618.028;    2.310; -369.129; -382.768
618.302;   55.790;   73.892;  -25.805
618.577;  -44.887; -371.103; -518.815
618.851;  -53.169; -399.109; -600.803
619.125;  -47.534; -335.134; -378.759
619.399;  -40.143; -244.104; -374.813
619.673;  -57.598; -330.115; -515.792
619.947;  -50.808; -333.114; -448.795
620.222;  -29.479; -198.110; -204.801
620.496;    8.655;  -47.121;  -96.782
620.770;    9.371; -187.122;  -93.781
621.044;  195.441;  323.895;  346.190
621.318;  637.783; -653.120; -614.783
621.592;  559.880; -430.121; -409.783
621.866;  288.985; -476.112; -572.799
622.140;   20.896; -207.116; -356.791
622.413;   50.964;  138.889;  112.200
622.687;  -46.598; -746.101; -492.817
622.961;    4.640; -130.108; -143.805
623.235;  -58.085; -633.111; -661.800
623.509; -102.452; -816.105; -848.811
623.783;    1.074;  -12.107;   48.193
624.056;  -26.791; -254.120; -280.783
624.330;   36.654;   63.888;   -3.797
624.604;   34.942; -271.116; -355.790
624.877;   57.776;  180.890;   26.198
625.151;   24.786; -249.114; -238.794
625.425;  -29.766; -150.103; -283.814
625.698;  -66.132; -367.119; -374.785
625.972; -104.422; -799.110; -765.802
626.245;   75.594;  685.884;  484.210
626.519;  -50.862; -426.120; -340.784
626.792;  -28.097; -192.107; -380.807
627.066;  -71.311; -485.122; -662.779
627.339;  -97.451; -736.110; -663.802
627.613;   31.036;  351.880;  148.216
627.886;   53.830;  187.891; -612.803
628.160;    1.807;  312.880; -161.783
628.433;  -95.505; -695.125; -703.775
628.706;  -82.587; -517.120; -615.784
628.979;   16.077;  296.876;  117.223
629.253; -100.952; -785.119; -833.786
629.526;  278.205; -334.126; -253.772
629.799;  262.384; -641.123; -479.778
630.072;  113.787; -497.128; -516.769
630.346;  -79.456;-1115.116;-1080.790
630.619;  364.954; -467.107; -545.808
630.892;  543.991;  709.889;  593.200
631.165;  291.532;  790.896;  679.187
631.438;  -87.668;-1092.112;-1055.798
631.711;   38.537;  453.877;  257.221
631.984;  -60.836; -523.117; -624.789
632.257;  -65.514; -636.117; -681.789
632.530;  -52.732; -412.119; -433.785
632.803;   19.834; -109.115;    7.207
633.076;  -60.094; -360.123; -422.777
633.349;    8.591;  173.872;  121.231
633.622;  -25.208; -187.119; -240.785
633.895; -126.991; -903.120; -823.783
634.167;  -67.368; -496.126; -525.773
634.440;  -15.074;  -19.116; -137.792
634.713;   -4.378;  -22.119; -120.786
634.986;   82.656;  593.871;  453.233
635.258;  -80.568; -507.115; -597.793
635.531;   78.907;  742.882; -343.788
635.804;  -11.037; -303.117; -318.789
636.077; -100.803; -830.116; -852.791
636.349;  -12.819; -586.115; -474.793
636.622;  351.404; 1695.874; 1392.228
636.894;  190.688; -474.120; -909.784
637.167;  112.648; -836.127; -789.771
637.439;   15.944; -278.128; -213.770
637.712;  -51.819; -312.126; -293.772
637.984;  -89.828; -635.116; -707.791
638.257;  342.656;  515.877;  488.222
638.529;  515.396; -881.125; -924.776
638.802;  222.862; -508.128; -449.769
639.074; -105.854; -927.122; -952.781
639.346; -119.193; -942.135; -930.757
639.619;   -1.159;  -79.142; -319.744
639.891;   -5.011;  -83.122; -168.779
640.163;  -77.809; -689.122; -756.780
640.435;   28.918;  273.878;  103.220
640.708;    5.520;  -72.122; -132.780
640.980;  -23.878; -366.122; -362.781
641.252;  166.174;  -25.121;  -71.781
641.524; 1661.650;  580.879;  573.219
641.796; 1708.877;-1094.121; -907.782
642.068;  292.954; -191.121; -300.782
642.340;  -57.219; -486.121; -566.783
642.613;   28.708;  294.880;  323.217
642.885; -101.140; -787.120; -878.783
643.157;  -55.139; -810.120; -658.784
643.428;   58.188;  170.880;  218.216
643.700;  -64.410; -498.120; -425.784
643.972;  -39.233;  -16.119; -133.785
644.244;  -90.931; -474.119; -559.785
644.516;  -55.754; -250.119; -114.786
644.788;   51.347;  662.881;  548.214
645.060;  -12.876;  -12.119; -124.786
645.332;  -89.849; -525.118; -535.787
645.603;   21.153;  479.882;  342.213
645.875;  -69.845; -334.118; -369.787
646.147;  144.532; 1487.882; 1242.212
646.418;  -90.691; -931.117; -918.788
646.690;   88.735; -714.117; -715.789
646.962;   21.337; -413.117; -451.789
647.233;  -16.986;   15.883;   11.211
647.505; -110.359; -595.117; -475.790
647.776;   21.118;  328.884;  229.210
648.048;   -9.005; -248.116; -418.790
648.320;  -75.454; -752.116; -679.791
648.591; -161.652;-1055.116; -958.791
648.862;  -96.225; -505.116; -577.792
649.134;   14.502;  115.885;  198.208
649.405;  -62.146; -661.115; -618.792
649.677;  -64.994; -475.115; -598.793
649.948;  -12.717; -181.115; -296.793
650.219;   -2.641;  -37.115; -147.793
650.491;  -73.864; -431.114; -520.794
650.762; -115.587; -705.114; -731.794
651.033;  -80.510; -437.114; -424.795
651.304; -101.308; -743.114; -728.795
651.576;  -70.956; -680.114; -645.795
651.847;  -47.180; -250.113; -140.796
652.118;  -29.928;  -32.113; -189.796
652.389;  -90.601; -639.113; -722.796
652.660;  -25.924; -147.113;  -89.797
652.931; -144.297; -897.112; -871.797
653.202;  -74.595; -382.112; -541.798
653.473;  -82.244; -633.112; -533.798
653.744;  139.483; -595.112; -590.798
654.015;  119.235; -356.112; -303.799
654.286;  -65.088; -642.111; -663.799
654.557;  -55.861; -586.111; -521.799
654.828; -143.309;-1114.111;-1088.800
655.099;  -86.782; -404.111; -291.800
655.370;  -93.531; -427.111; -543.801
655.641; -124.204; -656.110; -714.801
655.911; -103.402; -618.110; -638.801
656.182;   51.375;  437.890;  387.198
656.453;   93.052;  830.890;  746.198
656.724;  -63.096; -466.110; -426.802
656.994;  -88.845; -553.109; -568.803
657.265; -103.768; -862.109; -873.803
657.536;  -78.291; -500.109; -377.804
657.806;  -98.539; -561.109; -593.804
658.077; -134.887; -866.109; -950.804
658.347;  -78.310; -523.108; -598.805
658.618; -109.609; -646.108; -694.805
658.888;  -22.182;  -41.108;  112.195
659.159;  -80.755; -432.108; -548.806
659.429;  -34.428; -292.108; -349.806
659.700;   10.924; -435.107; -390.807
659.970;  -13.674; -370.107; -359.807
660.241;    2.553; -754.107; -921.807
660.511;  443.454; -147.107; -174.808
660.781;   77.056; -793.106; -748.808
661.052;  -53.692; -222.106; -381.808
661.322;  -24.865;   21.894;   -9.809
661.592;    8.412;  257.894;  148.191
661.862;  -70.811; -369.106; -382.810
662.133;  -91.985; -551.105; -502.810
662.403; -117.283; -770.105; -676.810
662.673;  -52.181; -256.105; -213.811
662.943;  -98.204; -612.105; -551.811
663.213;  -29.752;  -85.105;  -81.811
663.483;  -74.975; -593.104; -568.812
663.753;  -49.323; -194.104; -152.812
664.023;  -16.697;   68.896;  -32.813
664.293;  -60.795; -319.104; -126.813
664.563; -107.343; -694.104; -648.813
664.833; -114.766; -743.103; -608.814
665.103; -116.864; -730.103; -793.814
665.373; -124.437; -766.103; -806.814
665.643;  -88.311; -863.103; -918.815
665.913;   12.116; -534.103; -714.815
666.182;  108.868; -685.102; -719.816
666.452;  231.270;  -22.102;  -89.816
666.722;  -40.528; -724.102; -784.816
666.992; -131.051; -948.102; -921.817
667.261;  -88.525; -824.102; -808.817
667.531;  184.652;  134.899;   45.183
667.801;  546.279; -440.101; -412.818
668.070;  236.381;  714.899;  697.182
668.340; -105.092; -883.101; -840.819
668.609;   80.435;  588.900;  301.181
668.879;  -69.563; -490.100; -558.819
669.149;  -83.462; -539.100; -516.820
669.418; -103.635; -698.100; -726.820
669.688;  -47.808; -482.100; -666.820
669.957;   53.019; -423.099; -546.821
670.226;  -38.604; -268.099; -331.821
670.496;  -97.902; -431.099; -635.822
670.765;  -87.401; -418.099; -501.822
671.034; -126.599; -872.099; -828.822
671.304;   -3.722;   55.902; -111.823
671.573; -152.720;-1085.098; -957.823
671.842;   42.857; -380.098; -294.823
672.112;    0.184; -692.098; -586.824
672.381;   -7.789; -239.098; -214.824
672.650; -121.613;-1005.097;-1021.825
672.919;  -88.686; -631.097; -507.825
673.188;  -94.659; -681.097; -878.825
673.457; -161.482;-1101.097;-1143.826
673.726;  -74.630; -579.096; -646.826
673.995;  -44.753; -533.096; -479.826
674.265;  -18.052; -263.096; -333.827
674.534;  -11.700; -183.096; -235.827
674.802;   -8.998; -618.096; -703.828
675.071;  798.779; -886.095; -801.828
675.340; 3399.031; -464.095; -339.828
675.609; 1125.958;  103.905;   82.171
675.878;   37.384; -949.095; -893.829
676.147;    8.736;  -26.095;   -8.829
676.416;   72.863; -210.094; -294.830
676.685;  641.490; 1000.906; -622.830
676.953;   62.267; -603.094; -452.831
677.222;  -28.456; -193.094; -273.831
677.491;  -16.804;  -24.094; -127.831
677.759;  -19.778;   11.907;  172.168
678.028;  -18.626; -279.093; -222.832
678.297;  -16.049;   71.907;  197.168
678.565; -126.097; -898.093; -944.833
678.834;  -75.445; -311.093; -268.833
679.102;  -81.943; -411.092; -391.834
679.371; -140.992; -898.092; -727.834
679.639; -137.715; -797.092; -786.834
679.908; -138.713; -794.092; -724.835
680.176; -153.786; -895.091; -941.835
680.445;  -83.534; -346.091; -352.835
680.713;  -14.407;  -58.091;  -23.836
680.982;  -96.131; -523.091; -525.836
681.250; -103.929; -578.091; -507.837
681.518; -104.902; -534.090; -751.837
681.787;  -44.650; -204.090; -167.837
682.055;  -72.048; -490.090; -422.838
682.323; -151.146; -993.090; -992.838
682.591;   21.756; -216.090; -538.838
682.859;   61.982;    9.911;  -35.839
683.128;   24.384;  232.911;  497.161
683.396; -160.789;-1102.089;-1122.840
683.664;  -42.287; -241.089;   21.160
683.932;   -4.510;  144.911;  -76.840
684.200;  -90.483; -576.088; -320.841
684.468;  -37.057;  -73.088; -124.841
684.736;  -46.355; -214.088; -175.841
685.004; -127.228;-1024.088; -982.842
685.272;  -66.476; -880.088; -774.842
685.540;  -59.799; -499.087; -557.843
685.808;  -97.147; -651.087; -682.843
686.076;  -98.770; -894.087; -969.843
686.343;  -62.744; -601.087; -815.844
686.611;   34.883; -195.087; -224.844
686.879;  362.785; -530.086; -553.844
687.147; 2881.987; -483.086; -480.845
687.414;  817.739;  -12.086; -169.845
687.682;  -17.134; -658.086; -757.846
687.950;  259.217;  259.915;  263.154
688.217;  -12.606; -792.085; -760.846
688.485;   -8.804; -632.085; -636.847
688.753;  442.973;  -11.085; -102.847
689.020;  112.925; -820.085; -851.847
689.288;  -93.148; -853.084; -787.848
689.555;  -47.272; -195.084; -148.848
689.823;  -43.245; -241.084; -345.849
690.090;  -95.743; -546.084; -651.849
690.358; -142.816; -877.084; -897.849
690.625;    5.861;  120.917;   45.150
690.892;  -72.937; -403.083; -369.850
691.160;  -12.260;   72.917;  -35.850
691.427;   10.416;  141.917;  130.149
691.694; -146.057; -855.083; -929.851
691.962; -133.080;-1177.082;-1060.852
692.229;   14.522;  127.918;   56.148
692.496;   71.449;  130.918;  -49.852
692.763;    5.926; -164.082; -201.853
693.031;  -64.148; -739.082; -716.853
693.298;  -47.271; -509.081; -368.853
693.565;  237.106; -155.081; -163.854
693.832; 1118.508;   -5.081;   -9.854
694.099;  112.335; -643.081; -642.855
694.366;  -65.688; -882.081; -896.855
694.633;  -53.312; -920.080; -633.855
694.900;  723.315; 4367.920; -114.856
695.167;  384.242; -214.080; -380.856
695.434;   94.844; -646.080; -623.856
695.701;  194.271;  121.921;  -61.857
695.968;  417.698; -365.079; -361.857
696.234;  930.450; -415.079; -646.858
696.501;10501.301; -776.079; -614.858
696.768; 5599.053; -554.079; -617.858
697.035;  322.905; -632.078; -667.859
697.302;   45.357; -448.078; -552.859
697.568;   16.634; -458.078; -497.859
697.835;  -47.514; -683.078; -624.860
698.102;  -35.038; -498.078; -407.860
698.368;   80.314;  384.923;  396.139
698.635;  -25.484;  -47.077; -424.861
698.901;  -20.857; -240.077; -348.861
699.168;   44.045; -534.077; -456.862
699.435;   69.247;  -72.077;  -13.862
699.701;  -96.776; -868.076; -764.862
699.968;    7.475;  144.924; -441.863
700.234; -103.673; -783.076; -822.863
700.500;  -53.296; -448.076; -539.864
700.767;  -16.144;   -1.075;   26.136
701.033; -118.542;-1015.075; -963.864
701.299;  -44.415; -450.075; -483.865
701.566;  105.036;  950.925;  763.135
701.832;   12.338;  -31.075;  -76.865
702.098;  -99.360;-1054.074;-1034.866
702.365;  -80.933;-1098.074;-1030.866
702.631;  -42.406;-1038.074;-1063.867
702.897; 1214.946; -765.074; -676.867
703.163; 2177.747;  348.926;  254.133
703.429;  162.224; -256.073; -273.868
703.695;  -32.524; -796.073; -792.868
703.961;   19.653; -214.073; -210.868
704.227;  -41.620; -630.073; -725.869
704.493;  117.882;  613.927;  510.131
704.759;  -19.816; -565.072; -540.870
705.025;   35.185; -203.072; -194.870
705.291;   -4.013; -666.072; -562.870
705.557;  182.589;  719.928;   34.129
705.823;   52.641; -742.072; -694.871
706.089;  154.043; -307.071; -326.871
706.355;  373.495; -315.071; -244.872
706.620; 5928.846; -776.071; -729.872
706.886; 8472.998; -309.071; -362.873
707.152;  766.350; -818.070; -973.873
707.418;    2.352;-1153.070;-1186.873
707.683;   11.104; -550.070; -530.874
707.949;  -24.169; -547.070; -578.874
708.215;  -15.142; -129.070; -207.874
708.480;  -29.066; -520.069; -420.875
708.746;   91.086;   68.931;   28.125
709.011;  -54.987; -578.069; -612.876
709.277;  -66.735; -538.069; -543.876
709.542;  -33.083; -428.069; -387.876
709.808;   -9.756;  -59.068;   89.123
710.073;  -76.255; -577.068; -695.877
710.339;  -34.753; -242.068; -228.877
710.604;   52.774; -780.068; -845.878
710.869;  313.301; -277.068; -366.878
711.135;  -81.297; -715.067; -628.879
711.400;  -98.695; -507.067; -608.879
711.665;  -51.394; -404.067; -479.879
711.931;  -79.692; -661.067; -677.880
712.196; -111.490; -876.067; -954.880
712.461;   73.412; -402.066; -490.880
712.726;  124.864; -727.066; -771.881
712.991;  -91.884; -647.066; -664.881
713.256;  -53.532; -350.066; -332.882
713.521;  -44.681; -417.065; -381.882
713.787;  -55.004; -454.065; -472.882
714.052;  -27.727; -214.065; -400.883
714.317;  -68.000;-1045.065; -981.883
714.581; 1059.677; -374.065; -268.883
714.846; 1610.729; -822.064; -888.884
715.111;  132.855;  261.936;  257.116
715.376;  -30.643;  -86.064; -223.885
715.641;  -16.191; -365.064; -367.885
715.906;  273.661;   15.936; -551.885
716.171;  127.413;  221.937;  209.114
716.436;   23.765;  -78.063; -104.886
716.700;  -96.559; -818.063; -692.886
716.965; -125.357; -794.063; -807.887
717.230;  -73.080; -339.063; -392.887
717.494;  -18.903;  -40.062; -134.888
717.759;  -91.301; -784.062; -640.888
718.024;    4.701;  269.938;  250.112
718.288;   65.553;  685.938;  395.111
718.553; -142.596; -803.062; -977.889
718.817; -138.294; -883.061; -899.889
719.082;  -24.992; -115.061; -125.890
719.346; -137.540;-1000.061; -947.890
719.611;  -50.963; -300.061; -255.891
719.875; -106.386; -568.060; -537.891
720.140;  -72.210; -453.060; -603.891
720.404;   10.342; -136.060; -249.892
720.668;  713.669; -475.060; -411.892
720.933;  300.871;  146.940;  137.108
721.197; -103.952; -667.059; -600.893
721.461; -142.300; -851.059; -826.893
721.725;   -4.523;  -21.059; -250.894
721.990;  -56.422; -284.059; -204.894
722.254;  -16.920;  -26.059; -108.894
722.518;  -72.943; -286.058; -442.895
722.782;  -86.291; -743.058; -594.895
723.046;  107.736;  614.942;  570.105
723.310;   19.838;  374.942;  210.104
723.574; -101.661; -654.058; -614.896
723.838; -100.584; -576.057; -642.897
724.102;  -44.207; -226.057; -239.897
724.366; -135.005;-1032.057; -978.897
724.630;  -95.353; -749.057; -571.898
724.894;  -80.301; -722.057; -514.898
725.158;  -18.400;   38.944; -295.898
725.422;  -50.773; -394.056; -327.899
725.685;  -61.196; -441.056; -349.899
725.949;  -68.419; -566.056; -519.900
726.213;  -77.992; -732.056; -811.900
726.477;  130.260;-1020.055; -933.900
726.740;  134.387; -274.055; -104.901
727.004;  309.313; -384.055; -510.901
727.268; 3484.090; -442.055; -400.901
727.531; 1064.067; -961.055; -775.902
727.795;  -32.356; -713.054; -673.902
728.059;  -64.204; -552.054; -557.903
728.322;  -79.402; -841.054; -669.903
728.586;    1.299; -692.054; -701.903
728.849;  -96.324; -695.053; -756.904
729.112; -116.397; -812.053; -912.904
729.376; -121.195; -959.053; -905.904
729.639;  -71.693; -536.053; -536.905
729.903; -105.116; -733.053; -699.905
730.166;  -43.915; -437.052; -399.906
730.429;  -46.588; -317.052; -468.906
730.693;  -79.661; -355.052; -894.906
730.956;  179.191;  810.948;  651.093
731.219;  639.468; -310.052; -103.907
731.482;   88.595;-1003.051; -894.907
731.745;   82.122; -794.051; -935.908
732.009;   12.923;  -30.051;   50.092
732.272;  -91.850; -904.051; -771.909
732.535;  -43.098; -300.051; -310.909
732.798; -149.296;-1083.050;-1166.909
733.061;  -58.069; -430.050; -456.910
733.324;    8.883;   31.950; -180.910
733.587;   60.234;  290.950;  365.090
733.850;  -75.639; -973.049;-1050.911
734.113;   19.538;   33.951;   32.089
734.376;   -8.885; -328.049; -447.912
734.639;  200.792; 1188.951; 1011.088
734.901;   60.319; -180.049; -402.912
735.164;  403.771; -883.048; -837.913
735.427; 1222.847; -166.048; -355.913
735.690;  101.449; -205.048; -234.913
735.952;  -35.099; -923.048; -925.914
736.215;  -23.572;-1113.048;-1009.914
736.478;   30.530; -771.047; -774.915
736.740;  186.182;   33.953;  129.085
737.003;  559.183; -658.047; -672.915
737.266; 3655.135;  -94.047;   46.084
737.528;  420.962; -682.047; -660.916
737.791;  324.889; -316.046; -327.916
738.053;  779.391;  465.954;  649.083
738.316;10491.268; -162.046; -136.917
738.578; 8181.019; -770.046; -736.918
738.841;  451.871; -382.046; -446.918
739.103;  160.823; -875.045; -777.918
739.365;  482.275;   79.955;  -69.919
739.628;    8.577; -884.045; -805.919
739.890;  -27.346; -758.045; -710.919
740.152;  -39.719; -692.044; -754.920
740.414;  -10.168; -408.044; -359.920
740.677;  -44.366; -785.044; -634.921
740.939;  -48.889; -587.044; -487.921
741.201;  223.313; -432.044; -572.921
741.463;   22.990; -689.043; -745.922
741.725;   12.442;  -21.043; -199.922
741.987;   53.693;  220.957;  116.078
742.249;    0.495; -751.043; -859.923
742.511;  168.097; -703.043; -794.923
742.773;   -1.726; -546.042; -546.924
743.035;  119.026;  796.958;  533.076
743.297;  -50.147; -963.042;-1013.924
743.559;  711.880; -278.042; -262.925
743.821;   57.181; -735.042; -744.925
744.083;    3.733;  -44.041; -149.925
744.345;  -86.390; -869.041; -892.926
744.607;   31.062;   75.959;  122.074
744.868;  -56.211; -490.041; -554.927
745.130; -108.309; -994.041;-1008.927
745.392;   29.242;   -1.040;  -44.927
745.653;  -21.931; -411.040; -378.928
745.915;  143.696;  896.960;  631.072
746.177;   39.798;   35.960;  -43.928
746.438;   -8.425; -428.040; -543.929
746.700;  -42.773; -947.039; -988.929
746.961;    4.678; -659.039; -740.930
747.223;  127.705; -190.039;  -74.930
747.484;   82.482; -391.039; -471.930
747.746;  121.284;  -23.038; -106.931
748.007;   93.211; -647.038; -689.931
748.269;  261.463; -468.038; -440.931
748.530;  427.740; -852.038; -638.932
748.791;  236.791; -354.038; -420.932
749.053;  407.868;  286.963;  163.067
749.314;  415.870; -236.037; -169.933
749.575;  496.072; -945.037; -905.933
749.836;  793.699; -217.037;   86.066
750.098; 2181.601;  -60.037;  -21.934
750.359;33944.152;  414.964;  555.066
750.620; 9589.929; -121.036; -220.935
750.881;  966.506; -585.036; -513.935
751.142; 1267.608; -950.036; -938.936
751.403;15872.510; -789.036; -705.936
751.664; 7846.687;-1034.035; -999.936
751.925;  493.338; -175.035; -262.937
752.186;  282.540; -298.035; -278.937
752.447;  128.967; -590.035; -445.937
752.708;   54.769; -532.035; -648.938
752.969;   19.821; -566.034; -576.938
753.230;   -8.502; -777.034; -672.939
753.491;  -16.300; -650.034; -631.939
753.751;   58.251;  109.966;   19.061
754.012;   82.628;  258.967;  181.060
754.273;   45.355; -174.033;  -71.940
754.534;   11.532; -487.033; -580.940
754.794;  -80.541; -926.033; -911.941
755.055;  142.186; 1051.967;  881.059
755.316;  -52.163; -700.032; -566.942
755.576;  -30.561; -606.032; -576.942
755.837;  -41.059; -527.032; -695.942
756.097;  -46.207; -530.032; -564.943
756.358;  -69.255; -725.032; -770.943
756.618;  -66.728; -705.031; -641.943
756.879;    7.324; -254.031; -349.944
757.139; -120.600;-1098.031;-1116.944
757.400;  -52.498; -538.031; -553.945
757.660;  -24.746; -365.031; -401.945
757.920;    3.456; -266.030; -228.945
758.181;  -18.742; -468.030; -351.946
758.441;  -84.890; -870.030; -809.946
758.701;  -33.039; -308.030; -215.946
758.961;  -30.387; -220.030; -278.947
759.222;  -44.035; -574.029; -502.947
759.482;  -75.183; -683.029; -723.948
759.742;  -78.231; -706.029; -547.948
760.002;   17.546;  -83.029; -143.948
760.262;   23.072;   50.972;  182.051
760.522;  -34.476; -498.028; -574.949
760.782;  -52.074; -738.028; -612.949
761.042;  -27.197; -618.028; -573.950
761.302;   38.930;   55.972;  -18.950
761.562;   41.957; -164.027; -154.951
761.822;   79.309; -710.027; -551.951
762.082;  -36.390;-1104.027;-1093.951
762.342;   64.587; -328.027; -403.952
762.601;   75.039; -567.027; -506.952
762.861;  314.066; -281.026; -207.952
763.121;  385.743; -406.026; -411.953
763.381; 7005.095; -499.026; -485.953
763.640; 8740.171; -139.026; -307.954
763.900;  368.073; -242.026; -203.954
764.160;   76.875; -458.025; -491.954
764.419;   -5.523; -726.025; -782.955
764.679;  -69.921; -795.025; -726.955
764.939;   -8.269; -124.025; -210.955
765.198;  -64.868; -608.025; -563.956
765.458;  -80.366; -710.024; -612.956
765.717;  -82.639; -454.024; -590.957
765.976;  -56.962; -428.024; -411.957
766.236;  -75.210; -475.024; -610.957
766.495;    0.067;  260.977;   73.042
766.755; -108.131;-1090.023; -987.958
767.014;   -8.505; -594.023; -665.958
767.273;  -41.528; -373.023; -397.959
767.533;  -44.051; -228.023; -307.959
767.792;  -30.974; -151.022; -188.960
768.051;  -52.372; -228.022; -276.960
768.310;  -87.220; -546.022; -650.960
768.569;  -13.694; -161.022;    4.039
768.828;  -20.092; -285.022; -363.961
769.088; -114.340;-1050.021; -942.961
769.347;  -83.538; -755.021; -599.962
769.606;  -87.811; -876.021; -857.962
769.865; -123.009;-1016.021;-1033.963
770.124;   -0.532; -411.021; -336.963
770.383;  -56.081; -778.020; -910.963
770.641;    2.921; -398.020; -400.964
770.900;  -59.777; -953.020; -846.964
771.159;  -28.725; -851.020; -951.964
771.418;   -8.748; -917.020; -779.965
771.677;  144.829; -224.019; -293.965
771.936;  156.930; -794.019; -865.966
772.194; 2180.382; -465.019; -437.966
772.453;12147.109; -213.019; -391.966
772.712;  867.036;  416.982;  329.033
772.970;  139.188;   32.982;   63.033
773.229;   89.215;  -22.018;  102.033
773.488;  -70.534; -814.018; -770.968
773.746;   65.743;  296.982;  335.032
774.005;    1.320;  190.983;  -22.969
774.263;   12.822;  243.983;  177.031
774.522;  -38.176; -422.017; -548.969
774.780;  -75.424; -484.017; -417.970
775.039;  -80.447; -551.017; -531.970
775.297;  -36.821; -135.016; -351.970
775.555;  -97.669; -489.016; -612.971
775.814; -108.642; -618.016; -570.971
776.072; -108.215; -749.016; -740.971
776.330;  -95.913; -630.016; -520.972
776.589; -117.336; -703.015; -721.972
776.847; -129.335; -645.015; -624.973
777.105; -176.608;-1016.015;-1032.973
777.363;  -79.031; -459.015; -454.973
777.621; -130.729; -660.015; -717.974
777.879;  -28.952;  -42.014;   32.026
778.138;  -95.550; -554.014; -717.974
778.396; -110.123; -585.014; -526.975
778.654; -168.322;-1015.014; -970.975
778.912;  -64.220; -269.014; -371.976
779.170; -126.443; -880.013; -803.976
779.427; -147.116; -922.013; -897.976
779.685; -135.614; -880.013; -832.977
779.943;  -98.412; -654.013; -593.977
780.201; -149.936; -964.012; -883.978
780.459; -113.459; -651.012; -610.978
780.717;  -85.682; -440.012; -390.978
780.974; -107.255; -449.012; -490.979
781.232;  -87.953; -358.012; -338.979
781.490;  -80.001; -551.011; -472.979
781.747;  -99.100; -555.011; -476.980
782.005;   30.752;  462.989;  254.020
782.263; -157.746; -542.011;-1004.981
782.520;  -82.019; -326.011; -501.981
782.778; -166.942;-1013.010;-1051.981
783.035; -167.140; -962.010; -938.982
783.293;  -55.288; -248.010; -206.982
783.550;  -67.937; -134.010; -198.982
783.808; -132.310; -764.010; -776.983
784.065; -170.433; -745.009; -874.983
784.322;  -53.906;   25.991;  -86.984
784.580; -128.754; -915.009; -771.984
784.837;  -92.002; -392.009; -466.984
785.094; -132.326; -783.009; -762.985
785.352;  -62.124; -304.008; -404.985
785.609; -109.097; -934.008; -839.985
785.866;  -77.395; -345.008; -401.986
786.123;  -84.418; -639.008; -583.986
786.380;  -99.941; -665.008; -604.987
786.637;  -52.440; -225.007; -380.987
786.895;  -27.563; -456.007; -543.987
787.152;  -47.486; -135.007; -267.988
787.409;  -51.059; -123.007; -225.988
787.666;  -89.757; -299.006; -378.988
787.923; -110.955; -616.006; -695.989
788.179; -111.878; -551.006; -584.989
788.436; -102.602; -585.006; -585.990
788.693;  -35.000;  -92.006;  -87.990
788.950;  110.127; -125.005; -112.990
789.207;  176.654; -381.005; -372.991
789.464;  -51.869; -161.005; -301.991
789.720;  -30.592;  150.995;  110.009
789.977; -161.216;-1003.005; -671.992
790.234;  -39.389;   44.996;  -66.992
790.490; -150.412; -884.004;-1031.993
790.747;  -28.960;  -85.004;   22.007
791.004;  -34.958; -426.004; -348.993
791.260;  -76.381; -430.004; -560.994
791.517; -102.654; -843.003; -788.994
791.773;  -44.428; -379.003; -342.994
792.030; -110.126; -596.003; -660.995
792.286; -101.674; -686.003; -636.995
792.543;  -10.422;  -74.002; -159.995
792.799;  -47.520; -584.002; -382.996
793.055; -153.293;-1179.002;-1210.996
793.312;  -94.367; -827.002; -816.997
793.568;  -63.340; -746.002; -599.997
793.824;   14.362; -226.001; -284.997
794.081;   20.139; -447.001; -508.998
794.337;   61.391; -664.001; -561.998
794.593; 1131.793; -319.001; -271.999
794.849; 6609.194; -746.001; -772.999
795.105;  369.671; -270.000; -261.999
795.361;   15.673; -490.000; -457.000
795.617;  -50.975; -875.000; -945.000
795.873;  -49.175; -360.000; -407.000
796.129;  -56.575; -368.000; -306.000
796.385;  -25.650; -124.000; -156.000
796.641;   66.975;  412.000;  550.000
796.897;  -83.775; -666.000; -635.000
797.153;   68.000;  453.000;  357.000
797.409; -109.575; -785.000; -868.000
797.665;  -66.550; -625.000; -732.000
797.921;  -87.075; -775.000; -762.000
798.176;  -47.000; -744.000; -747.000
798.432;  -43.650; -824.000; -596.000
798.688;  -45.525;-1174.000;-1078.000
798.943;   87.450; -165.000; -147.000
799.199;   20.125;-1005.000; -959.000
799.455;  233.650;  369.000;  316.000
799.710;  133.400; -813.000; -380.000
799.966;  309.875; -162.000; -160.000
800.221;  484.425; -638.000; -721.000
800.477; 9893.200; -743.000; -710.000
800.732;10314.625; -773.000; -800.000
800.988;  673.125;  205.000;  -19.000
801.243; 1826.475; -454.000; -344.000
801.498; 9365.650; -814.000; -739.000
801.754;  588.800; -289.000; -163.000
802.009;  110.025; -257.000; -335.000
802.264;  -16.150; -967.000;-1033.000
802.520;   37.200;  222.000;   -3.000
802.775;  -39.950; -524.000; -359.000
803.030;   52.600;  395.000;  356.000
803.285; -103.525; -840.000; -903.000
803.540;  -63.825; -686.000; -699.000
803.795;  -52.625; -648.000; -583.000
804.051;  -35.800; -279.000; -346.000
804.306;    6.100;  168.000;  128.000
804.561;  125.300;  451.000;  362.000
804.816;  136.225;  714.000;  861.000
805.071;   -4.625; -185.000; -280.000
805.325;  192.650; -257.000; -427.000
805.580;  -98.800; -841.000; -877.000
805.835;  -11.875; -204.000; -297.000
806.090;  -77.100; -760.000; -676.000
806.345;   -6.350; -344.000; -264.000
806.600;  -29.250; -549.000; -632.000
806.854;  -27.225; -408.000; -538.000
807.109;  -18.625; -493.000; -577.000
807.364;    4.475; -407.000; -328.000
807.618;    2.700; -415.000; -381.000
807.873;   48.950; -470.000; -494.000
808.128;   95.300; -257.000; -518.000
808.382;   93.975; -224.000; -332.000
808.637;   63.750; -440.000; -511.000
808.891;  184.825; -257.000; -180.000
809.146;  109.875; -902.000; -794.000
809.400;  235.675; -848.000; -923.000
809.654;  335.325; -779.000; -551.000
809.909;  441.375; -841.000; -927.000
810.163; 5470.325; -813.000; -651.000
810.418;16663.625; -940.000; -861.000
810.672; 1092.075; -685.000; -690.000
810.926;  745.900; -993.000; -973.000
811.180; 1389.775; -439.000; -372.000
811.434;31629.750;  240.000;  135.000
811.689;15137.550; -231.000; -365.000
811.943;  700.100; -936.000; -953.000
812.197;  364.975; -893.000; -671.000
812.451;  149.025; -379.000; -514.000
812.705;  -25.225; -809.000; -619.000
812.959;    6.725; -263.000; -388.000
813.213;    6.575; -283.000; -209.000
813.467;   68.375;  470.000;  253.000
813.721; -102.825; -764.000; -792.000
813.975; -104.475; -826.000; -877.000
814.229;   37.850;  430.000;  353.000
814.482;  -65.725; -517.000; -566.000
814.736; -122.400; -766.000; -744.000
814.990; -124.275; -779.000; -872.000
815.244;  -35.750; -228.000; -285.000
815.497;  -95.750; -636.000; -601.000
815.751;  -13.700; -141.000;   82.000
816.005;  -93.100; -470.000; -586.000
816.258;  -62.550; -510.000; -363.000
816.512; -103.225; -693.000; -610.000
816.766;   -8.900;  121.000;  157.000
817.019;    5.825;  148.000;  149.000
817.273; -114.050;-1000.000; -802.000
817.526;  -38.375; -206.000; -173.000
817.779;  -63.775;-1049.000; -960.000
818.033;  -75.975; -693.000; -807.000
818.286; -115.725; -725.000; -792.000
818.540;  -83.650; -403.000; -403.000
818.793;  -81.700; -402.000; -489.000
819.046;  -98.600; -582.000; -520.000
819.299;  -42.900; -157.000; -166.000
819.553; -111.400; -552.000; -592.000
819.806; -162.375;-1016.000; -838.000
820.059;  -74.550; -334.000; -354.000
820.312;   -2.525;  152.000;  185.000
820.565;  -16.825;  110.000;  -27.000
820.818;  -39.625;  -59.000; -173.000
821.071; -160.300;-1041.000; -957.000
821.324; -104.425; -536.000; -540.000
821.577;  -98.100; -457.000; -483.000
821.830;  -78.750; -270.000; -172.000
822.083; -128.625; -733.000; -288.000
822.336;  -55.100; -261.000; -167.000
822.589; -143.925; -805.000; -688.000
822.842; -150.425; -875.000; -770.000
823.094; -169.425;-1076.000;-1114.000
823.347; -140.150; -925.000; -729.000
823.600;   23.425;  402.000;  187.000
823.853;  -58.900; -311.000; -267.000
824.105;  -70.925; -331.000; -575.000
824.358; -114.275; -617.000; -716.000
824.611;   25.575;  234.000;   40.000
824.863;  -57.150; -612.000; -591.000
825.116;   49.100;  -33.000;   27.000
825.368;   78.575; -366.000; -372.000
825.621;  150.950; -186.000; -240.000
825.873;   73.975; -704.000; -737.000
826.126;  512.500; -669.000; -641.000
826.378;11267.025; -389.000; -505.000
826.630; 3383.575; -890.000; -898.000
826.883;   51.550; -754.000; -693.000
827.135;   40.525; -279.000; -270.000
827.387; -105.250; -893.000; -839.000
827.639;  -26.700;  -86.000;   32.000
827.892; -128.450; -742.000; -582.000
828.144; -135.625; -848.000; -804.000
828.396;  -50.700;  104.000;  -80.000
828.648;  -95.925; -440.000; -333.000
828.900; -135.925; -702.000; -795.000
829.152; -121.650; -684.000; -683.000
829.404;  -64.225; -215.000; -267.000
829.656;  -23.975;  321.000;  214.000
829.908;  -30.200;  393.000;  229.000
830.160; -164.025;-1064.000;-1047.000
830.412;  -91.025; -481.000; -430.000
830.664; -117.025; -557.000; -665.000
830.916;  -83.500; -268.000; -206.000
831.167; -179.450;-1073.000; -951.000
831.419; -109.075; -623.000; -566.000
831.671; -149.175; -764.000; -809.000
831.923;  -89.625; -311.000; -447.000
832.174;  -70.500; -273.000; -331.000
832.426; -117.500; -493.000; -582.000
832.678; -186.600;-1043.000;-1091.000
832.929; -168.275; -947.000; -935.000
833.181;  -64.450; -575.000; -677.000
833.432;  -55.825;  -59.000; -186.000
833.684;  -38.725;  112.000;  -27.000
833.935; -118.400; -610.000; -566.000
834.187; -127.975; -829.000; -823.000
834.438;  -51.950;  -58.000;  -25.000
834.689;  -68.800; -255.000; -123.000
834.941;  -55.450; -343.000; -244.000
835.192;  -93.950; -590.000; -533.000
835.443; -101.650; -419.000; -506.000
835.695;  -13.200;  138.000;  -16.000
835.946; -102.400; -608.000; -378.000
836.197; -104.925; -599.000; -622.000
836.448;  -91.575; -528.000; -395.000
836.699;  -56.675; -253.000; -341.000
836.950;  -16.600;   72.000;    7.000
837.201; -160.625;-1003.000; -987.000
837.452;  -45.625; -356.000; -170.000
837.703; -127.125; -791.000; -737.000
837.954;  -36.825; -205.000; -365.000
838.205;  -95.075;-1029.000;-1008.000
838.456;  135.525; -196.000; -282.000
838.707;    5.500; -423.000; -519.000
838.958;   -6.025; -634.000; -647.000
839.209;  262.750;   18.000;   40.000
839.460;  106.000; -439.000; -201.000
839.710;  169.450; -135.000; -297.000
839.961;  412.825;  730.000;  612.000
840.212;  337.950; -382.000; -497.000
840.462; 1058.175; -328.000; -277.000
840.713;17166.600; -571.000; -536.000
840.964; 8283.050;  -62.000; -143.000
841.214;  525.350; -384.000; -624.000
841.465;  541.500; -214.000; -141.000
841.715;  458.725; -417.000; -380.000
841.966;  567.575; -746.000; -685.000
842.216; 7183.625; -330.000; -431.000
842.466;32312.375; -169.000; -313.000
842.717; 2190.250; -964.000; -952.000
842.967;  288.600; -635.000; -641.000
843.217;  253.875;   20.000;   28.000
843.468;   54.250; -104.000; -132.000
843.718;  -46.200; -718.000; -726.000
843.968;  -97.450; -837.000; -765.000
844.218;    2.375; -315.000; -262.000
844.469;  -51.850; -577.000; -561.000
844.719; -111.375; -537.000; -682.000
844.969;  -93.600; -550.000; -580.000
845.219; -141.775; -814.000; -862.000
845.469;  -91.325; -392.000; -342.000
845.719; -134.500; -792.000; -884.000
845.969;  -22.025;  119.000;  174.000
846.219; -133.625; -738.000; -720.000
846.469;   32.650;  464.000;  432.000
846.718;  -36.575; -115.000;   31.000
846.968; -138.250; -827.000; -827.000
847.218;  -35.625; -224.000; -371.000
847.468;    3.775; -586.000; -555.000
847.718; -136.725; -827.000; -798.000
847.967; -139.450; -826.000; -915.000
848.217;  -82.275; -449.000; -569.000
848.467;  -72.425; -405.000; -376.000
848.716; -112.750; -708.000; -725.000
848.966;  -17.750; -372.000; -358.000
849.215;  -65.350; -428.000; -419.000
849.465;  -90.525; -785.000; -615.000
849.714; -134.475;-1132.000;-1150.000
849.964;  -62.500; -551.000; -613.000
850.213;  -23.075; -393.000; -355.000
850.463;   78.125;  137.000;  340.000
850.712;    6.375; -542.000; -567.000
850.961;   14.300; -739.000; -678.000
851.211;   93.850; -513.000; -504.000
851.460;  167.800; -635.000; -650.000
851.709;  548.400;  -25.000;   18.000
851.958; 9586.650; -912.000; -750.000
852.208;14035.900; -859.000; -879.000
852.457;  540.775; -181.000;  -13.000
852.706;   71.325; -791.000; -823.000
852.955;   15.750; -507.000; -528.000
853.204;  -80.075; -521.000; -461.000
853.453;  -77.575; -418.000; -458.000
853.702; -113.350; -660.000; -750.000
853.951; -102.850; -532.000; -520.000
854.200; -100.850; -613.000; -562.000
854.449; -116.775; -695.000; -661.000
854.698;  -87.425; -340.000; -279.000
854.946;  -68.975; -181.000; -284.000
855.195; -143.475; -843.000; -868.000
855.444; -101.850; -395.000; -420.000
855.693; -124.350; -345.000; -432.000
855.941; -117.700; -387.000; -516.000
856.190;  -66.925; -256.000; -382.000
856.439; -137.875; -652.000; -703.000
856.687;  -59.725;  -99.000;  -72.000
856.936; -119.875; -621.000; -323.000
857.184; -176.700;-1067.000;-1020.000
857.433; -110.950; -423.000; -512.000
857.681; -158.750; -989.000; -953.000
857.930;  -87.725; -282.000; -433.000
858.178; -173.025; -856.000; -929.000
858.427; -141.300; -802.000; -781.000
858.675; -131.450; -377.000; -544.000
858.923; -120.100; -527.000; -819.000
859.172; -185.100;-1094.000;-1070.000
859.420;  -91.875; -339.000; -239.000
859.668; -142.375; -624.000; -628.000
859.916;  -31.975;  109.000;  115.000
860.164; -109.925; -699.000; -603.000
860.413;  197.675; -878.000; -696.000
860.661;  199.500; -709.000; -577.000
860.909;  -85.075; -339.000; -325.000
861.157;  -88.475; -277.000; -444.000
861.405; -126.775; -534.000; -670.000
861.653;   -1.125;  310.000;  310.000
861.901;  117.775; -543.000; -613.000
862.149;   -8.725; -801.000; -824.000
862.396;  -85.950; -297.000; -187.000
862.644;  -86.325; -368.000; -347.000
862.892;  -53.925;   98.000;  138.000
863.140; -127.375; -549.000; -530.000
863.388; -166.775; -815.000; -759.000
863.635; -121.625; -642.000; -601.000
863.883;  -21.300;  231.000;  190.000
864.131;  -92.125; -288.000; -357.000
864.378; -139.125; -675.000; -540.000
864.626;  -97.800; -347.000; -415.000
864.873; -120.475; -556.000; -505.000
865.121; -144.125; -714.000; -799.000
865.368;  -50.625; -173.000;   75.000
865.616;  -41.350;  -33.000;  -40.000
865.863;  -60.700; -462.000; -506.000
866.111; -101.075; -795.000; -824.000
866.358;   49.400; -426.000; -420.000
866.605; 2446.950;  -64.000; -804.000
866.853; 3022.875; -621.000; -537.000
867.100;    5.150; -728.000; -775.000
867.347;  -98.850; -672.000; -611.000
867.594;  -88.950; -740.000; -714.000
867.841;   61.275;   97.000;   17.000
868.089; -137.150; -746.000; -698.000
868.336;  -99.200; -477.000; -420.000
868.583; -140.875; -637.000; -741.000
868.830;  -44.700; -131.000; -170.000
869.077; -154.950; -859.000; -787.000
869.324; -134.475; -502.000; -458.000
869.571; -133.450; -398.000; -430.000
869.818; -129.650; -485.000; -439.000
870.065; -107.600; -439.000; -513.000
870.311; -121.800; -456.000; -542.000
870.558; -104.750; -332.000; -311.000
870.805; -102.875; -320.000; -384.000
871.052; -118.725; -494.000; -369.000
871.298;  -67.475; -204.000; -131.000
871.545;  -71.150; -151.000; -185.000
871.792;  -97.750; -173.000; -222.000
872.038;  -73.850;   43.000; -126.000
872.285; -129.700; -496.000; -387.000
872.532; -104.700; -357.000; -387.000
872.778;  -12.150;  556.000;  403.000
873.025;  -98.175; -384.000; -359.000
873.271;    4.425;  501.000;  578.000
873.517;  -39.000; -133.000; -209.000
873.764;  -39.200; -193.000;  -80.000
874.010;  -79.250; -143.000; -230.000
874.257;  -44.650;  123.000;   90.000
874.503; -124.500; -579.000; -479.000
874.749;  -63.900;   31.000;  275.000
874.995;  -67.500;  -80.000;  -20.000
875.242; -133.350; -540.000; -478.000
875.488; -118.575; -414.000; -439.000
875.734;  -62.300; -106.000; -234.000
875.980;   96.100; -872.000;-1032.000
876.226;  316.325; -157.000; -255.000
876.472;    3.175;  343.000;  237.000
876.718;  -51.425;  184.000;  158.000
876.964;  -45.475;   56.000;   55.000
877.210; -147.775; -547.000; -677.000
877.456; -146.475; -630.000; -557.000
877.702; -171.950; -821.000; -832.000
877.948; -122.950; -377.000; -497.000
878.193;    4.150;  361.000;  255.000
878.439;  -92.925; -487.000; -472.000
878.685; -102.175; -272.000; -343.000
878.931; -135.950; -618.000; -676.000
879.176; -103.075; -201.000; -201.000
879.422; -175.075; -933.000; -820.000
879.668;   37.800;   10.000;   79.000
879.913;  124.400;   53.000;  137.000
880.159;  -61.300; -112.000;  -17.000
880.404;  -72.800; -152.000; -162.000
880.650;  -48.200;   91.000;  141.000
880.895; -159.675; -670.000; -710.000
881.141; -132.500; -454.000; -428.000
881.386; -150.100; -503.000; -658.000
881.631;  -98.650; -311.000; -166.000
881.877;  -59.075;  112.000;  -13.000
882.122; -148.575; -684.000; -600.000
882.367;  -93.450; -136.000; -186.000
882.612;  -92.800;  -80.000; -176.000
882.858; -181.650; -877.000; -823.000
883.103; -109.175; -297.000; -267.000
883.348; -155.275; -759.000; -852.000
883.593; -147.825; -677.000; -602.000
883.838;  -61.975; -311.000;  -24.000
884.083;   17.925;  353.000;  288.000
884.328;  -98.650; -564.000; -545.000
884.573;  -63.150; -196.000; -143.000
884.818;  139.550; -694.000; -531.000
885.063;  161.500; -348.000; -315.000
885.308; -118.325; -475.000; -398.000
885.553;  -16.175;  245.000;  325.000
885.797; -137.150; -545.000; -615.000
886.042;  -59.950;    8.000;   58.000
886.287; -101.075; -253.000; -211.000
886.532;  -50.500;   26.000;  204.000
886.776; -104.150; -407.000; -525.000
887.021; -138.775; -621.000; -574.000
887.265; -148.725; -685.000; -689.000
887.510; -131.225; -557.000; -496.000
887.755;  -89.500; -194.000; -164.000
887.999; -146.125; -552.000; -575.000
888.244;  -58.075;  -58.000;  161.000
888.488;  -12.225;  371.000;  393.000
888.732; -137.925; -368.000; -520.000
888.977; -136.575; -622.000; -567.000
889.221; -152.450; -683.000; -659.000
889.465; -134.650; -422.000; -566.000
889.710;  -77.825;  -56.000; -299.000
889.954;   -9.575;  579.000;  467.000
890.198; -144.525; -584.000; -707.000
890.442; -150.350; -716.000; -712.000
890.687; -155.725; -800.000; -753.000
890.931; -107.025; -273.000; -210.000
891.175; -136.050; -502.000; -500.000
891.419;  -85.025; -105.000; -110.000
891.663;  -88.850; -239.000; -112.000
891.907; -165.300; -801.000; -545.000
892.151; -170.700; -920.000; -815.000
892.395; -112.950; -274.000; -387.000
892.638;  -41.325;  408.000;  291.000
892.882; -182.875; -780.000; -867.000
893.126;   15.625;  758.000;  558.000
893.370;  -98.850; -167.000; -168.000
893.614; -145.150; -714.000; -715.000
893.857; -114.325; -183.000; -197.000
894.101; -133.950; -527.000; -631.000
894.345;  -53.850;  300.000;  150.000
894.588;   21.225;  569.000;  380.000
894.832;  -95.025; -178.000;  -84.000
895.075;  -84.200;   15.000;  -92.000
895.319; -132.725; -552.000; -420.000
895.563; -112.975; -413.000; -353.000
895.806; -147.475; -628.000; -741.000
896.049;  -78.650; -576.000; -368.000
896.293;   81.500;  527.000;  405.000
896.536; -104.400; -465.000; -468.000
896.779;  -76.200; -149.000;   -1.000
897.023; -138.625; -751.000; -714.000
897.266;  -34.250;  325.000;  269.000
897.509; -180.775; -900.000; -901.000
897.752;  -47.250;  149.000;  171.000
897.996; -189.225; -972.000; -864.000
898.239;  -69.125;  168.000;  102.000
898.482; -120.575; -431.000; -453.000
898.725;  -51.025;  101.000;   53.000
898.968; -151.625; -609.000; -744.000
899.211; -113.950; -513.000; -361.000
899.454; -128.150; -633.000; -539.000
899.697;  -76.750;   90.000;  -43.000
899.940; -167.100; -761.000; -757.000
900.182;  -99.225; -335.000; -405.000
900.425;  -92.850; -150.000; -298.000
900.668;  -26.500;  491.000;  350.000
900.911; -106.700; -292.000; -345.000
901.154;  -66.775;  141.000;   -3.000
901.396; -138.875; -407.000; -412.000
901.639; -134.375; -430.000; -496.000
901.882; -190.025; -790.000; -809.000
902.124;  -96.550;  -29.000; -143.000
902.367; -118.425; -315.000; -361.000
902.609; -138.050; -476.000; -453.000
902.852;  -81.175; -108.000; -260.000
903.094; -130.875; -458.000; -337.000
903.337;  -63.875;  -26.000;   53.000
903.579; -104.600; -228.000; -441.000
903.821; -149.775; -597.000; -744.000
904.064;  -72.600;   85.000;  127.000
904.306;  -94.350; -126.000; -166.000
904.548; -110.875; -152.000; -366.000
904.790; -105.425; -195.000; -340.000
905.033; -137.025; -625.000; -577.000
905.275; -133.700; -513.000; -524.000
905.517;   21.375;  468.000;  256.000
905.759;  -61.300; -667.000; -761.000
906.001; -112.050; -322.000; -369.000
906.243;  -78.175; -162.000; -224.000
906.485;   81.275; -265.000; -207.000
906.727;   85.825; -499.000; -542.000
906.969;  -48.575;  -30.000; -135.000
907.211;   68.250; -316.000; -382.000
907.453;  215.575; -188.000; -237.000
907.695;   16.250; -158.000; -385.000
907.936;   26.525;  818.000;  706.000
908.178;  -55.875;   92.000; -135.000
908.420;  -72.100; -111.000; -162.000
908.662; -129.525; -633.000; -682.000
908.903;  -83.525; -208.000; -123.000
909.145;  -58.400; -240.000; -305.000
909.386;   -2.225;  315.000;  280.000
909.628;   33.650;  363.000;  397.000
909.870;   -8.200;   29.000;  264.000
910.111;  -89.925; -809.000; -949.000
910.353;   10.175; -123.000; -161.000
910.594;   -6.725; -574.000; -606.000
910.835;   76.000; -265.000; -326.000
911.077;  150.025; -503.000; -604.000
911.318;  282.700; -505.000; -471.000
911.559;  463.600; -577.000; -880.000
911.801; 1284.175; -284.000; -280.000
912.042; 9623.325;  -50.000; -159.000
912.283;28101.900;  404.000;  371.000
912.524; 5042.275; -396.000; -457.000
912.765;  542.800; -193.000;   79.000
913.006;  247.975; -307.000; -338.000
913.247;   51.525; -270.000; -290.000
913.488;   -9.650;  -43.000;   30.000
913.729; -104.800; -373.000; -373.000
913.970;  -59.500;  -96.000; -292.000
914.211;  -78.850; -160.000; -198.000
914.452;  -59.050; -118.000;  -11.000
914.693;   12.100;  510.000;  592.000
914.934;    0.375;  510.000;  440.000
915.175;  -70.400;   53.000;  -95.000
915.415;  -75.500; -137.000;   27.000
915.656;  -59.025;  -28.000;  192.000
915.897;  -95.575; -252.000;  -82.000
916.137;  -89.325;   74.000;   -9.000
916.378; -134.200; -573.000; -517.000
916.619;  -77.525; -159.000;  -63.000
916.859;  -23.800;  303.000;  330.000
917.100;  122.850; 1655.000; 1070.000
917.340;   37.775;  930.000;  728.000
917.581;   47.650;  965.000;  789.000
917.821;  -59.700; -171.000;  143.000
918.061;   20.175; -199.000;  -72.000
918.302;  -46.125; -152.000; -211.000
918.542;  -27.300;  -22.000;    3.000
918.782;   28.950;  369.000;  377.000
919.023;  107.825;  360.000;  427.000
919.263; 1627.625; 8131.000;  202.000
919.503; 1096.850; -137.000;  -54.000
919.743;  558.200;  390.000;  266.000
919.983;  272.750; -134.000;  -26.000
920.223;   94.175;  135.000;   14.000
920.463;  151.000;  631.000;  554.000
920.703;  148.800;   84.000;   39.000
920.943;  160.950; -110.000;   90.000
921.183;  249.575; -414.000; -405.000
921.423;  531.375;  307.000;  546.000
921.663;  784.825; -174.000; -257.000
921.903; 1608.200;  237.000;  173.000
922.143; 8607.275;  372.000;  389.000
922.383;35165.150;  158.000;  115.000
922.622;14057.400; -120.000;  -15.000
922.862; 1446.900;  796.000;  785.000
923.102;  525.300;  -51.000;   33.000
923.341;  226.200;   59.000;   74.000
923.581;  108.475;  450.000;  360.000
923.821;   20.450;  301.000;  398.000
924.060;   13.925;  351.000;  193.000
924.300;  -55.200;  -16.000; -128.000
924.539;  -18.175;  584.000;  473.000
924.779;    7.350;  812.000;  597.000
925.018;  -48.325;  247.000;  353.000
925.257;  -14.875;  595.000;  666.000
925.497;  -50.425;  447.000;  412.000
925.736;  -71.550;  -35.000;  102.000
925.975;   -3.250;  687.000;  669.000
926.214;   23.775;  907.000;  850.000
926.454;   12.225;  706.000;  757.000
926.693;  -46.875;  419.000;  543.000
926.932;   38.075; 1021.000;  825.000
927.171;   57.575; 1107.000; 1044.000
927.410;   63.500; 1144.000;  967.000
927.649;   15.475;  924.000;  742.000
927.888;   -2.900;  590.000;  564.000
928.127;   -8.225;  680.000;  678.000
928.366;   39.000;  842.000;  826.000
928.605;   38.650;  831.000;  737.000
928.844;  215.225; 1451.000; 1393.000
929.083;  559.500;  770.000;  613.000
929.321;  332.675; 1335.000; 1359.000
929.560;   84.525; 1158.000; 1122.000
929.799;  -29.225;  574.000;  475.000
930.038;   77.625; 1025.000; 1394.000
930.276;  -56.725;  334.000;  397.000
930.515;  -10.050;  827.000;  681.000
930.753;  -27.675;  614.000;  589.000
930.992;  -28.225;  664.000;  717.000
931.230;   20.825;  847.000;  847.000
931.469;  151.150; 2162.000;  892.000
931.707;   73.425;  840.000;  751.000
931.946;   67.575; 1278.000; 1344.000
932.184;   43.800; 1437.000; 1175.000
932.423;   41.000; 1265.000;  963.000
932.661;   83.825; 1296.000; 1428.000
932.899;   21.750;  987.000;  821.000
933.137;   -0.975;  754.000;  564.000
933.376;  139.675; 1664.000; 1335.000
933.614;  165.825; 1759.000; 1196.000
933.852;   53.350; 1357.000; 1171.000
934.090;  147.800; 1722.000; 1747.000
934.328;  108.400; 1252.000; 1457.000
934.566;  110.525; 1431.000; 1110.000
934.804;  144.150; 1263.000; 1309.000
935.042;  512.175; 1861.000; 1850.000
935.280; 2040.850; 2088.000; 2063.000
935.518; 2196.900; 2113.000; 2007.000
935.756;  447.125; 2481.000; 2316.000
935.994;  185.650; 1808.000; 1751.000
936.231;  350.350; 2890.000; 2950.000
936.469;  186.175; 2367.000; 2378.000
936.707;  153.825; 2220.000; 2167.000
936.945;  228.700; 2825.000; 2882.000
937.182;  196.700; 2679.000; 2741.000
937.420;  296.700; 3602.000; 3031.000
937.657;  389.375; 3365.000; 3478.000
937.895;  361.750; 3331.000; 3488.000
938.133;  301.650; 3540.000; 3528.000
938.370;  328.975; 3896.000; 4191.000
938.607;  385.050; 4488.000; 4205.000
938.845;  548.525; 5587.000; 5549.000
939.082;  477.025; 5387.000; 5177.000
939.320;  539.725; 5799.000; 5728.000
939.557;  614.575; 6549.000; 6491.000
939.794;  714.375; 7285.000; 7097.000
940.031;  879.900; 8421.000; 8368.000
940.269; 1069.825; 9552.000; 9107.000
940.506; 1100.675;10901.000;10507.000

