
Integration time [ms]: 100.000
Averaging Nr. [scans]: 40
Smoothing Nr. [pixels]: 0
Data measured with spectrometer [name]: 2101013U2
Wave   ;Sample   ;Dark     ;Reference
[nm]   ;[counts] ;[counts] ;[counts] 

394.013;   37.976; -450.257; -315.536
394.305;  172.549; -461.258; -419.536
394.596; 1590.224; -676.269; -527.514
394.887; 4193.419; -796.268; -654.518
395.178; 1506.106;  145.736;   11.476
395.470;   77.220; -210.263; -356.526
395.761;  141.762;  305.734;  394.479
396.052;  121.723; -545.284; -306.489
396.343;   91.582; -557.276; -454.503
396.634;   41.320; -200.279; -290.497
396.926;    6.766; -618.268; -565.517
397.217;   59.013;   11.725;  -17.504
397.508;   27.257; -366.273; -154.507
397.799;   26.545; -555.279; -571.497
398.090;    7.963; -973.280; -902.495
398.381;   80.382;   11.708;  -11.473
398.672;  -23.816; -585.292; -742.473
398.963;   20.677; -348.279; -373.498
399.254;   71.745;   54.709; -209.475
399.545;  -24.817;-1017.266; -883.520
399.836;   60.069; -407.277; -343.501
400.127;   38.579; -205.295; -209.468
400.418;   29.825; -423.274; -392.506
400.709;   42.297; -359.281; -333.493
401.000;   42.024; -268.291; -309.476
401.290;   90.027;  225.698;  115.545
401.581;   57.352; -166.286; -228.485
401.872;   17.945; -542.298; -486.462
402.163;   57.745; -313.296; -252.467
402.454;   92.571; -123.291; -163.475
402.744;   43.159; -844.297; -813.465
403.035;  232.722; -226.293;  -86.471
403.326;  332.787; -366.292; -384.474
403.617;  310.838;  204.701;  165.539
403.907;  359.430; -593.283; -679.490
404.198; 3588.672; -545.307; -599.446
404.489; 9097.711; -618.283; -588.491
404.779; 2539.856; -618.302; -660.456
405.070;  276.205;  -67.304; -174.451
405.360;  473.974; -259.293; -238.472
405.651;  484.270;  125.699;   98.542
405.942;  145.971;  209.714;  127.516
406.232;   88.014; -432.285; -413.487
406.523;  256.441;  641.706;  758.530
406.813;   48.399; -579.286; -644.484
407.104;  188.206;  261.708;  144.527
407.394;   58.240; -604.299; -591.462
407.685;  132.863;  336.715;  222.513
407.975;   65.209; -400.283; -382.490
408.265;  107.663; -134.289; -190.478
408.556;   61.117; -472.291; -459.475
408.846;  154.192;  474.706;  429.530
409.137;  101.898;   -1.288; -216.480
409.427;   84.914; -193.285; -271.487
409.717;   36.436; -776.273; -692.508
410.007;  139.806;    4.715; -170.486
410.298;  102.082; -360.295; -342.469
410.588;   81.410; -495.285; -510.486
410.878;   41.411; -792.287; -873.482
411.168;  110.048; -481.298; -478.463
411.459;  137.903; -295.283; -242.489
411.749;   79.565; -609.292; -507.474
412.039;   86.746; -755.289; -386.480
412.329;  210.561;   40.722;  132.501
412.619;  206.925;  -62.286; -148.485
412.909;  347.416;  639.711;  594.521
413.199;  301.413; -130.280; -251.495
413.490;  387.030;  521.710;  352.523
413.780;  202.243;-1013.279; -913.496
414.070;  375.359;  -46.276;  235.497
414.360;  405.606; -729.278; -666.498
414.650;  529.907; -726.288; -688.482
414.940;  739.367; -538.280; -441.496
415.230; 1221.478;   50.712;   74.519
415.520; 8534.273;  155.730;   66.486
415.809;34469.472; -305.281; -125.493
416.099;25904.447; -388.277; -229.501
416.389; 7757.348;  435.726;  236.494
416.679; 4501.399;   91.738;   85.473
416.969;  766.842; -527.287; -503.483
417.259;  648.570;  341.721;  171.503
417.549;  870.545;  522.718;  318.508
417.838; 2372.544; -205.268; -147.518
418.128; 8300.811;  650.710;  492.522
418.418; 6824.519; -491.272; -579.509
418.708; 4511.073;    9.726;  -48.506
418.997;17693.293; -474.275; -480.505
419.287;18149.006; -733.273; -790.507
419.577;17691.927; -160.283; -123.489
419.866;56713.094; -588.277; -498.501
420.156;55148.718; -242.270;  -55.513
420.446; 9149.690; -112.263;  -26.526
420.735;  881.486; -376.271; -446.512
421.025;  896.680; 1830.722;  315.502
421.314;  555.734; -203.271; -226.512
421.604;  707.860;   89.732;  233.484
421.893;  441.704; -705.271; -602.511
422.183;  269.915; -487.263; -461.526
422.472;  409.581;  -36.271; -107.511
422.762;  419.290; -416.266; -379.521
423.051;  269.709; -916.276; -916.503
423.341;  322.683; -491.273; -439.507
423.630;  410.873; -121.265;   15.477
423.919;  426.767;   58.725;   49.495
424.209;  467.422;  -31.263;   56.473
424.498;  632.241;   68.732;  161.483
424.787; 1500.598; -535.267; -601.518
425.077; 4301.671;   34.735;   29.478
425.366; 4822.804; -734.262; -744.528
425.655;13614.184;  639.727;  259.493
425.945;34915.784; -313.247; -268.554
426.234;18480.156;  117.741;  300.467
426.523; 7305.087;  -86.259; -350.534
426.812; 9848.410;  107.734;  159.480
427.101;14977.081; -127.269; -323.515
427.390;17565.673;  -55.270;  -86.514
427.680; 2577.511; -624.257; -411.538
427.969;  493.674; -330.255; -301.540
428.258;  347.376; -385.257; -477.536
428.547;  514.398;  449.728;  397.490
428.836;  774.769; -421.253; -398.543
429.125; 1057.615; -199.259;  -72.534
429.414;  811.021; -330.251; -294.548
429.703; 4478.646; -231.251; -213.548
429.992;14040.425; -938.250; -828.549
430.281; 8858.782; -397.264; -331.524
430.570;  611.310;  -21.252;   32.454
430.859;  410.037;  279.741;  352.466
431.148;  401.479;  636.752;  631.446
431.437;  281.534;  391.748;  367.454
431.725;  196.228; -544.257; -481.536
432.014;  198.002; -845.253; -756.545
432.303;  430.496; -149.239; -105.569
432.592;  570.565; -460.263; -178.525
432.881; 1417.281; -601.248; -437.554
433.169; 9579.350; -343.255;  -61.540
433.458;19377.187;  445.765;  540.424
433.747; 7547.610; -397.261; -289.529
434.036;  953.142; -275.242; -280.564
434.324; 2962.490; -395.249; -379.551
434.613; 5260.109;   40.757;  159.437
434.902; 1512.434;  333.760;  439.433
435.190;  288.544;   75.761;  295.431
435.479;  164.187;  -52.245;   83.441
435.767;   84.072; -411.244; -427.561
436.056;  198.912; -340.242; -294.563
436.345;  493.137; -372.240; -223.568
436.633;  443.285;   60.750;  383.450
436.922;  200.089;  208.760;  414.432
437.210;  210.124; -194.236;    1.426
437.499;  539.934; -583.235; -432.576
437.787;  599.899; -339.236;  -10.574
438.075;  203.551;   56.761;  162.430
438.364;  215.579;  -44.238;  250.429
438.652;  128.180; -286.226; -138.592
438.941;   86.337;    3.770;  269.415
439.229;  -19.444; -665.252; -466.545
439.517;   21.119; -160.234;  -85.577
439.806;   -7.600; -501.225; -290.595
440.094;  137.029;  377.766;  650.421
440.382;   33.083; -653.233; -302.580
440.670;   35.884; -361.235; -285.576
440.959;    9.245; -347.223; -170.599
441.247;   27.726; -151.229; -109.587
441.535;   35.517; -266.235;   31.423
441.823;    2.550; -497.234; -305.578
442.111;  167.606;  173.771;  327.412
442.400;  282.636; -628.245; -335.559
442.688;  540.378; -111.234; -620.579
442.976;  275.901; -786.213; -450.617
443.264;   48.383; -324.224; -364.597
443.552;   51.982; -258.226;   51.408
443.840;  136.566;  602.765;  876.423
444.128;   90.832;  265.767;  269.420
444.416;  -11.566; -694.228; -312.588
444.704;   11.581; -465.219;  -92.605
444.992;   48.535;   -0.226;  240.407
445.280;    1.738; -517.230;  -94.585
445.568;    0.881; -694.212; -396.618
445.856;  123.912; -174.221;  357.398
446.143;  274.427;  -54.220;   -7.604
446.431;  233.739;  -25.228;  625.411
446.719;  178.554;  489.783;  675.391
447.007;  160.781;  481.769;  705.416
447.295;  162.392;  597.777;  871.402
447.583;   83.248; -464.229;  -34.587
447.870;  116.583; -434.221; -202.601
448.158;  236.761; -104.230;  129.415
448.446;  144.453; -800.219; -338.604
448.733;  135.184;   13.776;  269.403
449.021;  182.430;   60.788;  341.382
449.309;  152.773; -296.210;  208.379
449.596;  228.375;  128.783;   59.392
449.884;  194.250; -571.222; -325.600
450.172;  272.695; -756.227; -406.590
450.459;  635.556;  645.786;  780.387
450.747; 3787.673; -411.218; -147.608
451.034;12189.165;  493.772;  889.411
451.322; 9878.360; -413.214; -170.614
451.609;  727.986;  292.777;  508.403
451.897;  885.524; -550.203; -183.634
452.184; 2730.442; -622.223; -400.598
452.472; 2415.274;   97.792;  269.375
452.759;  339.529;  512.781;  864.395
453.047;   91.602; -407.212; -125.617
453.334;   39.188; -732.219; -216.606
453.621;   18.738; -438.214; -161.615
453.909;   76.890;   13.796;  384.368
454.196;   91.244; -299.199; -123.641
454.483;  222.790;  317.798;  540.364
454.771;  124.203; -215.208;  196.374
455.058;   50.657; -316.207;  102.374
455.345;  154.836;   71.807;  344.347
455.632;  126.111; -128.207;  235.373
455.919;   63.746;  -82.196;  182.354
456.207;  -51.700; -774.198; -450.642
456.494;    3.129; -475.200;  -66.639
456.781;   13.285; -399.202; -198.635
457.068;   60.694; -253.206;  -29.628
457.355;   -6.630; -698.206; -401.629
457.642;   -3.474; -552.205; -290.630
457.929;   18.400; -778.194; -417.651
458.216;  101.203; -575.212; -354.617
458.503;  395.156; -173.193;  -19.652
458.790;  413.925; -864.208; -630.625
459.077;  372.766;  -77.202;  110.364
459.364; 1211.142; -350.195; -210.649
459.651; 2558.016;  -46.206;  220.372
459.938; 1143.389; -864.209; -665.623
460.225;  120.144;  132.799;  276.363
460.512;  -55.632; -836.197; -688.645
460.799;  123.547;  -32.218;  320.392
461.086;   84.535; -370.200; -251.640
461.372;    6.075; -509.198; -279.642
461.659;   62.223; -165.196;  108.354
461.946;   24.479; -445.193;  -54.651
462.233;  208.307;  842.800;  888.361
462.519;  497.278; -814.201; -464.639
462.806; 1524.769; -768.197; -497.645
463.093; 1251.654; -445.191;  -66.656
463.380;    2.104; -920.186; -824.664
463.666;   50.696; -259.197;  -18.646
463.953;  144.210; -406.195; -243.648
464.239;  275.035; -173.195;  -77.648
464.526;  400.948;  413.806;  743.350
464.813;  330.668; -565.190; -304.658
465.099;  329.080;  606.807;  607.348
465.386;  265.135;  903.807;  921.348
465.672;    8.119; -694.197; -522.645
465.959;   30.815; -598.188; -520.662
466.245;   -4.140; -468.193; -359.652
466.532;   47.533; -109.195;   63.352
466.818;   21.578; -357.186; -216.664
467.104;   -7.298; -488.182; -415.672
467.391;  -12.130; -628.189; -459.658
467.677;   23.683; -289.186;    9.335
467.964;   -5.897; -682.189; -471.660
468.250;   37.136; -331.186; -160.665
468.536;   80.047;   90.811;  180.341
468.822;  -27.225; -821.184; -574.668
469.109;  155.849;  351.827;  471.311
469.395;  191.547;  729.808;  787.346
469.681;  228.575;   46.811;  156.341
469.967; 1796.506; -699.188; -382.660
470.254; 4000.465; -494.188; -306.662
470.540; 2504.321; -601.196; -476.646
470.826;  373.715; -488.181; -397.675
471.112;  412.780;  288.816;  113.331
471.398;   83.685; -253.183;  -58.670
471.684;   45.174; -626.177; -447.680
471.970;   27.220; -918.180; -981.675
472.256;   51.871; -521.192; -441.654
472.542;   29.412; -499.171; -434.691
472.828;   15.197; -743.182; -607.672
473.114;   23.040; -380.166; -283.700
473.400;    7.094; -504.175; -293.684
473.686;   41.372; -452.166; -400.701
473.972;   37.887; -230.174; -131.687
474.258;  -12.951; -925.173; -843.689
474.544;  320.314; -183.178;   -2.679
474.830;  506.246;  -65.175;   45.316
475.116;  809.795; -123.190; -196.658
475.401; 1104.773; -558.180; -467.676
475.687;  279.046; -725.180; -718.676
475.973;  -26.368; -673.181; -770.673
476.259;  222.749;  736.825;  764.315
476.544;  529.609; -539.176; -437.682
476.830; 1377.283; -398.172; -322.690
477.116; 1210.257; -430.177; -336.682
477.401;  157.047;  346.820;  358.324
477.687;  -23.081; -289.175; -405.684
477.973;    7.486;   21.819;   28.326
478.258;  -11.628; -448.163; -348.706
478.544;   29.242;   21.815;   61.334
478.829;  -64.081; -818.171; -738.692
479.115;  -50.793; -749.172; -651.690
479.401;  -10.044; -444.174; -449.686
479.686;   51.646; -253.180;  -74.676
479.972;   14.470; -886.178; -776.680
480.257;   59.492; -258.166;  -65.700
480.542;   26.624; -614.170; -469.693
480.828;  224.992; 1288.824; 1392.317
481.113;  -33.535; -464.176; -426.683
481.399;  -21.499; -236.161; -202.711
481.684;  -52.484; -620.166; -462.700
481.969;   10.092; -158.159;  -73.713
482.255;  -11.188; -439.169; -285.695
482.540;   18.371; -569.178; -441.680
482.825;   22.748; -395.187; -404.663
483.110;  145.941;  -85.169; -105.696
483.396;  380.518; -840.157; -652.718
483.681;  739.212;  543.826;  730.313
483.966;  293.785; -696.160; -700.712
484.251;   -3.489; -404.174; -310.687
484.536;   11.304; -356.165; -378.703
484.822;   32.364; -205.173; -218.687
485.107;  -29.636; -599.152; -502.726
485.392;  119.711;  662.836;  541.296
485.677;   65.527;  354.832;  163.302
485.962;  112.590;  160.843;  270.283
486.247;   93.957;  -14.162;   -8.707
486.532;   63.618; -178.166; -325.701
486.817;  179.419;  381.839;  431.291
487.102;  146.943; -453.154; -514.722
487.387; 1078.370; -637.156; -652.718
487.672; 1944.617; -154.164;  -38.705
487.957; 1219.428; -394.160; -286.711
488.241;  323.634; -290.150; -314.729
488.526; 1198.241; -280.152; -148.726
488.811; 1982.323; -881.177; -818.680
489.096; 1380.622; -666.154; -702.723
489.381;  703.536;    3.847;  162.275
489.666;  647.325; -428.161; -510.710
489.950;  192.525;  558.846;  627.277
490.235;  -35.497; -480.151; -458.728
490.520;  -38.101; -756.161; -723.710
490.804;  -31.352; -827.156; -736.719
491.089;    9.178; -469.149; -299.732
491.374;   33.590; -132.164;  -75.704
491.658;  -14.333; -817.147; -717.735
491.943;  133.446; -657.152; -609.727
492.227;  215.613; -178.155;  -38.721
492.512;   33.364; -294.157; -341.717
492.797;  -60.379; -713.149; -716.731
493.081;  -46.080; -588.147; -598.735
493.366;  -24.974; -751.161; -635.711
493.650;  238.509;  831.859;  917.254
493.935;   57.891; -648.147; -447.734
494.219;  -22.656; -778.142; -687.743
494.503;  -24.060; -585.150; -487.730
494.788;   50.379;   46.842;   74.285
495.072;  136.211;  184.850;  434.271
495.356;  244.007; -463.148; -343.733
495.641;  539.078; -812.146; -736.736
495.925;  461.679; -976.156; -903.719
496.209;    7.802; -599.149; -451.732
496.494;  -44.005; -763.142; -544.744
496.778;   24.569; -364.154; -360.722
497.062;  -37.847; -819.156; -627.719
497.346;    7.480; -869.160; -640.711
497.631;  162.111;  580.852;  560.266
497.915;   72.766;  -64.145;  175.261
498.199;   25.893; -341.157; -277.718
498.483;   35.189; -562.152; -508.725
498.767;  247.562;  301.850;  300.271
499.051;  266.950; -126.149; -100.732
499.335;   59.297; -693.149; -739.731
499.619;  -46.894; -381.129; -423.767
499.903;   20.262; -272.155;  -65.721
500.187;   25.327; -588.153; -316.724
500.471;   26.270; -796.152; -595.727
500.755;  108.600;   62.839;  -96.710
501.039;   14.512; -270.155; -357.721
501.323;   57.236;  -21.141;  264.254
501.607;   22.023; -447.163; -503.706
501.891;    0.595; -607.156; -512.718
502.174;  -28.346; -726.144; -585.741
502.458;   65.375;   89.849;  370.273
502.742;   62.615; -180.138; -191.751
503.026;  195.791; -412.147; -254.734
503.310;  301.291; -437.159; -375.713
503.593;  206.693; -464.147; -325.735
503.877;  133.864; -232.133; -156.760
504.161;  190.605;    2.847;  -50.724
504.444;  186.557; -841.158; -710.716
504.728;  752.814; -487.164; -522.704
505.012; 1107.908; -257.150;  -76.729
505.295;  825.001; -417.161; -212.711
505.579;  815.928; -256.156; -496.719
505.862; 1251.061; -555.145; -333.738
506.146; 1243.344; -681.159; -758.714
506.429;  557.719;  568.841;  461.286
506.713;  114.055; -732.151; -667.728
506.996;  480.143;   90.846;  295.278
507.280;  560.608; -633.165; -474.703
507.563;  374.535; -469.155; -261.721
507.847;  188.278; -423.153; -112.724
508.130;  181.627; -665.161; -456.711
508.413;  216.986; -758.167; -577.700
508.697;  394.087; -151.167;   12.300
508.980;  270.605; -422.153; -312.724
509.263;   34.856; -466.155; -450.720
509.547;   51.908; -124.150;   82.271
509.830;   43.704; -172.160;  140.289
510.113;   97.678;  128.844;  298.281
510.396;   60.912; -530.152; -300.725
510.680;   55.338; -818.145; -812.738
510.963;  196.673;  184.846;  180.277
511.246;  130.792; -493.150; -357.730
511.529;  311.869; -482.145;  -83.739
511.812;  621.010; -250.134;   10.241
512.095;  477.976; -740.151; -396.728
512.378;  114.073; -317.147; -245.736
512.661;   76.599; -703.137; -623.753
512.944;   75.246; -750.142; -637.744
513.227;  102.671; -170.137; -171.752
513.510;   59.379; -479.144; -671.741
513.793;   43.017; -485.140; -435.747
514.076;  174.131;  -43.127;  -39.771
514.359;  158.878; -294.149; -135.732
514.642;  149.275; -442.142; -567.744
514.925; 1139.390;  581.860;  561.253
515.208; 1657.180; -498.134; -443.758
515.491; 1037.572; -276.133; -182.761
515.773;  580.384; -410.143; -337.742
516.056; 3263.007;  249.864;  409.246
516.339; 4341.137; -754.136; -652.755
516.622; 2051.314; -518.150; -488.730
516.904;  565.417;  882.857;  975.257
517.187;  218.844; -730.138; -523.752
517.470;  436.391; -568.143; -510.743
517.752;  724.515; -624.136; -470.756
518.035;  596.854; -708.139; -725.749
518.318;  627.937; -799.136; -744.755
518.600; 3987.926; -300.132; -325.762
518.883; 5519.799;  310.858;   88.256
519.165; 2534.111; -585.138; -426.751
519.448;  433.226;  -61.132;  -19.762
519.730;  212.165; -573.126; -415.773
520.013;  237.767;  588.867;  664.240
520.295;  327.737;  -94.134;  -15.759
520.578;  680.941; -335.131; -305.764
520.860;  935.226; -254.132;   56.238
521.143;  656.193; -763.135; -584.756
521.425;  592.781; -251.125; -279.775
521.707;  997.232; -622.127; -380.771
521.990; 2817.432; -199.127;  167.229
522.272; 3297.894; -116.140;   -4.748
522.554; 1212.985; -237.143; -157.742
522.836;  247.409;  -24.134;   99.241
523.119;  194.464; -496.148; -189.734
523.401;  172.475; -448.130; -314.766
523.683;  186.150; -865.137; -693.753
523.965;  423.692;  408.862;  260.248
524.247;  455.731;   54.878;  170.220
524.529;  309.886; -451.134; -367.759
524.812;  502.252;   -3.130;  191.234
525.094; 1404.041; -773.138; -631.751
525.376; 2198.292; -143.124;   78.223
525.658; 1329.633; -441.136; -339.754
525.940;   94.212; -805.131; -671.764
526.222;   15.438; -188.136;  -88.755
526.504;   67.735; -190.131;   32.237
526.786;   20.289; -960.133; -647.760
527.068;  111.348; -124.123;  -67.778
527.349;   11.504; -865.137; -774.754
527.631;  119.875; -137.132;   22.238
527.913;  234.681; -664.127; -450.771
528.195;  325.222; -761.125; -639.774
528.477;  382.330;  -93.134;  -30.758
528.759;  290.452; -648.130; -522.766
529.040;  157.272; -569.123; -293.778
529.322;   91.076; -235.125;  -10.774
529.604;  101.454;  -47.130;   93.233
529.886;   49.090; -546.126; -302.773
530.167;   72.820;  232.870;  192.235
530.449;   45.122;    1.853;   63.265
530.731;   73.580; -572.122; -459.779
531.012;  150.555; -513.120; -216.784
531.294;  140.477; -118.116;  -43.792
531.575;  205.981;  290.875;  538.225
531.857;  138.599; -548.135; -266.757
532.138;  134.360; -113.141;   40.254
532.420;  125.820;  294.865;  403.244
532.701;   90.642; -722.133; -751.760
532.983;  215.871;  232.867;  182.239
533.264;   58.188; -243.126;  175.228
533.546;  -41.088; -491.136; -508.755
533.827;   22.163;  173.867;   -1.759
534.109;   16.724; -352.135;  -80.757
534.390;   95.955; -725.132; -582.762
534.671;  286.319; -270.135;  -82.756
534.953;  201.800; -751.123; -611.779
535.234;   39.209; -426.117; -255.789
535.515;  -52.260; -891.119; -735.785
535.796;  -12.074; -431.128; -193.770
536.078;  -93.509;-1050.124; -904.777
536.359;   25.176;  -22.123;    3.221
536.640;  -11.226; -480.125; -197.774
536.921;  182.861;  225.871;  143.232
537.202;  548.962;  -87.138;  -16.751
537.483;  671.316;  251.869;  377.236
537.764;  277.245;   17.870;   98.235
538.045;  -32.246; -543.134; -371.758
538.326;  -13.162; -596.129; -447.768
538.607;   82.783; -686.127; -476.771
538.888;  271.045;   98.879;    5.218
539.169;  289.863; -704.122; -535.781
539.450;  412.960;  236.871;   16.233
539.731;  278.649; -361.121; -182.783
540.012;  156.480;  199.880;  412.216
540.293;   98.135;   82.876;  158.224
540.574;    4.352; -895.113; -717.796
540.855;  517.772;  435.879;  377.218
541.136;  667.660;   47.878;  139.220
541.416;  375.553; -161.130; -220.766
541.697;  311.960; -274.131; -170.763
541.978; 1664.522; -270.135; -315.757
542.259; 2121.457; -211.127; -236.771
542.539;  963.170; -191.116; -186.790
542.820;  210.505;  461.875;  480.225
543.101;  133.565;  -52.145;  -77.738
543.381;   56.507; -638.127; -591.771
543.662;  364.079;  159.873; -254.771
543.942;  952.252; -751.127; -830.770
544.223; 1671.887;  193.878;  161.219
544.504; 1106.141; -275.124; -182.777
544.784;  899.640; -592.126; -408.773
545.065; 2525.974;  104.884; -254.791
545.345; 2948.766;  227.881;   14.215
545.626; 1955.901;  -14.113; -108.796
545.906; 1414.594;   77.869;   98.235
546.186;  589.320;   92.874;  -95.773
546.467;  322.294;   99.877;  -95.778
546.747;  488.145;  264.884;  327.210
547.027;  576.414;   91.876;  111.223
547.308;  561.851; -376.127; -530.770
547.588;  584.889;  299.871;  371.232
547.868;  250.720;  458.870;  588.235
548.149;  255.808;  609.885;  593.207
548.429;  235.630; -347.127; -299.771
548.709;  381.055; -645.120; -461.784
548.989;  773.727;   84.882;   88.213
549.269; 3300.624;   10.868;  139.239
549.550; 7758.399;  215.877;  117.222
549.830; 6949.748; -758.111; -556.799
550.110; 1371.782; -468.110; -320.801
550.390; 1319.206; -128.122;  -56.779
550.670; 1928.271; -868.114; -783.795
550.950; 1321.422; -509.121; -471.782
551.230;  255.093;  549.879;  460.218
551.510;   32.721; -381.121; -326.782
551.790;   87.067; -173.109; -127.803
552.070;  339.194;  940.877; 1181.223
552.350;  696.670; -492.119; -377.786
552.630;  964.890;   -2.121;   77.219
552.909;  583.925;  181.884;   73.209
553.189;  393.007;  -49.132;   33.237
553.469;  376.545; -703.119; -514.786
553.749;  368.059; -469.127; -357.772
554.029;  265.739;   33.883;  -24.790
554.308;  267.589; -154.115;  -37.794
554.588;  138.175; -196.128; -204.770
554.868;  158.673; -366.121;  -47.782
555.147;  280.935; -114.115;  -46.793
555.427;  971.853; -260.116; -250.792
555.707; 6227.108; -284.115; -200.793
555.986; 7781.052; -719.111; -538.800
556.266; 3919.893;   23.884;   72.210
556.546;  237.046; -888.121; -675.782
556.825;  453.394; -657.114; -556.794
557.105; 2875.272; -125.128;   17.230
557.384; 3440.749;  122.884;  187.209
557.664; 1364.677; -717.116; -508.792
557.943;  241.347; -557.121; -411.782
558.222;  325.606; -345.118; -344.788
558.502;  435.012; -116.115;  -76.793
558.781;  743.006;  194.885;  499.208
559.061;  677.305; -232.118; -227.788
559.340;  465.411;  302.883;  353.211
559.619; 1151.043;   93.884;  148.210
559.899; 1738.789; -239.117; -266.789
560.178; 1547.811; -778.115; -593.793
560.457; 4893.841; -623.117; -562.790
560.736; 6882.304; -472.111; -482.800
561.015; 4505.195; -500.128; -502.769
561.295;  561.165;  180.893;  215.193
561.574;  439.908;  119.885;  116.207
561.853;  691.422;  274.891;  303.197
562.132;  801.539;  -45.114;  182.206
562.411;  669.015;  396.879;  553.219
562.690;  268.506; -592.115; -458.792
562.969;  179.985;  472.888;  630.203
563.248;  558.738; 2966.878; 2487.219
563.527;  477.178; -290.111; -408.800
563.806;  663.330; -650.127; -521.771
564.085;  698.134; -297.105; -206.810
564.364;  454.067; -594.117; -405.790
564.643;  839.791; -276.121; -223.781
564.922; 3022.664;  221.890;  397.198
565.201; 3160.894; -640.109; -700.803
565.479; 1295.829; -297.115; -219.792
565.758;  584.647; -810.128; -712.770
566.037;  773.045; -155.109; -100.803
566.316;  380.899; -286.116;  -28.791
566.595;   72.958;  -17.115;  -12.793
566.873;  130.630; -166.111;  -79.801
567.152;  -39.141; -490.113; -590.797
567.431;   25.844; -113.116;    6.210
567.709;   42.791; -344.107; -212.807
567.988;  477.218; -810.114; -769.794
568.266;  866.108; -160.115;  -68.793
568.545;  664.265; -644.100; -514.819
568.824;  954.954;  160.885;  356.208
569.102;  976.518; -351.114; -235.794
569.381;  447.378; -492.116; -407.792
569.659;  -10.220; -553.113; -553.796
569.938;  121.035; -743.122; -465.780
570.216;  205.673; -225.109; -225.804
570.494;   14.772; -632.114; -572.795
570.773;   41.870;  202.879;  114.218
571.051;   57.348; -373.123; -357.778
571.330;  116.802; -221.113; -174.796
571.608;   90.112; -181.098; -173.823
571.886;  -29.754; -671.111; -581.799
572.164;  -29.802; -739.121; -621.782
572.443;  -27.137; -562.105; -512.811
572.721;  -14.284; -399.117; -289.790
572.999;   -3.092; -280.117; -168.788
573.277;  108.980;  379.894;  620.191
573.555;  471.783;   94.894;   37.190
573.834; 2245.108;  -86.117; -114.788
574.112; 2536.143;  880.893;  811.193
574.390;  770.104; -143.111;  -96.801
574.668;   30.361;  -91.112;  -61.797
574.946;   11.708; -165.106; -187.810
575.224;   24.044;   71.891;  -16.803
575.502;    3.121; -200.116; -204.791
575.780;  -53.988; -767.112; -829.798
576.058;  220.253; 1589.889; 1004.200
576.336;  -14.190; -210.110; -129.801
576.614;  -31.763; -511.112; -340.798
576.891;  161.663; -711.115; -823.794
577.169;  825.108; -158.108; -285.805
577.447;  943.493;  169.893;  202.193
577.725;  371.343;  629.888;  854.201
578.003;   46.640;  -71.112; -371.798
578.280;  139.499; -208.104; -242.812
578.558;  119.612; -450.115; -422.793
578.836;  163.997; -210.114; -145.795
579.114;  101.235; -630.112; -670.797
579.391;   73.060;   -6.117;  -18.789
579.669;  -35.811; -595.114; -704.794
579.947;  279.639; -326.107; -127.806
580.224;  584.639; -692.107; -524.806
580.502;  502.019;  127.893;   76.193
580.779;   37.767;  -42.117;   75.210
581.057;  -57.876; -584.109; -470.804
581.334;  -83.858; -726.102; -695.815
581.612;   36.409;   54.895;  511.190
581.889;  -11.142;  -83.101; -129.818
582.167;  -16.650; -298.099; -190.821
582.444;  -74.599; -845.102; -814.817
582.721;  100.377;  657.899;  715.183
582.999;  115.947; -326.100; -167.821
583.276;  943.753; -812.123; -713.779
583.553; 1224.621; -364.102; -294.816
583.831;  448.320; -607.104; -631.812
584.108;   84.980;  349.892;  174.195
584.385;   54.616; -122.102;  -98.815
584.662;  -30.019; -651.111; -828.801
584.940;   45.930;  204.889;  204.199
585.217;   -0.720;  -73.113; -303.796
585.494;   54.940;   71.890;  118.198
585.771;  339.750; -250.109; -354.804
586.048;  800.379; -196.113;  -76.796
586.325;  538.409; -721.110; -773.801
586.602;  137.024;  230.896;  213.188
586.879;   38.317; -499.100; -580.820
587.156;  105.710; -156.105; -331.810
587.433;    9.449; -701.102; -667.817
587.710;  115.263;  152.888;  234.202
587.987;  472.291; -264.105; -236.811
588.264; 1166.315;  315.888;  387.202
588.541; 1974.402;  -61.104;   26.187
588.818; 4081.902;   72.892;  171.196
589.095; 3494.897; -163.104; -174.812
589.371;  568.197; -459.109; -414.804
589.648;   47.918; -581.107; -437.807
589.925;   95.548; -517.114; -621.795
590.202;  103.538; -741.112; -607.798
590.478;  151.818; -166.105;  -73.811
590.755;  406.384; -241.108; -132.806
591.032; 3851.336; -741.110; -699.802
591.308; 5473.385; -732.094; -790.831
591.585; 2805.011; -573.110; -560.802
591.862;  327.976;-1056.102; -950.817
592.138;  145.982; -475.108; -474.805
592.415;  258.225; -486.104; -495.813
592.691; 2178.148;  460.896;  518.188
592.968; 2926.014; -208.098; -123.824
593.244; 1405.995; -695.116; -595.790
593.521;  126.426; -105.102;  -42.817
593.797;   38.057; -810.122; -720.780
594.074;  551.954; -611.096; -588.826
594.350;  966.793;  828.905;  729.172
594.626;  474.481; -303.111; -283.801
594.903;  237.352; -643.101; -645.817
595.179;  288.055;  243.896;  418.187
595.455;   31.095; -136.107; -150.807
595.731;   14.657;  -19.103;  -38.814
596.008;  -20.351; -464.111; -434.800
596.284;   82.420; -187.100; -242.820
596.560;  160.118; -501.093; -493.833
596.836;  350.812; -173.105;  -70.810
597.112;  593.057; -582.108; -437.805
597.388;  459.077;  -49.097;  -48.826
597.665;  152.983;  437.887;  530.203
597.941;  -35.147; -572.089; -658.839
598.217;   57.865; -323.110; -293.802
598.493;  435.151;   61.891; -204.804
598.769;  837.463; -175.100;  -50.819
599.045;  536.186; -490.108; -562.806
599.321;  123.069; -193.100; -261.820
599.597;  276.101; -355.109; -476.804
599.872;  753.527;  409.896;  429.187
600.148;  601.778;  -61.097; -172.826
600.424;  459.342;   91.893;  202.193
600.700;  412.069; -170.107; -280.807
600.976;  235.147; -442.097; -464.825
601.252;  429.196; -226.109; -272.803
601.527;  428.103; -833.104; -840.813
601.803;  273.769; -453.105; -404.812
602.079;  308.888; -124.100; -118.819
602.354;  915.430; -620.092; -531.835
602.630; 1323.080; -140.113; -482.796
602.906; 3528.083; -910.101; -863.818
603.181;10593.895; -627.119; -534.786
603.457; 8934.976;   98.903; -278.826
603.733; 1337.250; -605.120; -626.783
604.008; 1440.934; -245.106; -164.810
604.284; 4810.928; -636.101; -580.817
604.559; 4182.293;   -3.112;  -42.799
604.835;  773.137; -163.105; -225.810
605.110;  711.000; -732.099; -892.821
605.385; 1091.171;  224.907;  267.167
605.661; 1052.721; -625.095; -729.829
605.936; 1967.736; -664.108; -737.806
606.211; 1618.040;  -17.103; -170.815
606.487;  356.892; -329.114; -376.794
606.762;  102.670; -791.119; -745.786
607.037;   14.587; -501.105; -433.810
607.313;  -10.887; -589.096; -574.828
607.588;   30.608; -375.106; -137.810
607.863;   98.782;  -28.101; -143.818
608.138;  256.263;  513.890;  516.198
608.413;  122.755; -576.099; -592.822
608.688;  100.182; -203.108; -267.805
608.964;  354.276; -509.106; -218.809
609.239;  425.359; -107.105; -212.810
609.514;  383.569;  281.895;  240.188
609.789; 1059.899; -187.104; -716.812
610.064; 1395.436; -435.096; -609.827
610.339; 1440.822; -855.109; -799.804
610.614; 1974.895; -131.100; -315.820
610.889; 1070.419;  215.895;  107.188
611.163;  116.095; -407.104; -591.812
611.438;  165.543;   81.886; -167.794
611.713;   66.003; -467.101; -499.817
611.988;  113.881; -144.101; -328.818
612.263;   51.242; -771.102; -717.815
612.538;  318.304;  385.887;  251.204
612.812;  371.746; -832.100; -911.820
613.087;  250.711; -358.098; -338.823
613.362;  -15.905; -497.107; -557.807
613.637;   66.535;  261.897;  138.186
613.911;   40.530; -256.092; -345.835
614.186;  232.843; -249.107; -292.807
614.460; 1193.218; -842.081; -758.854
614.735; 1284.781;  -55.087;  -17.843
615.010;  275.494;   43.912;  -82.841
615.284;  352.306;  360.892;  246.195
615.559;  654.929; -792.092; -955.835
615.833;  465.878;  -76.099;  -87.822
616.108;   49.368; -225.090; -390.837
616.382;  210.208;  274.913;  402.156
616.656;  290.144; -241.090; -232.837
616.931;  807.703; -785.099; -700.822
617.205; 1729.279; -973.104; -979.813
617.480; 1555.853;  -91.125;    6.225
617.754;  296.225; -396.125; -128.774
618.028;   75.215; -369.129; -382.768
618.302;  125.429;   73.892;  -25.805
618.577;   -7.538; -371.103; -518.815
618.851;  -39.957; -399.109; -600.803
619.125;  -36.264; -335.134; -378.759
619.399;  -10.621; -244.104; -374.813
619.673;  -31.371; -330.115; -515.792
619.947;  -18.854; -333.114; -448.795
620.222;   -7.093; -198.110; -204.801
620.496;   26.873;  -47.121;  -96.782
620.770;   33.888; -187.122;  -93.781
621.044;  294.435;  323.895;  346.190
621.318; 1179.726; -653.120; -614.783
621.592; 1075.373; -430.121; -409.783
621.866;  667.194; -476.112; -572.799
622.140;   71.596; -207.116; -356.791
622.413;   95.874;  138.889;  112.200
622.687;   -4.746; -746.101; -492.817
622.961;   36.055; -130.108; -143.805
623.235;  -33.225; -633.111; -661.800
623.509;  -79.757; -816.105; -848.811
623.783;   21.915;  -12.107;   48.193
624.056;    7.852; -254.120; -280.783
624.330;   96.961;   63.888;   -3.797
624.604;  104.842; -271.116; -355.790
624.877;  139.412;  180.890;   26.198
625.151;   86.640; -249.114; -238.794
625.425;  -12.968; -150.103; -283.814
625.698;  -39.836; -367.119; -374.785
625.972;  -74.110; -799.110; -765.802
626.245;   90.245;  685.884;  484.210
626.519;  -30.368; -426.120; -340.784
626.792;  -21.081; -192.107; -380.807
627.066;  -73.771; -485.122; -662.779
627.339;  -67.540; -736.110; -663.802
627.613;   55.156;  351.880;  148.216
627.886;   65.842;  187.891; -612.803
628.160;    8.401;  312.880; -161.783
628.433;  -80.993; -695.125; -703.775
628.706;  -56.218; -517.120; -615.784
628.979;   55.189;  296.876;  117.223
629.253;  -44.256; -785.119; -833.786
629.526;  628.813; -334.126; -253.772
629.799;  634.198; -641.123; -479.778
630.072;  314.992; -497.128; -516.769
630.346;   -5.180;-1115.116;-1080.790
630.619;  760.371; -467.107; -545.808
630.892;  974.525;  709.889;  593.200
631.165;  476.629;  790.896;  679.187
631.438;  -21.635;-1092.112;-1055.798
631.711;   49.227;  453.877;  257.221
631.984;  -19.136; -523.117; -624.789
632.257;  -43.365; -636.117; -681.789
632.530;  -25.586; -412.119; -433.785
632.803;   25.713; -109.115;    7.207
633.076;  -54.156; -360.123; -422.777
633.349;   26.446;  173.872;  121.231
633.622;  -23.088; -187.119; -240.785
633.895; -101.823; -903.120; -823.783
634.167;  -49.735; -496.126; -525.773
634.440;   -0.198;  -19.116; -137.792
634.713;    9.793;  -22.119; -120.786
634.986;  100.334;  593.871;  453.233
635.258;  -48.289; -507.115; -597.793
635.531;  103.230;  742.882; -343.788
635.804;  -27.188; -303.117; -318.789
636.077;  -81.502; -830.116; -852.791
636.349;   37.834; -586.115; -474.793
636.622;  458.387; 1695.874; 1392.228
636.894;  428.783; -474.120; -909.784
637.167;  298.805; -836.127; -789.771
637.439;   64.100; -278.128; -213.770
637.712;  -24.686; -312.126; -293.772
637.984;  -67.102; -635.116; -707.791
638.257;  492.894;  515.877;  488.222
638.529;  897.533; -881.125; -924.776
638.802;  414.441; -508.128; -449.769
639.074;  -91.263; -927.122; -952.781
639.346;  -97.724; -942.135; -930.757
639.619;   14.598;  -79.142; -319.744
639.891;    5.329;  -83.122; -168.779
640.163;  -54.644; -689.122; -756.780
640.435;   29.634;  273.878;  103.220
640.708;   27.861;  -72.122; -132.780
640.980;    2.038; -366.122; -362.781
641.252;  257.315;  -25.121;  -71.781
641.524; 2470.317;  580.879;  573.219
641.796; 2670.620;-1094.121; -907.782
642.068;  481.047; -191.121; -300.782
642.340;  -30.451; -486.121; -566.783
642.613;   44.326;  294.880;  323.217
642.885;  -80.047; -787.120; -878.783
643.157;  -21.294; -810.120; -658.784
643.428;   93.608;  170.880;  218.216
643.700;  -63.390; -498.120; -425.784
643.972;  -38.238;  -16.119; -133.785
644.244;  -75.886; -474.119; -559.785
644.516;  -48.508; -250.119; -114.786
644.788;   70.494;  662.881;  548.214
645.060;  -16.479;  -12.119; -124.786
645.332;  -99.477; -525.118; -535.787
645.603;   43.950;  479.882;  342.213
645.875;  -61.072; -334.118; -369.787
646.147;  167.705; 1487.882; 1242.212
646.418;   -9.993; -931.117; -918.788
646.690;  320.784; -714.117; -715.789
646.962;  119.061; -413.117; -451.789
647.233;  -10.311;   15.883;   11.211
647.505;  -87.109; -595.117; -475.790
647.776;   24.843;  328.884;  229.210
648.048;   21.570; -248.116; -418.790
648.320;  -38.603; -752.116; -679.791
648.591; -146.050;-1055.116; -958.791
648.862;  -81.273; -505.116; -577.792
649.134;   12.704;  115.885;  198.208
649.405;   -0.444; -661.115; -618.792
649.677;  -23.742; -475.115; -598.793
649.948;   28.336; -181.115; -296.793
650.219;    0.763;  -37.115; -147.793
650.491;  -67.185; -431.114; -520.794
650.762; -108.958; -705.114; -731.794
651.033;  -83.156; -437.114; -424.795
651.304;  -59.753; -743.114; -728.795
651.576;  -31.201; -680.114; -645.795
651.847;  -31.124; -250.113; -140.796
652.118;   -9.222;  -32.113; -189.796
652.389;  -93.770; -639.113; -722.796
652.660;  -37.142; -147.113;  -89.797
652.931; -127.265; -897.112; -871.797
653.202;  -69.513; -382.112; -541.798
653.473;  -45.661; -633.112; -533.798
653.744;  290.391; -595.112; -590.798
654.015;  270.469; -356.112; -303.799
654.286;  -32.229; -642.111; -663.799
654.557;  -23.752; -586.111; -521.799
654.828; -122.225;-1114.111;-1088.800
655.099;  -70.898; -404.111; -291.800
655.370;  -90.720; -427.111; -543.801
655.641; -111.668; -656.110; -714.801
655.911; -103.991; -618.110; -638.801
656.182;   39.111;  437.890;  387.198
656.453;   92.788;  830.890;  746.198
656.724;  -78.934; -466.110; -426.802
656.994;  -61.082; -553.109; -568.803
657.265;  -88.855; -862.109; -873.803
657.536;  -73.703; -500.109; -377.804
657.806; -109.301; -561.109; -593.804
658.077; -121.373; -866.109; -950.804
658.347;  -80.746; -523.108; -598.805
658.618;  -97.119; -646.108; -694.805
658.888;  -10.717;  -41.108;  112.195
659.159;  -63.940; -432.108; -548.806
659.429;   17.113; -292.108; -349.806
659.700;   61.615; -435.107; -390.807
659.970;   22.717; -370.107; -359.807
660.241;   84.744; -754.107; -921.807
660.511;  780.246; -147.107; -174.808
660.781;  228.474; -793.106; -748.808
661.052;  -37.824; -222.106; -381.808
661.322;  -10.697;   21.894;   -9.809
661.592;   26.655;  257.894;  148.191
661.862;  -74.668; -369.106; -382.810
662.133;  -87.265; -551.105; -502.810
662.403; -100.963; -770.105; -676.810
662.673;  -49.586; -256.105; -213.811
662.943;  -92.059; -612.105; -551.811
663.213;   -3.732;  -85.105;  -81.811
663.483;  -79.379; -593.104; -568.812
663.753;  -43.902; -194.104; -152.812
664.023;  -15.325;   68.896;  -32.813
664.293;  -58.773; -319.104; -126.813
664.563; -105.071; -694.104; -648.813
664.833; -117.518; -743.103; -608.814
665.103; -125.641; -730.103; -793.814
665.373;  -88.439; -766.103; -806.814
665.643;  -38.062; -863.103; -918.815
665.913;  103.840; -534.103; -714.815
666.182;  265.243; -685.102; -719.816
666.452;  455.770;  -22.102;  -89.816
666.722;   41.572; -724.102; -784.816
666.992;  -98.676; -948.102; -921.817
667.261;  -82.724; -824.102; -808.817
667.531;  273.779;  134.899;   45.183
667.801;  849.481; -440.101; -412.818
668.070;  314.183;  714.899;  697.182
668.340;  -66.890; -883.101; -840.819
668.609;   97.787;  588.900;  301.181
668.879;  -40.260; -490.100; -558.819
669.149;  -58.958; -539.100; -516.820
669.418;  -77.306; -698.100; -726.820
669.688;    1.821; -482.100; -666.820
669.957;  166.398; -423.099; -546.821
670.226;   -4.124; -268.099; -331.821
670.496;  -83.372; -431.099; -635.822
670.765;  -65.220; -418.099; -501.822
671.034; -125.218; -872.099; -828.822
671.304;  -13.941;   55.902; -111.823
671.573; -117.738;-1085.098; -957.823
671.842;  145.414; -380.098; -294.823
672.112;  101.791; -692.098; -586.824
672.381;   38.918; -239.098; -214.824
672.650; -106.705;-1005.097;-1021.825
672.919;  -84.927; -631.097; -507.825
673.188;  -74.175; -681.097; -878.825
673.457; -116.898;-1101.097;-1143.826
673.726;  -56.721; -579.096; -646.826
673.995;  -16.444; -533.096; -479.826
674.265;   26.259; -263.096; -333.827
674.534;   39.311; -183.096; -235.827
674.802;   71.638; -618.096; -703.828
675.071; 1484.990; -886.095; -801.828
675.340; 6218.542; -464.095; -339.828
675.609; 2021.295;  103.905;   82.171
675.878;  209.147; -949.095; -893.829
676.147;   79.699;  -26.095;   -8.829
676.416;  143.351; -210.094; -294.830
676.685; 1046.553; 1000.906; -622.830
676.953;  219.606; -603.094; -452.831
677.222;  -24.892; -193.094; -273.831
677.491;  -14.665;  -24.094; -127.831
677.759;    4.762;   11.907;  172.168
678.028;    5.339; -279.093; -222.832
678.297;    7.542;   71.907;  197.168
678.565; -126.206; -898.093; -944.833
678.834;  -33.879; -311.093; -268.833
679.102;  -75.427; -411.092; -391.834
679.371; -127.150; -898.092; -727.834
679.639; -113.172; -797.092; -786.834
679.908; -109.620; -794.092; -724.835
680.176; -148.668; -895.091; -941.835
680.445;  -69.616; -346.091; -352.835
680.713;  -15.639;  -58.091;  -23.836
680.982;  -89.911; -523.091; -525.836
681.250;  -94.234; -578.091; -507.837
681.518;  -95.332; -534.090; -751.837
681.787;   -2.705; -204.090; -167.837
682.055;  -45.178; -490.090; -422.838
682.323; -127.000; -993.090; -992.838
682.591;   77.227; -216.090; -538.838
682.859;  154.254;    9.911;  -35.839
683.128;   40.031;  232.911;  497.161
683.396; -149.067;-1102.089;-1122.840
683.664;  -23.064; -241.089;   21.160
683.932;    7.388;  144.911;  -76.840
684.200;  -69.660; -576.088; -320.841
684.468;   -9.808;  -73.088; -124.841
684.736;  -14.481; -214.088; -175.841
685.004;  -86.353;-1024.088; -982.842
685.272;   14.399; -880.088; -774.842
685.540;  -39.974; -499.087; -557.843
685.808;  -58.797; -651.087; -682.843
686.076;  -64.545; -894.087; -969.843
686.343;  -20.042; -601.087; -815.844
686.611;   84.860; -195.087; -224.844
686.879;  652.712; -530.086; -553.844
687.147; 4991.714; -483.086; -480.845
687.414; 1466.516;  -12.086; -169.845
687.682;   80.294; -658.086; -757.846
687.950;  460.821;  259.915;  263.154
688.217;   83.573; -792.085; -760.846
688.485;   45.800; -632.085; -636.847
688.753;  858.927;  -11.085; -102.847
689.020;  382.405; -820.085; -851.847
689.288;  -70.343; -853.084; -787.848
689.555;   -6.141; -195.084; -148.848
689.823;  -31.189; -241.084; -345.849
690.090;  -57.162; -546.084; -651.849
690.358; -121.484; -877.084; -897.849
690.625;   11.068;  120.917;   45.150
690.892;  -45.630; -403.083; -369.850
691.160;    4.147;   72.917;  -35.850
691.427;    9.274;  141.917;  130.149
691.694; -121.248; -855.083; -929.851
691.962; -114.671;-1177.082;-1060.852
692.229;   36.131;  127.918;   56.148
692.496;  118.333;  130.918;  -49.852
692.763;   40.760; -164.082; -201.853
693.031;  -45.362; -739.082; -716.853
693.298;   -6.535; -509.081; -368.853
693.565;  447.317; -155.081; -163.854
693.832; 2036.719;   -5.081;   -9.854
694.099;  291.096; -643.081; -642.855
694.366;  -17.376; -882.081; -896.855
694.633;  -23.299; -920.080; -633.855
694.900;  733.003; 4367.920; -114.856
695.167;  637.255; -214.080; -380.856
695.434;  192.007; -646.080; -623.856
695.701;  239.460;  121.921;  -61.857
695.968;  667.962; -365.079; -361.857
696.234; 1202.164; -415.079; -646.858
696.501;12109.741; -776.079; -614.858
696.768; 6677.893; -554.079; -617.858
697.035;  421.021; -632.078; -667.859
697.302;   87.273; -448.078; -552.859
697.568;   29.625; -458.078; -497.859
697.835;   -9.698; -683.078; -624.860
698.102;   -4.396; -498.078; -407.860
698.368;   99.157;  384.923;  396.139
698.635;  -16.366;  -47.077; -424.861
698.901;    7.486; -240.077; -348.861
699.168;  151.838; -534.077; -456.862
699.435;  137.540;  -72.077;  -13.862
699.701;  -82.557; -868.076; -764.862
699.968;   26.820;  144.924; -441.863
700.234;  -82.878; -783.076; -822.863
700.500;  -37.976; -448.076; -539.864
700.767;   10.476;   -1.075;   26.136
701.033; -105.421;-1015.075; -963.864
701.299;  -39.819; -450.075; -483.865
701.566;  125.058;  950.925;  763.135
701.832;   43.185;  -31.075;  -76.865
702.098;  -70.738;-1054.074;-1034.866
702.365;  -42.535;-1098.074;-1030.866
702.631;   38.892;-1038.074;-1063.867
702.897; 1834.294; -765.074; -676.867
703.163; 3281.696;  348.926;  254.133
703.429;  261.573; -256.073; -273.868
703.695;   19.151; -796.073; -792.868
703.961;   50.028; -214.073; -210.868
704.227;  -31.945; -630.073; -725.869
704.493;  154.132;  613.927;  510.131
704.759;    1.959; -565.072; -540.870
705.025;   41.837; -203.072; -194.870
705.291;   21.439; -666.072; -562.870
705.557;  224.266;  719.928;   34.129
705.823;   83.418; -742.072; -694.871
706.089;  204.195; -307.071; -326.871
706.355;  417.323; -315.071; -244.872
706.620; 6137.825; -776.071; -729.872
706.886;10043.452; -309.071; -362.873
707.152; 1077.079; -818.070; -973.873
707.418;   43.081;-1153.070;-1186.873
707.683;   32.634; -550.070; -530.874
707.949;  -21.314; -547.070; -578.874
708.215;   11.838; -129.070; -207.874
708.480;    2.365; -520.069; -420.875
708.746;  154.417;   68.931;   28.125
709.011;  -36.305; -578.069; -612.876
709.277;  -55.278; -538.069; -543.876
709.542;  -40.426; -428.069; -387.876
709.808;    7.076;  -59.068;   89.123
710.073;  -60.347; -577.068; -695.877
710.339;  -15.569; -242.068; -228.877
710.604;  130.758; -780.068; -845.878
710.869;  524.685; -277.068; -366.878
711.135;  -37.463; -715.067; -628.879
711.400;  -73.586; -507.067; -608.879
711.665;  -34.833; -404.067; -479.879
711.931;  -77.081; -661.067; -677.880
712.196;  -95.454; -876.067; -954.880
712.461;  175.523; -402.066; -490.880
712.726;  303.600; -727.066; -771.881
712.991;  -57.772; -647.066; -664.881
713.256;  -28.145; -350.066; -332.882
713.521;  -38.743; -417.065; -381.882
713.787;  -40.841; -454.065; -472.882
714.052;   -5.114; -214.065; -400.883
714.317;  -58.411;-1045.065; -981.883
714.581; 1239.566; -374.065; -268.883
714.846; 1987.418; -822.064; -888.884
715.111;  183.445;  261.936;  257.116
715.376;  -11.178;  -86.064; -223.885
715.641;   10.275; -365.064; -367.885
715.906;  473.102;   15.936; -551.885
716.171;  218.854;  221.937;  209.114
716.436;   90.856;  -78.063; -104.886
716.700;  -89.367; -818.063; -692.886
716.965; -116.864; -794.063; -807.887
717.230;  -69.687; -339.063; -392.887
717.494;  -13.535;  -40.062; -134.888
717.759;  -83.458; -784.062; -640.888
718.024;    1.319;  269.938;  250.112
718.288;   72.472;  685.938;  395.111
718.553; -127.026; -803.062; -977.889
718.817; -122.499; -883.061; -899.889
719.082;  -19.922; -115.061; -125.890
719.346; -118.470;-1000.061; -947.890
719.611;  -33.917; -300.061; -255.891
719.875;  -73.190; -568.060; -537.891
720.140;  -43.613; -453.060; -603.891
720.404;   84.139; -136.060; -249.892
720.668; 1264.741; -475.060; -411.892
720.933;  548.494;  146.940;  137.108
721.197;  -68.129; -667.059; -600.893
721.461; -111.452; -851.059; -826.893
721.725;    1.125;  -21.059; -250.894
721.990;  -48.073; -284.059; -204.894
722.254;  -10.695;  -26.059; -108.894
722.518;  -69.218; -286.058; -442.895
722.782;  -71.141; -743.058; -594.895
723.046;  167.961;  614.942;  570.105
723.310;   36.163;  374.942;  210.104
723.574; -100.134; -654.058; -614.896
723.838; -104.657; -576.057; -642.897
724.102;  -15.580; -226.057; -239.897
724.366; -121.328;-1032.057; -978.897
724.630;  -74.251; -749.057; -571.898
724.894;  -53.598; -722.057; -514.898
725.158;    5.379;   38.944; -295.898
725.422;  -37.769; -394.056; -327.899
725.685;  -48.842; -441.056; -349.899
725.949;  -68.390; -566.056; -519.900
726.213;  -48.512; -732.056; -811.900
726.477;  321.140;-1020.055; -933.900
726.740;  264.642; -274.055; -104.901
727.004;  451.344; -384.055; -510.901
727.268; 4277.446; -442.055; -400.901
727.531; 1388.699; -961.055; -775.902
727.795;   -9.549; -713.054; -673.902
728.059;  -31.772; -552.054; -557.903
728.322;  -31.945; -841.054; -669.903
728.586;  112.957; -692.054; -701.903
728.849;  -42.890; -695.053; -756.904
729.112;  -91.738; -812.053; -912.904
729.376;  -89.486; -959.053; -905.904
729.639;  -64.934; -536.053; -536.905
729.903;  -90.482; -733.053; -699.905
730.166;  -34.404; -437.052; -399.906
730.429;  -14.077; -317.052; -468.906
730.693;  -48.125; -355.052; -894.906
730.956;  232.227;  810.948;  651.093
731.219; 1027.729; -310.052; -103.907
731.482;  243.932;-1003.051; -894.907
731.745;  265.684; -794.051; -935.908
732.009;   20.436;  -30.051;   50.092
732.272;  -81.612; -904.051; -771.909
732.535;  -21.835; -300.051; -310.909
732.798; -118.882;-1083.050;-1166.909
733.061;  -37.305; -430.050; -456.910
733.324;   29.322;   31.950; -180.910
733.587;   66.999;  290.950;  365.090
733.850;  -42.399; -973.049;-1050.911
734.113;   54.504;   33.951;   32.089
734.376;   53.331; -328.049; -447.912
734.639;  285.383; 1188.951; 1011.088
734.901;  137.185; -180.049; -402.912
735.164;  732.462; -883.048; -837.913
735.427; 2036.440; -166.048; -355.913
735.690;  216.717; -205.048; -234.913
735.952;   43.719; -923.048; -925.914
736.215;   51.821;-1113.048;-1009.914
736.478;  112.648; -771.047; -774.915
736.740;  325.551;   33.953;  129.085
737.003;  896.303; -658.047; -672.915
737.266; 6088.530;  -94.047;   46.084
737.528;  716.357; -682.047; -660.916
737.791;  474.884; -316.046; -327.916
738.053;  977.312;  465.954;  649.083
738.316;13117.714; -162.046; -136.917
738.578;10937.441; -770.046; -736.918
738.841;  651.043; -382.046; -446.918
739.103;  291.320; -875.045; -777.918
739.365;  751.273;   79.955;  -69.919
739.628;   81.225; -884.045; -805.919
739.890;   17.027; -758.045; -710.919
740.152;   -3.896; -692.044; -754.920
740.414;   29.231; -408.044; -359.920
740.677;  -27.441; -785.044; -634.921
740.939;  -12.364; -587.044; -487.921
741.201;  433.088; -432.044; -572.921
741.463;  130.940; -689.043; -745.922
741.725;   48.792;  -21.043; -199.922
741.987;   78.195;  220.957;  116.078
742.249;   74.872; -751.043; -859.923
742.511;  389.699; -703.043; -794.923
742.773;   85.026; -546.042; -546.924
743.035;  149.003;  796.958;  533.076
743.297;   16.806; -963.042;-1013.924
743.559; 1078.608; -278.042; -262.925
743.821;  206.785; -735.042; -744.925
744.083;   41.137;  -44.041; -149.925
744.345;  -57.236; -869.041; -892.926
744.607;   53.067;   75.959;  122.074
744.868;   -9.981; -490.041; -554.927
745.130;  -81.829; -994.041;-1008.927
745.392;   68.798;   -1.040;  -44.927
745.653;   15.900; -411.040; -378.928
745.915;  198.903;  896.960;  631.072
746.177;  104.405;   35.960;  -43.928
746.438;   36.507; -428.040; -543.929
746.700;    9.984; -947.039; -988.929
746.961;   86.136; -659.039; -740.930
747.223;  215.039; -190.039;  -74.930
747.484;  168.791; -391.039; -471.930
747.746;  254.068;  -23.038; -106.931
748.007;  215.870; -647.038; -689.931
748.269;  456.822; -468.038; -440.931
748.530;  826.675; -852.038; -638.932
748.791;  427.302; -354.038; -420.932
749.053;  629.654;  286.963;  163.067
749.314;  686.406; -236.037; -169.933
749.575;  819.033; -945.037; -905.933
749.836; 1239.511; -217.037;   86.066
750.098; 3175.763;  -60.037;  -21.934
750.359;50120.065;  414.964;  555.066
750.620;15340.392; -121.036; -220.935
750.881; 1537.044; -585.036; -513.935
751.142; 1918.097; -950.036; -938.936
751.403;21253.024; -789.036; -705.936
751.664;11382.301;-1034.035; -999.936
751.925;  737.453; -175.035; -262.937
752.186;  428.130; -298.035; -278.937
752.447;  255.033; -590.035; -445.937
752.708;  131.360; -532.035; -648.938
752.969;   84.387; -566.034; -576.938
753.230;   51.589; -777.034; -672.939
753.491;   54.741; -650.034; -631.939
753.751;  130.969;  109.966;   19.061
754.012;  134.796;  258.967;  181.060
754.273;  106.998; -174.033;  -71.940
754.534;   71.400; -487.033; -580.940
754.794;  -47.073; -926.033; -911.941
755.055;  179.255; 1051.967;  881.059
755.316;    0.082; -700.032; -566.942
755.576;    2.384; -606.032; -576.942
755.837;  -11.039; -527.032; -695.942
756.097;  -12.537; -530.032; -564.943
756.358;  -31.959; -725.032; -770.943
756.618;  -22.782; -705.031; -641.943
756.879;   36.345; -254.031; -349.944
757.139;  -94.678;-1098.031;-1116.944
757.400;  -21.476; -538.031; -553.945
757.660;    3.702; -365.031; -401.945
757.920;   46.279; -266.030; -228.945
758.181;   21.581; -468.030; -351.946
758.441;  -49.717; -870.030; -809.946
758.701;   -7.690; -308.030; -215.946
758.961;    2.788; -220.030; -278.947
759.222;  -11.460; -574.029; -502.947
759.482;  -52.433; -683.029; -723.948
759.742;  -68.631; -706.029; -547.948
760.002;   29.746;  -83.029; -143.948
760.262;   40.599;   50.972;  182.051
760.522;  -33.574; -498.028; -574.949
760.782;  -39.172; -738.028; -612.949
761.042;   -7.320; -618.028; -573.950
761.302;   53.882;   55.972;  -18.950
761.562;   68.460; -164.027; -154.951
761.822;  147.412; -710.027; -551.951
762.082;   -3.336;-1104.027;-1093.951
762.342;   73.441; -328.027; -403.952
762.601;  115.793; -567.027; -506.952
762.861;  475.271; -281.026; -207.952
763.121;  412.773; -406.026; -411.953
763.381; 6536.700; -499.026; -485.953
763.640; 8931.077; -139.026; -307.954
763.900;  364.504; -242.026; -203.954
764.160;  101.607; -458.025; -491.954
764.419;    2.584; -726.025; -782.955
764.679;  -58.264; -795.025; -726.955
764.939;  -15.337; -124.025; -210.955
765.198;  -61.160; -608.025; -563.956
765.458;  -65.857; -710.024; -612.956
765.717;  -73.455; -454.024; -590.957
765.976;  -43.053; -428.024; -411.957
766.236;  -62.301; -475.024; -610.957
766.495;   32.751;  260.977;   73.042
766.755;  -39.321;-1090.023; -987.958
767.014;   59.731; -594.023; -665.958
767.273;  -39.967; -373.023; -397.959
767.533;  -46.590; -228.023; -307.959
767.792;  -26.813; -151.022; -188.960
768.051;  -55.085; -228.022; -276.960
768.310;  -75.408; -546.022; -650.960
768.569;   -1.256; -161.022;    4.039
768.828;    0.046; -285.022; -363.961
769.088;  -95.752;-1050.021; -942.961
769.347;  -58.174; -755.021; -599.962
769.606;  -73.472; -876.021; -857.962
769.865; -103.020;-1016.021;-1033.963
770.124;   20.257; -411.021; -336.963
770.383;  -23.691; -778.020; -910.963
770.641;   22.912; -398.020; -400.964
770.900;  -39.711; -953.020; -846.964
771.159;  -35.534; -851.020; -951.964
771.418;    5.118; -917.020; -779.965
771.677;  147.170; -224.019; -293.965
771.936;  192.148; -794.019; -865.966
772.194; 2010.275; -465.019; -437.966
772.453;12954.977; -213.019; -391.966
772.712; 1001.904;  416.982;  329.033
772.970;  154.681;   32.982;   63.033
773.229;  102.709;  -22.018;  102.033
773.488;  -68.439; -814.018; -770.968
773.746;   52.463;  296.982;  335.032
774.005;   16.040;  190.983;  -22.969
774.263;   12.042;  243.983;  177.031
774.522;  -42.555; -422.017; -548.969
774.780;  -84.203; -484.017; -417.970
775.039;  -69.651; -551.017; -531.970
775.297;  -23.774; -135.016; -351.970
775.555;  -89.197; -489.016; -612.971
775.814; -109.619; -618.016; -570.971
776.072; -100.242; -749.016; -740.971
776.330; -104.315; -630.016; -520.972
776.589; -119.438; -703.015; -721.972
776.847; -118.586; -645.015; -624.973
777.105; -149.708;-1016.015;-1032.973
777.363;  -80.706; -459.015; -454.973
777.621; -124.729; -660.015; -717.974
777.879;  -27.327;  -42.014;   32.026
778.138;  -99.350; -554.014; -717.974
778.396; -113.472; -585.014; -526.975
778.654; -160.195;-1015.014; -970.975
778.912;  -70.493; -269.014; -371.976
779.170; -113.391; -880.013; -803.976
779.427; -133.939; -922.013; -897.976
779.685; -136.261; -880.013; -832.977
779.943;  -51.884; -654.013; -593.977
780.201; -137.257; -964.012; -883.978
780.459; -109.205; -651.012; -610.978
780.717;  -78.478; -440.012; -390.978
780.974;  -81.725; -449.012; -490.979
781.232;  -72.623; -358.012; -338.979
781.490;  -35.521; -551.011; -472.979
781.747;  -79.144; -555.011; -476.980
782.005;   11.733;  462.989;  254.020
782.263; -150.289; -542.011;-1004.981
782.520;  -75.337; -326.011; -501.981
782.778; -155.660;-1013.010;-1051.981
783.035; -156.708; -962.010; -938.982
783.293;  -49.956; -248.010; -206.982
783.550;  -53.903; -134.010; -198.982
783.808; -119.901; -764.010; -776.983
784.065; -141.524; -745.009; -874.983
784.322;  -32.622;   25.991;  -86.984
784.580; -128.120; -915.009; -771.984
784.837;  -87.467; -392.009; -466.984
785.094; -126.615; -783.009; -762.985
785.352;  -50.313; -304.008; -404.985
785.609;  -81.911; -934.008; -839.985
785.866;  -74.859; -345.008; -401.986
786.123;  -38.356; -639.008; -583.986
786.380;  -73.779; -665.008; -604.987
786.637;  -31.077; -225.007; -380.987
786.895;   35.050; -456.007; -543.987
787.152;  -51.598; -135.007; -267.988
787.409;  -35.495; -123.007; -225.988
787.666;  -86.493; -299.006; -378.988
787.923; -101.341; -616.006; -695.989
788.179; -101.339; -551.006; -584.989
788.436;  -96.112; -585.006; -585.990
788.693;  -22.359;  -92.006;  -87.990
788.950;  201.168; -125.005; -112.990
789.207;  435.370; -381.005; -372.991
789.464;  -32.703; -161.005; -301.991
789.720;  -13.051;  150.995;  110.009
789.977; -160.023;-1003.005; -671.992
790.234;  -35.246;   44.996;  -66.992
790.490; -142.494; -884.004;-1031.993
790.747;   -7.117;  -85.004;   22.007
791.004;    5.860; -426.004; -348.993
791.260;  -63.712; -430.004; -560.994
791.517;  -90.335; -843.003; -788.994
791.773;  -24.258; -379.003; -342.994
792.030; -102.206; -596.003; -660.995
792.286;  -95.679; -686.003; -636.995
792.543;  -15.426;  -74.002; -159.995
792.799;  -36.824; -584.002; -382.996
793.055; -153.347;-1179.002;-1210.996
793.312;  -83.695; -827.002; -816.997
793.568;  -40.668; -746.002; -599.997
793.824;   10.510; -226.001; -284.997
794.081;   36.262; -447.001; -508.998
794.337;   67.539; -664.001; -561.998
794.593; 1103.941; -319.001; -271.999
794.849; 7354.143; -746.001; -772.999
795.105;  484.746; -270.000; -261.999
795.361;   39.848; -490.000; -457.000
795.617;  -40.400; -875.000; -945.000
795.873;  -16.725; -360.000; -407.000
796.129;  -32.900; -368.000; -306.000
796.385;   -9.575; -124.000; -156.000
796.641;   68.800;  412.000;  550.000
796.897;  -75.250; -666.000; -635.000
797.153;   63.525;  453.000;  357.000
797.409;  -85.200; -785.000; -868.000
797.665;  -48.800; -625.000; -732.000
797.921;  -62.125; -775.000; -762.000
798.176;  -43.725; -744.000; -747.000
798.432;  -21.050; -824.000; -596.000
798.688;  -41.025;-1174.000;-1078.000
798.943;  102.800; -165.000; -147.000
799.199;   42.900;-1005.000; -959.000
799.455;  276.525;  369.000;  316.000
799.710;  196.500; -813.000; -380.000
799.966;  399.625; -162.000; -160.000
800.221;  586.775; -638.000; -721.000
800.477;11321.050; -743.000; -710.000
800.732;13144.350; -773.000; -800.000
800.988;  787.025;  205.000;  -19.000
801.243; 1496.900; -454.000; -344.000
801.498; 8043.850; -814.000; -739.000
801.754;  550.650; -289.000; -163.000
802.009;  102.650; -257.000; -335.000
802.264;   -9.425; -967.000;-1033.000
802.520;   34.625;  222.000;   -3.000
802.775;  -34.100; -524.000; -359.000
803.030;   49.675;  395.000;  356.000
803.285; -103.050; -840.000; -903.000
803.540;  -47.875; -686.000; -699.000
803.795;   -9.225; -648.000; -583.000
804.051;  -43.775; -279.000; -346.000
804.306;   29.050;  168.000;  128.000
804.561;  201.400;  451.000;  362.000
804.816;  153.550;  714.000;  861.000
805.071;   19.425; -185.000; -280.000
805.325;  344.600; -257.000; -427.000
805.580;  -68.400; -841.000; -877.000
805.835;   -6.850; -204.000; -297.000
806.090;  -61.775; -760.000; -676.000
806.345;  -12.025; -344.000; -264.000
806.600;    0.925; -549.000; -632.000
806.854;  -17.950; -408.000; -538.000
807.109;    4.175; -493.000; -577.000
807.364;   27.025; -407.000; -328.000
807.618;   19.975; -415.000; -381.000
807.873;   96.725; -470.000; -494.000
808.128;  133.200; -257.000; -518.000
808.382;  145.300; -224.000; -332.000
808.637;   97.625; -440.000; -511.000
808.891;  234.275; -257.000; -180.000
809.146;  135.400; -902.000; -794.000
809.400;  359.400; -848.000; -923.000
809.654;  431.050; -779.000; -551.000
809.909;  605.475; -841.000; -927.000
810.163; 6932.250; -813.000; -651.000
810.418;23766.225; -940.000; -861.000
810.672; 1413.750; -685.000; -690.000
810.926;  768.950; -993.000; -973.000
811.180; 1271.725; -439.000; -372.000
811.434;26948.575;  240.000;  135.000
811.689;14428.150; -231.000; -365.000
811.943;  744.525; -936.000; -953.000
812.197;  352.100; -893.000; -671.000
812.451;  140.625; -379.000; -514.000
812.705;  -13.075; -809.000; -619.000
812.959;    3.000; -263.000; -388.000
813.213;    6.650; -283.000; -209.000
813.467;   81.000;  470.000;  253.000
813.721;  -83.150; -764.000; -792.000
813.975; -102.375; -826.000; -877.000
814.229;   45.875;  430.000;  353.000
814.482;  -46.575; -517.000; -566.000
814.736; -109.775; -766.000; -744.000
814.990; -124.125; -779.000; -872.000
815.244;  -43.400; -228.000; -285.000
815.497;  -93.725; -636.000; -601.000
815.751;  -19.175; -141.000;   82.000
816.005;  -82.225; -470.000; -586.000
816.258;  -56.450; -510.000; -363.000
816.512;  -93.500; -693.000; -610.000
816.766;   -5.725;  121.000;  157.000
817.019;   24.525;  148.000;  149.000
817.273;  -90.025;-1000.000; -802.000
817.526;  -25.550; -206.000; -173.000
817.779;   24.300;-1049.000; -960.000
818.033;  -13.575; -693.000; -807.000
818.286; -111.075; -725.000; -792.000
818.540;  -77.900; -403.000; -403.000
818.793;  -76.000; -402.000; -489.000
819.046; -105.725; -582.000; -520.000
819.299;  -30.825; -157.000; -166.000
819.553;  -96.625; -552.000; -592.000
819.806; -156.050;-1016.000; -838.000
820.059;  -62.725; -334.000; -354.000
820.312;   25.875;  152.000;  185.000
820.565;   -4.500;  110.000;  -27.000
820.818;  -37.850;  -59.000; -173.000
821.071; -159.550;-1041.000; -957.000
821.324; -101.825; -536.000; -540.000
821.577;  -79.475; -457.000; -483.000
821.830;  -56.750; -270.000; -172.000
822.083; -118.625; -733.000; -288.000
822.336;  -32.675; -261.000; -167.000
822.589; -113.225; -805.000; -688.000
822.842; -139.400; -875.000; -770.000
823.094; -161.175;-1076.000;-1114.000
823.347; -112.150; -925.000; -729.000
823.600;   25.400;  402.000;  187.000
823.853;  -33.900; -311.000; -267.000
824.105;  -58.200; -331.000; -575.000
824.358;  -97.550; -617.000; -716.000
824.611;   43.600;  234.000;   40.000
824.863;  -23.200; -612.000; -591.000
825.116;   73.875;  -33.000;   27.000
825.368;  132.500; -366.000; -372.000
825.621;  257.900; -186.000; -240.000
825.873;  164.175; -704.000; -737.000
826.126;  665.650; -669.000; -641.000
826.378;14077.250; -389.000; -505.000
826.630; 4823.625; -890.000; -898.000
826.883;  137.700; -754.000; -693.000
827.135;   88.125; -279.000; -270.000
827.387;  -67.475; -893.000; -839.000
827.639;  -28.750;  -86.000;   32.000
827.892; -115.675; -742.000; -582.000
828.144; -124.575; -848.000; -804.000
828.396;  -32.800;  104.000;  -80.000
828.648;  -96.900; -440.000; -333.000
828.900; -130.150; -702.000; -795.000
829.152;  -99.550; -684.000; -683.000
829.404;  -71.300; -215.000; -267.000
829.656;   -5.250;  321.000;  214.000
829.908;  -24.725;  393.000;  229.000
830.160; -160.100;-1064.000;-1047.000
830.412;  -74.875; -481.000; -430.000
830.664; -101.025; -557.000; -665.000
830.916;  -74.375; -268.000; -206.000
831.167; -176.300;-1073.000; -951.000
831.419; -106.075; -623.000; -566.000
831.671; -137.200; -764.000; -809.000
831.923;  -75.675; -311.000; -447.000
832.174;  -68.300; -273.000; -331.000
832.426; -105.725; -493.000; -582.000
832.678; -167.475;-1043.000;-1091.000
832.929; -145.225; -947.000; -935.000
833.181;  -27.400; -575.000; -677.000
833.432;  -38.225;  -59.000; -186.000
833.684;  -13.350;  112.000;  -27.000
833.935; -109.575; -610.000; -566.000
834.187; -123.175; -829.000; -823.000
834.438;  -46.450;  -58.000;  -25.000
834.689;  -49.950; -255.000; -123.000
834.941;  -60.525; -343.000; -244.000
835.192;  -79.800; -590.000; -533.000
835.443;  -82.700; -419.000; -506.000
835.695;  -11.950;  138.000;  -16.000
835.946;  -87.600; -608.000; -378.000
836.197;  -93.350; -599.000; -622.000
836.448;  -72.750; -528.000; -395.000
836.699;  -34.025; -253.000; -341.000
836.950;   -3.825;   72.000;    7.000
837.201; -124.525;-1003.000; -987.000
837.452;  -29.050; -356.000; -170.000
837.703;  -79.425; -791.000; -737.000
837.954;  -24.350; -205.000; -365.000
838.205;  -49.900;-1029.000;-1008.000
838.456;  274.550; -196.000; -282.000
838.707;   53.225; -423.000; -519.000
838.958;   61.725; -634.000; -647.000
839.209;  428.075;   18.000;   40.000
839.460;  186.100; -439.000; -201.000
839.710;  228.700; -135.000; -297.000
839.961;  519.725;  730.000;  612.000
840.212;  473.125; -382.000; -497.000
840.462; 1331.825; -328.000; -277.000
840.713;20759.300; -571.000; -536.000
840.964;11248.675;  -62.000; -143.000
841.214;  760.275; -384.000; -624.000
841.465;  752.775; -214.000; -141.000
841.715;  700.350; -417.000; -380.000
841.966;  882.075; -746.000; -685.000
842.216; 9237.875; -330.000; -431.000
842.466;45639.200; -169.000; -313.000
842.717; 3570.125; -964.000; -952.000
842.967;  436.650; -635.000; -641.000
843.217;  393.550;   20.000;   28.000
843.468;  111.500; -104.000; -132.000
843.718;   17.300; -718.000; -726.000
843.968;  -69.250; -837.000; -765.000
844.218;   62.475; -315.000; -262.000
844.469;   -5.550; -577.000; -561.000
844.719;  -89.225; -537.000; -682.000
844.969;  -85.300; -550.000; -580.000
845.219; -121.725; -814.000; -862.000
845.469;  -73.975; -392.000; -342.000
845.719; -119.825; -792.000; -884.000
845.969;  -10.100;  119.000;  174.000
846.219; -106.025; -738.000; -720.000
846.469;   31.675;  464.000;  432.000
846.718;  -37.700; -115.000;   31.000
846.968; -129.400; -827.000; -827.000
847.218;  -38.675; -224.000; -371.000
847.468;    8.875; -586.000; -555.000
847.718; -115.150; -827.000; -798.000
847.967; -131.825; -826.000; -915.000
848.217;  -79.050; -449.000; -569.000
848.467;  -54.950; -405.000; -376.000
848.716; -102.750; -708.000; -725.000
848.966;   46.700; -372.000; -358.000
849.215;  -44.200; -428.000; -419.000
849.465;  -75.025; -785.000; -615.000
849.714; -109.625;-1132.000;-1150.000
849.964;  -45.325; -551.000; -613.000
850.213;    3.675; -393.000; -355.000
850.463;  108.800;  137.000;  340.000
850.712;   45.725; -542.000; -567.000
850.961;   76.675; -739.000; -678.000
851.211;  176.075; -513.000; -504.000
851.460;  266.700; -635.000; -650.000
851.709;  720.950;  -25.000;   18.000
851.958;11558.625; -912.000; -750.000
852.208;19002.050; -859.000; -879.000
852.457;  828.150; -181.000;  -13.000
852.706;  143.300; -791.000; -823.000
852.955;   64.400; -507.000; -528.000
853.204;  -36.450; -521.000; -461.000
853.453;  -75.625; -418.000; -458.000
853.702; -117.775; -660.000; -750.000
853.951; -105.725; -532.000; -520.000
854.200;  -97.075; -613.000; -562.000
854.449; -120.125; -695.000; -661.000
854.698;  -84.750; -340.000; -279.000
854.946;  -63.450; -181.000; -284.000
855.195; -141.025; -843.000; -868.000
855.444;  -83.550; -395.000; -420.000
855.693; -106.700; -345.000; -432.000
855.941;  -94.550; -387.000; -516.000
856.190;  -43.150; -256.000; -382.000
856.439; -116.425; -652.000; -703.000
856.687;  -61.625;  -99.000;  -72.000
856.936; -110.900; -621.000; -323.000
857.184; -180.275;-1067.000;-1020.000
857.433; -112.875; -423.000; -512.000
857.681; -154.600; -989.000; -953.000
857.930;  -67.875; -282.000; -433.000
858.178; -157.225; -856.000; -929.000
858.427; -151.175; -802.000; -781.000
858.675; -113.050; -377.000; -544.000
858.923;  -79.450; -527.000; -819.000
859.172; -165.575;-1094.000;-1070.000
859.420;  -80.950; -339.000; -239.000
859.668; -122.700; -624.000; -628.000
859.916;  -12.125;  109.000;  115.000
860.164; -100.475; -699.000; -603.000
860.413;  447.850; -878.000; -696.000
860.661;  512.200; -709.000; -577.000
860.909;  -69.475; -339.000; -325.000
861.157;  -81.950; -277.000; -444.000
861.405; -111.650; -534.000; -670.000
861.653;   30.250;  310.000;  310.000
861.901;  284.400; -543.000; -613.000
862.149;  127.975; -801.000; -824.000
862.396;  -78.875; -297.000; -187.000
862.644;  -90.950; -368.000; -347.000
862.892;  -33.575;   98.000;  138.000
863.140; -105.700; -549.000; -530.000
863.388; -152.675; -815.000; -759.000
863.635; -132.950; -642.000; -601.000
863.883;  -17.000;  231.000;  190.000
864.131;  -96.425; -288.000; -357.000
864.378; -125.100; -675.000; -540.000
864.626; -102.100; -347.000; -415.000
864.873; -122.525; -556.000; -505.000
865.121; -137.250; -714.000; -799.000
865.368;  -31.025; -173.000;   75.000
865.616;  -40.125;  -33.000;  -40.000
865.863;  -63.125; -462.000; -506.000
866.111;  -97.325; -795.000; -824.000
866.358;   49.075; -426.000; -420.000
866.605; 2224.200;  -64.000; -804.000
866.853; 3072.625; -621.000; -537.000
867.100;   14.475; -728.000; -775.000
867.347;  -90.325; -672.000; -611.000
867.594;  -64.025; -740.000; -714.000
867.841;  139.650;   97.000;   17.000
868.089; -132.700; -746.000; -698.000
868.336; -123.125; -477.000; -420.000
868.583; -136.725; -637.000; -741.000
868.830;  -45.150; -131.000; -170.000
869.077; -155.325; -859.000; -787.000
869.324; -127.275; -502.000; -458.000
869.571; -120.800; -398.000; -430.000
869.818; -118.575; -485.000; -439.000
870.065;  -92.200; -439.000; -513.000
870.311; -106.475; -456.000; -542.000
870.558; -111.200; -332.000; -311.000
870.805;  -74.500; -320.000; -384.000
871.052; -111.550; -494.000; -369.000
871.298;  -32.500; -204.000; -131.000
871.545;  -77.500; -151.000; -185.000
871.792;  -97.425; -173.000; -222.000
872.038;  -64.925;   43.000; -126.000
872.285; -124.325; -496.000; -387.000
872.532;  -94.150; -357.000; -387.000
872.778;   10.050;  556.000;  403.000
873.025;  -97.550; -384.000; -359.000
873.271;   10.950;  501.000;  578.000
873.517;  -14.025; -133.000; -209.000
873.764;   -2.825; -193.000;  -80.000
874.010;  -56.725; -143.000; -230.000
874.257;  -44.325;  123.000;   90.000
874.503; -132.300; -579.000; -479.000
874.749;  -65.525;   31.000;  275.000
874.995;  -53.900;  -80.000;  -20.000
875.242; -126.875; -540.000; -478.000
875.488; -104.675; -414.000; -439.000
875.734;  -44.200; -106.000; -234.000
875.980;  314.675; -872.000;-1032.000
876.226;  685.925; -157.000; -255.000
876.472;    6.525;  343.000;  237.000
876.718;  -41.225;  184.000;  158.000
876.964;  -38.850;   56.000;   55.000
877.210; -139.600; -547.000; -677.000
877.456; -134.975; -630.000; -557.000
877.702; -179.500; -821.000; -832.000
877.948; -109.425; -377.000; -497.000
878.193;    6.000;  361.000;  255.000
878.439;  -57.525; -487.000; -472.000
878.685;  -90.725; -272.000; -343.000
878.931; -114.475; -618.000; -676.000
879.176;  -87.500; -201.000; -201.000
879.422; -166.875; -933.000; -820.000
879.668;   54.275;   10.000;   79.000
879.913;  251.675;   53.000;  137.000
880.159;  -47.225; -112.000;  -17.000
880.404;  -55.225; -152.000; -162.000
880.650;  -27.600;   91.000;  141.000
880.895; -150.250; -670.000; -710.000
881.141; -110.025; -454.000; -428.000
881.386; -140.650; -503.000; -658.000
881.631;  -82.475; -311.000; -166.000
881.877;  -29.325;  112.000;  -13.000
882.122; -126.875; -684.000; -600.000
882.367;  -83.325; -136.000; -186.000
882.612;  -74.150;  -80.000; -176.000
882.858; -171.900; -877.000; -823.000
883.103;  -97.325; -297.000; -267.000
883.348; -138.325; -759.000; -852.000
883.593; -150.450; -677.000; -602.000
883.838;  -61.075; -311.000;  -24.000
884.083;   41.925;  353.000;  288.000
884.328;  -94.325; -564.000; -545.000
884.573;  -44.150; -196.000; -143.000
884.818;  307.800; -694.000; -531.000
885.063;  416.325; -348.000; -315.000
885.308;  -94.375; -475.000; -398.000
885.553;   -4.925;  245.000;  325.000
885.797; -129.100; -545.000; -615.000
886.042;  -46.050;    8.000;   58.000
886.287;  -89.525; -253.000; -211.000
886.532;  -51.625;   26.000;  204.000
886.776; -100.200; -407.000; -525.000
887.021; -141.100; -621.000; -574.000
887.265; -151.300; -685.000; -689.000
887.510; -135.450; -557.000; -496.000
887.755;  -79.800; -194.000; -164.000
887.999; -139.550; -552.000; -575.000
888.244;  -57.425;  -58.000;  161.000
888.488;  -23.875;  371.000;  393.000
888.732; -126.075; -368.000; -520.000
888.977; -133.275; -622.000; -567.000
889.221; -127.100; -683.000; -659.000
889.465; -120.825; -422.000; -566.000
889.710;  -74.025;  -56.000; -299.000
889.954;   -0.100;  579.000;  467.000
890.198; -140.625; -584.000; -707.000
890.442; -144.575; -716.000; -712.000
890.687; -160.575; -800.000; -753.000
890.931;  -95.500; -273.000; -210.000
891.175; -141.625; -502.000; -500.000
891.419;  -57.550; -105.000; -110.000
891.663;  -88.500; -239.000; -112.000
891.907; -169.550; -801.000; -545.000
892.151; -165.100; -920.000; -815.000
892.395; -108.600; -274.000; -387.000
892.638;  -35.025;  408.000;  291.000
892.882; -183.175; -780.000; -867.000
893.126;   27.350;  758.000;  558.000
893.370;  -94.275; -167.000; -168.000
893.614; -137.475; -714.000; -715.000
893.857; -100.150; -183.000; -197.000
894.101; -130.425; -527.000; -631.000
894.345;  -59.925;  300.000;  150.000
894.588;   -0.225;  569.000;  380.000
894.832;  -88.675; -178.000;  -84.000
895.075;  -89.300;   15.000;  -92.000
895.319; -124.075; -552.000; -420.000
895.563; -121.350; -413.000; -353.000
895.806; -150.625; -628.000; -741.000
896.049;  -29.975; -576.000; -368.000
896.293;  134.850;  527.000;  405.000
896.536;  -29.050; -465.000; -468.000
896.779;  -53.150; -149.000;   -1.000
897.023; -127.750; -751.000; -714.000
897.266;  -33.700;  325.000;  269.000
897.509; -176.400; -900.000; -901.000
897.752;  -50.875;  149.000;  171.000
897.996; -181.625; -972.000; -864.000
898.239;  -47.150;  168.000;  102.000
898.482; -113.050; -431.000; -453.000
898.725;  -21.975;  101.000;   53.000
898.968; -129.350; -609.000; -744.000
899.211;  -91.875; -513.000; -361.000
899.454; -107.200; -633.000; -539.000
899.697;  -57.975;   90.000;  -43.000
899.940; -156.825; -761.000; -757.000
900.182; -103.375; -335.000; -405.000
900.425;  -94.275; -150.000; -298.000
900.668;  -25.725;  491.000;  350.000
900.911; -109.275; -292.000; -345.000
901.154;  -55.750;  141.000;   -3.000
901.396; -134.400; -407.000; -412.000
901.639; -142.825; -430.000; -496.000
901.882; -174.975; -790.000; -809.000
902.124;  -92.150;  -29.000; -143.000
902.367; -110.100; -315.000; -361.000
902.609; -132.275; -476.000; -453.000
902.852; -100.050; -108.000; -260.000
903.094; -129.850; -458.000; -337.000
903.337;  -70.325;  -26.000;   53.000
903.579; -106.575; -228.000; -441.000
903.821; -149.525; -597.000; -744.000
904.064;  -66.325;   85.000;  127.000
904.306;  -77.700; -126.000; -166.000
904.548; -103.850; -152.000; -366.000
904.790;  -90.125; -195.000; -340.000
905.033; -113.350; -625.000; -577.000
905.275; -118.150; -513.000; -524.000
905.517;   59.550;  468.000;  256.000
905.759;   -3.850; -667.000; -761.000
906.001;  -76.375; -322.000; -369.000
906.243;  -47.250; -162.000; -224.000
906.485;  196.200; -265.000; -207.000
906.727;  290.275; -499.000; -542.000
906.969;    6.875;  -30.000; -135.000
907.211;  207.525; -316.000; -382.000
907.453;  470.125; -188.000; -237.000
907.695;   90.825; -158.000; -385.000
907.936;   49.525;  818.000;  706.000
908.178;  -57.200;   92.000; -135.000
908.420;  -76.725; -111.000; -162.000
908.662; -127.550; -633.000; -682.000
908.903;  -85.800; -208.000; -123.000
909.145;  -61.875; -240.000; -305.000
909.386;    6.325;  315.000;  280.000
909.628;   30.025;  363.000;  397.000
909.870;   -4.750;   29.000;  264.000
910.111;  -86.400; -809.000; -949.000
910.353;   15.775; -123.000; -161.000
910.594;   15.550; -574.000; -606.000
910.835;   77.150; -265.000; -326.000
911.077;  165.750; -503.000; -604.000
911.318;  310.000; -505.000; -471.000
911.559;  471.150; -577.000; -880.000
911.801; 1245.125; -284.000; -280.000
912.042; 9040.550;  -50.000; -159.000
912.283;28418.450;  404.000;  371.000
912.524; 5747.175; -396.000; -457.000
912.765;  578.525; -193.000;   79.000
913.006;  271.950; -307.000; -338.000
913.247;   76.125; -270.000; -290.000
913.488;   12.725;  -43.000;   30.000
913.729;  -61.775; -373.000; -373.000
913.970;  -57.925;  -96.000; -292.000
914.211;  -65.975; -160.000; -198.000
914.452;  -76.450; -118.000;  -11.000
914.693;    1.950;  510.000;  592.000
914.934;   21.525;  510.000;  440.000
915.175;  -61.250;   53.000;  -95.000
915.415;  -72.525; -137.000;   27.000
915.656;  -74.075;  -28.000;  192.000
915.897;  -93.950; -252.000;  -82.000
916.137;  -65.875;   74.000;   -9.000
916.378; -119.875; -573.000; -517.000
916.619;  -76.925; -159.000;  -63.000
916.859;  -19.450;  303.000;  330.000
917.100;  123.000; 1655.000; 1070.000
917.340;   70.150;  930.000;  728.000
917.581;   34.075;  965.000;  789.000
917.821;   -0.450; -171.000;  143.000
918.061;   65.150; -199.000;  -72.000
918.302;  -44.500; -152.000; -211.000
918.542;   -2.575;  -22.000;    3.000
918.782;   56.350;  369.000;  377.000
919.023;  176.800;  360.000;  427.000
919.263; 1478.750; 8131.000;  202.000
919.503; 1758.725; -137.000;  -54.000
919.743;  945.625;  390.000;  266.000
919.983;  508.450; -134.000;  -26.000
920.223;  139.950;  135.000;   14.000
920.463;  170.275;  631.000;  554.000
920.703;  183.625;   84.000;   39.000
920.943;  227.425; -110.000;   90.000
921.183;  296.150; -414.000; -405.000
921.423;  615.675;  307.000;  546.000
921.663;  903.200; -174.000; -257.000
921.903; 1846.750;  237.000;  173.000
922.143; 9441.575;  372.000;  389.000
922.383;39616.850;  158.000;  115.000
922.622;17551.775; -120.000;  -15.000
922.862; 1792.850;  796.000;  785.000
923.102;  656.400;  -51.000;   33.000
923.341;  279.375;   59.000;   74.000
923.581;  141.425;  450.000;  360.000
923.821;   36.250;  301.000;  398.000
924.060;   32.300;  351.000;  193.000
924.300;  -37.475;  -16.000; -128.000
924.539;    4.975;  584.000;  473.000
924.779;   20.050;  812.000;  597.000
925.018;  -51.975;  247.000;  353.000
925.257;   -4.425;  595.000;  666.000
925.497;  -47.875;  447.000;  412.000
925.736;  -73.725;  -35.000;  102.000
925.975;   19.075;  687.000;  669.000
926.214;   28.800;  907.000;  850.000
926.454;   10.475;  706.000;  757.000
926.693;  -31.325;  419.000;  543.000
926.932;   34.825; 1021.000;  825.000
927.171;   63.525; 1107.000; 1044.000
927.410;   62.650; 1144.000;  967.000
927.649;   24.425;  924.000;  742.000
927.888;   -6.275;  590.000;  564.000
928.127;   -0.150;  680.000;  678.000
928.366;   29.750;  842.000;  826.000
928.605;   44.675;  831.000;  737.000
928.844;  281.475; 1451.000; 1393.000
929.083;  820.425;  770.000;  613.000
929.321;  494.225; 1335.000; 1359.000
929.560;  116.875; 1158.000; 1122.000
929.799;  -14.775;  574.000;  475.000
930.038;   75.575; 1025.000; 1394.000
930.276;  -49.400;  334.000;  397.000
930.515;   -5.375;  827.000;  681.000
930.753;  -15.675;  614.000;  589.000
930.992;  -16.475;  664.000;  717.000
931.230;    3.600;  847.000;  847.000
931.469;  159.750; 2162.000;  892.000
931.707;   84.050;  840.000;  751.000
931.946;   55.025; 1278.000; 1344.000
932.184;   54.275; 1437.000; 1175.000
932.423;   56.875; 1265.000;  963.000
932.661;   96.525; 1296.000; 1428.000
932.899;   57.175;  987.000;  821.000
933.137;   24.100;  754.000;  564.000
933.376;  191.025; 1664.000; 1335.000
933.614;  177.775; 1759.000; 1196.000
933.852;   62.475; 1357.000; 1171.000
934.090;  149.025; 1722.000; 1747.000
934.328;  123.950; 1252.000; 1457.000
934.566;   97.850; 1431.000; 1110.000
934.804;  156.675; 1263.000; 1309.000
935.042;  499.400; 1861.000; 1850.000
935.280; 1956.775; 2088.000; 2063.000
935.518; 2289.725; 2113.000; 2007.000
935.756;  494.575; 2481.000; 2316.000
935.994;  201.950; 1808.000; 1751.000
936.231;  392.200; 2890.000; 2950.000
936.469;  217.925; 2367.000; 2378.000
936.707;  170.350; 2220.000; 2167.000
936.945;  237.525; 2825.000; 2882.000
937.182;  205.550; 2679.000; 2741.000
937.420;  325.275; 3602.000; 3031.000
937.657;  453.750; 3365.000; 3478.000
937.895;  411.500; 3331.000; 3488.000
938.133;  322.575; 3540.000; 3528.000
938.370;  341.425; 3896.000; 4191.000
938.607;  395.375; 4488.000; 4205.000
938.845;  537.550; 5587.000; 5549.000
939.082;  456.800; 5387.000; 5177.000
939.320;  544.150; 5799.000; 5728.000
939.557;  619.050; 6549.000; 6491.000
939.794;  713.675; 7285.000; 7097.000
940.031;  890.275; 8421.000; 8368.000
940.269; 1174.650; 9552.000; 9107.000
940.506; 1147.800;10901.000;10507.000

