
Integration time [ms]: 100.000
Averaging Nr. [scans]: 40
Smoothing Nr. [pixels]: 0
Data measured with spectrometer [name]: 2101013U2
Wave   ;Sample   ;Dark     ;Reference
[nm]   ;[counts] ;[counts] ;[counts] 

394.013;   68.993; -450.257; -315.536
394.305;  264.665; -461.258; -419.536
394.596; 1151.985; -676.269; -527.514
394.887; 2694.102; -796.268; -654.518
395.178; 1009.283;  145.736;   11.476
395.470;   95.195; -210.263; -356.526
395.761;  236.692;  305.734;  394.479
396.052;  399.457; -545.284; -306.489
396.343;  398.453; -557.276; -454.503
396.634;  138.446; -200.279; -290.497
396.926;  144.899; -618.268; -565.517
397.217;  130.433;   11.725;  -17.504
397.508;   54.599; -366.273; -154.507
397.799;   65.846; -555.279; -571.497
398.090;   11.416; -973.280; -902.495
398.381;  130.880;   11.708;  -11.473
398.672;    1.531; -585.292; -742.473
398.963;   71.278; -348.279; -373.498
399.254;  118.791;   54.709; -209.475
399.545;  -20.261;-1017.266; -883.520
399.836;   73.017; -407.277; -343.501
400.127;   64.031; -205.295; -209.468
400.418;   69.994; -423.274; -392.506
400.709;   86.602; -359.281; -333.493
401.000;   71.820; -268.291; -309.476
401.290;  109.316;  225.698;  115.545
401.581;   68.214; -166.286; -228.485
401.872;   36.352; -542.298; -486.462
402.163;   71.223; -313.296; -252.467
402.454;  108.816; -123.291; -163.475
402.744;   94.214; -844.297; -813.465
403.035;  494.121; -226.293;  -86.471
403.326;  640.784; -366.292; -384.474
403.617;  428.521;  204.701;  165.539
403.907;  258.013; -593.283; -679.490
404.198; 2390.869; -545.307; -599.446
404.489; 6232.443; -618.283; -588.491
404.779; 2111.569; -618.302; -660.456
405.070;  246.073;  -67.304; -174.451
405.360;  336.948; -259.293; -238.472
405.651;  368.956;  125.699;   98.542
405.942;  202.384;  209.714;  127.516
406.232;  305.524; -432.285; -413.487
406.523;  538.916;  641.706;  758.530
406.813;  112.562; -579.286; -644.484
407.104;  388.629;  261.708;  144.527
407.394;  208.473; -604.299; -591.462
407.685;  172.998;  336.715;  222.513
407.975;   75.416; -400.283; -382.490
408.265;  131.181; -134.289; -190.478
408.556;   77.138; -472.291; -459.475
408.846;  149.292;  474.706;  429.530
409.137;   88.915;   -1.288; -216.480
409.427;   55.799; -193.285; -271.487
409.717;   52.177; -776.273; -692.508
410.007;  145.342;    4.715; -170.486
410.298;  100.308; -360.295; -342.469
410.588;   78.396; -495.285; -510.486
410.878;   49.401; -792.287; -873.482
411.168;  116.680; -481.298; -478.463
411.459;  121.336; -295.283; -242.489
411.749;   70.612; -609.292; -507.474
412.039;   74.788; -755.289; -386.480
412.329;  204.485;   40.722;  132.501
412.619;  206.837;  -62.286; -148.485
412.909;  386.034;  639.711;  594.521
413.199;  357.766; -130.280; -251.495
413.490;  427.449;  521.710;  352.523
413.780;  160.195;-1013.279; -913.496
414.070;  341.529;  -46.276;  235.497
414.360;  405.106; -729.278; -666.498
414.650;  438.772; -726.288; -688.482
414.940;  557.394; -538.280; -441.496
415.230;  944.119;   50.712;   74.519
415.520; 6125.159;  155.730;   66.486
415.809;24189.452; -305.281; -125.493
416.099;18288.169; -388.277; -229.501
416.389; 5072.166;  435.726;  236.494
416.679; 2993.598;   91.738;   85.473
416.969;  531.631; -527.287; -503.483
417.259;  479.922;  341.721;  171.503
417.549;  720.201;  522.718;  318.508
417.838; 1629.626; -205.268; -147.518
418.128; 5470.130;  650.710;  492.522
418.418; 4499.284; -491.272; -579.509
418.708; 3059.816;    9.726;  -48.506
418.997;11516.062; -474.275; -480.505
419.287;11792.923; -733.273; -790.507
419.577;11156.610; -160.283; -123.489
419.866;37144.992; -588.277; -498.501
420.156;38250.205; -242.270;  -55.513
420.446; 6754.441; -112.263;  -26.526
420.735;  918.474; -376.271; -446.512
421.025;  847.830; 1830.722;  315.502
421.314;  747.272; -203.271; -226.512
421.604; 1616.619;   89.732;  233.484
421.893;  919.243; -705.271; -602.511
422.183;  237.041; -487.263; -461.526
422.472;  411.520;  -36.271; -107.511
422.762;  487.695; -416.266; -379.521
423.051;  267.655; -916.276; -916.503
423.341;  341.025; -491.273; -439.507
423.630;  443.176; -121.265;   15.477
423.919;  410.436;   58.725;   49.495
424.209;  392.122;  -31.263;   56.473
424.498;  505.774;   68.732;  161.483
424.787; 1086.005; -535.267; -601.518
425.077; 3410.199;   34.735;   29.478
425.366; 4907.452; -734.262; -744.528
425.655; 9702.426;  639.727;  259.493
425.945;20870.959; -313.247; -268.554
426.234;11365.051;  117.741;  300.467
426.523; 5056.131;  -86.259; -350.534
426.812; 6889.291;  107.734;  159.480
427.101;10173.515; -127.269; -323.515
427.390;12802.359;  -55.270;  -86.514
427.680; 3043.401; -624.257; -411.538
427.969;  495.612; -330.255; -301.540
428.258;  344.592; -385.257; -477.536
428.547;  559.338;  449.728;  397.490
428.836; 1369.203; -421.253; -398.543
429.125; 1959.158; -199.259;  -72.534
429.414;  854.477; -330.251; -294.548
429.703; 3086.402; -231.251; -213.548
429.992; 9300.030; -938.250; -828.549
430.281; 6026.434; -397.264; -331.524
430.570;  609.692;  -21.252;   32.454
430.859;  611.430;  279.741;  352.466
431.148;  468.530;  636.752;  631.446
431.437;  302.266;  391.748;  367.454
431.725;  161.619; -544.257; -481.536
432.014;  145.086; -845.253; -756.545
432.303;  408.957; -149.239; -105.569
432.592;  663.440; -460.263; -178.525
432.881; 1072.356; -601.248; -437.554
433.169; 6075.938; -343.255;  -61.540
433.458;12307.192;  445.765;  540.424
433.747; 5114.458; -397.261; -289.529
434.036;  938.458; -275.242; -280.564
434.324; 2119.018; -395.249; -379.551
434.613; 3616.251;   40.757;  159.437
434.902; 1208.447;  333.760;  439.433
435.190;  676.031;   75.761;  295.431
435.479;  357.357;  -52.245;   83.441
435.767;  137.866; -411.244; -427.561
436.056;  233.528; -340.242; -294.563
436.345;  385.850; -372.240; -223.568
436.633;  408.313;   60.750;  383.450
436.922;  302.252;  208.760;  414.432
437.210;  682.982; -194.236;    1.426
437.499; 2214.990; -583.235; -432.576
437.787; 2440.381; -339.236;  -10.574
438.075;  621.087;   56.761;  162.430
438.364;  850.489;  -44.238;  250.429
438.652;  510.246; -286.226; -138.592
438.941;  148.435;    3.770;  269.415
439.229;   26.014; -665.252; -466.545
439.517;   46.249; -160.234;  -85.577
439.806;    0.338; -501.225; -290.595
440.094;  197.056;  377.766;  650.421
440.382;  220.160; -653.233; -302.580
440.670;  244.765; -361.235; -285.576
440.959;   46.130; -347.223; -170.599
441.247;   82.446; -151.229; -109.587
441.535;  127.722; -266.235;   31.423
441.823;   43.804; -497.234; -305.578
442.111;  191.551;  173.771;  327.412
442.400;  602.057; -628.245; -335.559
442.688; 1613.206; -111.234; -620.579
442.976; 1148.370; -786.213; -450.617
443.264;  115.894; -324.224; -364.597
443.552;  112.648; -258.226;   51.408
443.840;  170.946;  602.765;  876.423
444.128;  117.434;  265.767;  269.420
444.416;   13.228; -694.228; -312.588
444.704;   36.886; -465.219;  -92.605
444.992;   83.401;   -0.226;  240.407
445.280;   68.635; -517.230;  -94.585
445.568;   72.099; -694.212; -396.618
445.856;  384.919; -174.221;  357.398
446.143;  880.782;  -54.220;   -7.604
446.431;  698.857;  -25.228;  625.411
446.719;  263.505;  489.783;  675.391
447.007;  186.430;  481.769;  705.416
447.295;  177.877;  597.777;  871.402
447.583;  113.619; -464.229;  -34.587
447.870;  178.066; -434.221; -202.601
448.158;  473.134; -104.230;  129.415
448.446;  363.383; -800.219; -338.604
448.733;  180.646;   13.776;  269.403
449.021;  266.398;   60.788;  341.382
449.309;  176.114; -296.210;  208.379
449.596;  218.352;  128.783;   59.392
449.884;  169.910; -571.222; -325.600
450.172;  157.588; -756.227; -406.590
450.459;  430.628;  645.786;  780.387
450.747; 2304.650; -411.218; -147.608
451.034; 7450.683;  493.772;  889.411
451.322; 6035.531; -413.214; -170.614
451.609;  494.297;  292.777;  508.403
451.897;  588.328; -550.203; -183.634
452.184; 1796.903; -622.223; -400.598
452.472; 1641.635;   97.792;  269.375
452.759;  351.409;  512.781;  864.395
453.047;  139.596; -407.212; -125.617
453.334;   97.917; -732.219; -216.606
453.621;  105.958; -438.214; -161.615
453.909;  125.070;   13.796;  384.368
454.196;  107.966; -299.199; -123.641
454.483;  223.541;  317.798;  540.364
454.771;  146.614; -215.208;  196.374
455.058;   40.817; -316.207;  102.374
455.345;  118.123;   71.807;  344.347
455.632;   96.220; -128.207;  235.373
455.919;   58.489;  -82.196;  182.354
456.207;  -46.454; -774.198; -450.642
456.494;   -6.521; -475.200;  -66.639
456.781;   13.562; -399.202; -198.635
457.068;   69.052; -253.206;  -29.628
457.355;   -0.622; -698.206; -401.629
457.642;    2.809; -552.205; -290.630
457.929;   17.938; -778.194; -417.651
458.216;   59.871; -575.212; -354.617
458.503;  229.893; -173.193;  -19.652
458.790;  227.386; -864.208; -630.625
459.077;  266.342;  -77.202;  110.364
459.364;  802.056; -350.195; -210.649
459.651; 1698.700;  -46.206;  220.372
459.938;  756.377; -864.209; -665.623
460.225;  157.470;  132.799;  276.363
460.512;  -32.839; -836.197; -688.645
460.799;  125.749;  -32.218;  320.392
461.086;   85.883; -370.200; -251.640
461.372;   51.571; -509.198; -279.642
461.659;  130.340; -165.196;  108.354
461.946;   82.142; -445.193;  -54.651
462.233;  239.981;  842.800;  888.361
462.519;  349.303; -814.201; -464.639
462.806; 1010.937; -768.197; -497.645
463.093;  874.988; -445.191;  -66.656
463.380;  -11.045; -920.186; -824.664
463.666;   71.114; -259.197;  -18.646
463.953;  107.726; -406.195; -243.648
464.239;  210.401; -173.195;  -77.648
464.526;  394.612;  413.806;  743.350
464.813;  370.000; -565.190; -304.658
465.099;  378.643;  606.807;  607.348
465.386;  339.022;  903.807;  921.348
465.672;   56.612; -694.197; -522.645
465.959;   24.693; -598.188; -520.662
466.245;   31.272; -468.193; -359.652
466.532;  103.649; -109.195;   63.352
466.818;   92.155; -357.186; -216.664
467.104;   15.646; -488.182; -415.672
467.391;  -19.248; -628.189; -459.658
467.677;   36.983; -289.186;    9.335
467.964;   13.008; -682.189; -471.660
468.250;   75.461; -331.186; -160.665
468.536;   96.378;   90.811;  180.341
468.822;  -23.977; -821.184; -574.668
469.109;  136.128;  351.827;  471.311
469.395;  197.332;  729.808;  787.346
469.681;  204.881;   46.811;  156.341
469.967; 1242.011; -699.188; -382.660
470.254; 2660.294; -494.188; -306.662
470.540; 1664.289; -601.196; -476.646
470.826;  241.907; -488.181; -397.675
471.112;  293.602;  288.816;  113.331
471.398;  103.132; -253.183;  -58.670
471.684;   50.036; -626.177; -447.680
471.970;   10.361; -918.180; -981.675
472.256;   23.206; -521.192; -441.654
472.542;   27.014; -499.171; -434.691
472.828;   27.617; -743.182; -607.672
473.114;   41.059; -380.166; -283.700
473.400;   30.178; -504.175; -293.684
473.686;   45.215; -452.166; -400.701
473.972;   66.943; -230.174; -131.687
474.258;  -23.722; -925.173; -843.689
474.544;  197.353; -183.178;   -2.679
474.830;  293.655;  -65.175;   45.316
475.116;  469.401; -123.190; -196.658
475.401;  649.338; -558.180; -467.676
475.687;  188.437; -725.180; -718.676
475.973;   17.825; -673.181; -770.673
476.259;  262.782;  736.825;  764.315
476.544;  368.144; -539.176; -437.682
476.830;  800.360; -398.172; -322.690
477.116;  672.943; -430.177; -336.682
477.401;  125.238;  346.820;  358.324
477.687;  -10.147; -289.175; -405.684
477.973;   30.903;   21.819;   28.326
478.258;    3.961; -448.163; -348.706
478.544;   44.717;   21.815;   61.334
478.829;  -42.855; -818.171; -738.692
479.115;  -38.640; -749.172; -651.690
479.401;  -16.587; -444.174; -449.686
479.686;   28.112; -253.180;  -74.676
479.972;  -34.442; -886.178; -776.680
480.257;   39.285; -258.166;  -65.700
480.542;   -1.351; -614.170; -469.693
480.828;  233.651; 1288.824; 1392.317
481.113;  -31.951; -464.176; -426.683
481.399;   -8.889; -236.161; -202.711
481.684;  -48.290; -620.166; -462.700
481.969;   20.874; -158.159;  -73.713
482.255;  -15.015; -439.169; -285.695
482.540;  -11.867; -569.178; -441.680
482.825;    4.250; -395.187; -404.663
483.110;  103.263;  -85.169; -105.696
483.396;  197.621; -840.157; -652.718
483.681;  470.843;  543.826;  730.313
483.966;  167.293; -696.160; -700.712
484.251;    8.967; -404.174; -310.687
484.536;   17.246; -356.165; -378.703
484.822;   18.020; -205.173; -218.687
485.107;  -20.965; -599.152; -502.726
485.392;  120.777;  662.836;  541.296
485.677;   84.798;  354.832;  163.302
485.962;  108.019;  160.843;  270.283
486.247;  112.694;  -14.162;   -8.707
486.532;   44.387; -178.166; -325.701
486.817;  163.105;  381.839;  431.291
487.102;  126.318; -453.154; -514.722
487.387;  640.548; -637.156; -652.718
487.672; 1132.282; -154.164;  -38.705
487.957;  685.137; -394.160; -286.711
488.241;  202.652; -290.150; -314.729
488.526;  713.587; -280.152; -148.726
488.811; 1152.710; -881.177; -818.680
489.096;  857.596; -666.154; -702.723
489.381;  470.983;    3.847;  162.275
489.666;  338.710; -428.161; -510.710
489.950;  175.724;  558.846;  627.277
490.235;  -35.003; -480.151; -458.728
490.520;  -28.116; -756.161; -723.710
490.804;  -52.825; -827.156; -736.719
491.089;    6.143; -469.149; -299.732
491.374;   26.055; -132.164;  -75.704
491.658;   -2.270; -817.147; -717.735
491.943;  182.316; -657.152; -609.727
492.227;  267.964; -178.155;  -38.721
492.512;   54.343; -294.157; -341.717
492.797;  -63.838; -713.149; -716.731
493.081;  -50.092; -588.147; -598.735
493.366;  -25.914; -751.161; -635.711
493.650;  198.812;  831.859;  917.254
493.935;   31.504; -648.147; -447.734
494.219;  -33.501; -778.142; -687.743
494.503;  -57.718; -585.150; -487.730
494.788;   42.285;   46.842;   74.285
495.072;   96.604;  184.850;  434.271
495.356;  163.047; -463.148; -343.733
495.641;  484.115; -812.146; -736.736
495.925;  459.205; -976.156; -903.719
496.209;   52.218; -599.149; -451.732
496.494;  -40.525; -763.142; -544.744
496.778;   22.218; -364.154; -360.722
497.062;  -45.870; -819.156; -627.719
497.346;  -28.436; -869.160; -640.711
497.631;  139.225;  580.852;  560.266
497.915;   82.250;  -64.145;  175.261
498.199;   60.146; -341.157; -277.718
498.483;   44.285; -562.152; -508.725
498.767;  172.505;  301.850;  300.271
499.051;  181.215; -126.149; -100.732
499.335;   24.089; -693.149; -739.731
499.619;  -23.210; -381.129; -423.767
499.903;   26.637; -272.155;  -65.721
500.187;   40.700; -588.153; -316.724
500.471;   17.390; -796.152; -595.727
500.755;  109.185;   62.839;  -96.710
501.039;   23.188; -270.155; -357.721
501.323;  109.589;  -21.141;  264.254
501.607;   43.087; -447.163; -503.706
501.891;   11.498; -607.156; -512.718
502.174;  -15.088; -726.144; -585.741
502.458;   71.344;   89.849;  370.273
502.742;   34.488; -180.138; -191.751
503.026;  101.854; -412.147; -254.734
503.310;  156.348; -437.159; -375.713
503.593;  105.906; -464.147; -325.735
503.877;  127.504; -232.133; -156.760
504.161;  176.278;    2.847;  -50.724
504.444;  147.287; -841.158; -710.716
504.728;  430.155; -487.164; -522.704
505.012;  683.302; -257.150;  -76.729
505.295;  529.486; -417.161; -212.711
505.579;  513.280; -256.156; -496.719
505.862;  720.222; -555.145; -333.738
506.146;  717.501; -681.159; -758.714
506.429;  390.151;  568.841;  461.286
506.713;   71.399; -732.151; -667.728
506.996;  320.092;   90.846;  295.278
507.280;  326.625; -633.165; -474.703
507.563;  223.386; -469.155; -261.721
507.847;   86.651; -423.153; -112.724
508.130;   77.611; -665.161; -456.711
508.413;  118.506; -758.167; -577.700
508.697;  242.381; -151.167;   12.300
508.980;  140.952; -422.153; -312.724
509.263;    5.257; -466.155; -450.720
509.547;   39.976; -124.150;   82.271
509.830;   60.439; -172.160;  140.289
510.113;   70.579;  128.844;  298.281
510.396;   48.283; -530.152; -300.725
510.680;  180.473; -818.145; -812.738
510.963;  718.722;  184.846;  180.277
511.246;  629.709; -493.150; -357.730
511.529;  270.353; -482.145;  -83.739
511.812;  356.651; -250.134;   10.241
512.095;  241.046; -740.151; -396.728
512.378;   74.985; -317.147; -245.736
512.661;   39.996; -703.137; -623.753
512.944;   27.751; -750.142; -637.744
513.227;   63.293; -170.137; -171.752
513.510;   29.837; -479.144; -671.741
513.793;   34.793; -485.140; -435.747
514.076;  136.962;  -43.127;  -39.771
514.359;  112.744; -294.149; -135.732
514.642;   74.454; -442.142; -567.744
514.925;  725.867;  581.860;  561.253
515.208;  968.672; -498.134; -443.758
515.491;  635.586; -276.133; -182.761
515.773;  343.465; -410.143; -337.742
516.056; 1973.453;  249.864;  409.246
516.339; 2734.907; -754.136; -652.755
516.622; 1976.507; -518.150; -488.730
516.904; 1391.073;  882.857;  975.257
517.187;  656.617; -730.138; -523.752
517.470;  404.871; -568.143; -510.743
517.752;  416.534; -624.136; -470.756
518.035;  324.554; -708.139; -725.749
518.318;  353.107; -799.136; -744.755
518.600; 2282.565; -300.132; -325.762
518.883; 3149.279;  310.858;   88.256
519.165; 1508.934; -585.138; -426.751
519.448;  412.465;  -61.132;  -19.762
519.730;  221.469; -573.126; -415.773
520.013;  329.407;  588.867;  664.240
520.295;  937.278;  -94.134;  -15.759
520.578; 2136.403; -335.131; -305.764
520.860; 2378.940; -254.132;   56.238
521.143; 1199.887; -763.135; -584.756
521.425;  494.282; -251.125; -279.775
521.707;  659.487; -622.127; -380.771
521.990; 1695.737; -199.127;  167.229
522.272; 1950.470; -116.140;   -4.748
522.554;  913.766; -237.143; -157.742
522.836;  412.575;  -24.134;   99.241
523.119;  230.503; -496.148; -189.734
523.401;  155.035; -448.130; -314.766
523.683;   83.972; -865.137; -693.753
523.965;  264.540;  408.862;  260.248
524.247;  270.304;   54.878;  170.220
524.529;  200.352; -451.134; -367.759
524.812;  340.637;   -3.130;  191.234
525.094;  802.539; -773.138; -631.751
525.376; 1302.042; -143.124;   78.223
525.658;  763.404; -441.136; -339.754
525.940;   11.525; -805.131; -671.764
526.222;   38.532; -188.136;  -88.755
526.504;  123.247; -190.131;   32.237
526.786;  226.205; -960.133; -647.760
527.068;  358.622; -124.123;  -67.778
527.349;  164.875; -865.137; -774.754
527.631;  144.539; -137.132;   22.238
527.913;  136.786; -664.127; -450.771
528.195;  161.700; -761.125; -639.774
528.477;  238.297;  -93.134;  -30.758
528.759;  112.262; -648.130; -522.766
529.040;   59.621; -569.123; -293.778
529.322;   52.678; -235.125;  -10.774
529.604;  148.364;  -47.130;   93.233
529.886;  149.044; -546.126; -302.773
530.167;  130.956;  232.870;  192.235
530.449;   44.184;    1.853;   63.265
530.731;   25.628; -572.122; -459.779
531.012;   64.699; -513.120; -216.784
531.294;   68.164; -118.116;  -43.792
531.575;  139.082;  290.875;  538.225
531.857;   48.092; -548.135; -266.757
532.138;   97.562; -113.141;   40.254
532.420;  202.863;  294.865;  403.244
532.701;  252.457; -722.133; -751.760
532.983;  364.686;  232.867;  182.239
533.264;  132.092; -243.126;  175.228
533.546;  -22.468; -491.136; -508.755
533.827;   54.429;  173.867;   -1.759
534.109;   48.017; -352.135;  -80.757
534.390;  112.294; -725.132; -582.762
534.671;  249.438; -270.135;  -82.756
534.953;  156.349; -751.123; -611.779
535.234;   39.774; -426.117; -255.789
535.515;  -79.017; -891.119; -735.785
535.796;  -15.418; -431.128; -193.770
536.078; -101.009;-1050.124; -904.777
536.359;    8.800;  -22.123;    3.221
536.640;   -1.948; -480.125; -197.774
536.921;  162.219;  225.871;  143.232
537.202;  366.661;  -87.138;  -16.751
537.483;  442.302;  251.869;  377.236
537.764;  163.156;   17.870;   98.235
538.045;  -47.954; -543.134; -371.758
538.326;  -36.079; -596.129; -447.768
538.607;   25.013; -686.127; -476.771
538.888;  164.115;   98.879;    5.218
539.169;  182.385; -704.122; -535.781
539.450;  338.993;  236.871;   16.233
539.731;  227.494; -361.121; -182.783
540.012;  147.874;  199.880;  412.216
540.293;   94.811;   82.876;  158.224
540.574;   24.810; -895.113; -717.796
540.855;  457.668;  435.879;  377.218
541.136;  542.382;   47.878;  139.220
541.416;  280.612; -161.130; -220.766
541.697;  193.423; -274.131; -170.763
541.978;  982.940; -270.135; -315.757
542.259; 1265.188; -211.127; -236.771
542.539;  609.583; -191.116; -186.790
542.820;  194.882;  461.875;  480.225
543.101;  127.700;  -52.145;  -77.738
543.381;   36.562; -638.127; -591.771
543.662;  256.185;  159.873; -254.771
543.942;  557.208; -751.127; -830.770
544.223; 1016.584;  193.878;  161.219
544.504;  646.291; -275.124; -182.777
544.784;  558.719; -592.126; -408.773
545.065; 1615.162;  104.884; -254.791
545.345; 1912.808;  227.881;   14.215
545.626; 1224.535;  -14.113; -108.796
545.906;  844.330;   77.869;   98.235
546.186;  338.349;   92.874;  -95.773
546.467;  206.394;   99.877;  -95.778
546.747;  321.008;  264.884;  327.210
547.027;  343.465;   91.876;  111.223
547.308;  318.007; -376.127; -530.770
547.588;  396.172;  299.871;  371.232
547.868;  181.831;  458.870;  588.235
548.149;  190.769;  609.885;  593.207
548.429;  130.361; -347.127; -299.771
548.709;  196.474; -645.120; -461.784
548.989;  464.393;   84.882;   88.213
549.269; 2001.863;   10.868;  139.239
549.550; 4617.023;  215.877;  117.222
549.830; 4110.653; -758.111; -556.799
550.110;  796.961; -468.110; -320.801
550.390;  791.454; -128.122;  -56.779
550.670; 1101.855; -868.114; -783.795
550.950;  785.392; -509.121; -471.782
551.230;  187.539;  549.879;  460.218
551.510;   10.216; -381.121; -326.782
551.790;   30.319; -173.109; -127.803
552.070;  239.669;  940.877; 1181.223
552.350;  399.687; -492.119; -377.786
552.630;  569.736;   -2.121;   77.219
552.909;  342.162;  181.884;   73.209
553.189;  210.145;  -49.132;   33.237
553.469;  170.537; -703.119; -514.786
553.749;  185.664; -469.127; -357.772
554.029;  160.628;   33.883;  -24.790
554.308;  145.349; -154.115;  -37.794
554.588;   61.231; -196.128; -204.770
554.868;   60.243; -366.121;  -47.782
555.147;  145.171; -114.115;  -46.793
555.427;  547.140; -260.116; -250.792
555.707; 3643.194; -284.115; -200.793
555.986; 4491.381; -719.111; -538.800
556.266; 2299.807;   23.884;   72.210
556.546;  110.816; -888.121; -675.782
556.825;  222.903; -657.114; -556.794
557.105; 1671.554; -125.128;   17.230
557.384; 1988.586;  122.884;  187.209
557.664;  761.314; -717.116; -508.792
557.943;  109.743; -557.121; -411.782
558.222;  171.021; -345.118; -344.788
558.502;  255.272; -116.115;  -76.793
558.781;  469.668;  194.885;  499.208
559.061;  389.471; -232.118; -227.788
559.340;  280.901;  302.883;  353.211
559.619;  671.281;   93.884;  148.210
559.899;  980.278; -239.117; -266.789
560.178;  876.372; -778.115; -593.793
560.457; 2972.004; -623.117; -562.790
560.736; 4217.783; -472.111; -482.800
561.015; 2752.227; -500.128; -502.769
561.295;  364.514;  180.893;  215.193
561.574;  347.944;  119.885;  116.207
561.853;  470.573;  274.891;  303.197
562.132;  479.074;  -45.114;  182.206
562.411;  413.287;  396.879;  553.219
562.690;  119.967; -592.115; -458.792
562.969;  136.142;  472.888;  630.203
563.248;  463.334; 2966.878; 2487.219
563.527;  258.582; -290.111; -408.800
563.806;  357.861; -650.127; -521.771
564.085;  417.429; -297.105; -206.810
564.364;  225.831; -594.117; -405.790
564.643;  463.312; -276.121; -223.781
564.922; 1769.517;  221.890;  397.198
565.201; 1795.120; -640.109; -700.803
565.479;  773.791; -297.115; -219.792
565.758;  315.379; -810.128; -712.770
566.037;  437.897; -155.109; -100.803
566.316;  225.912; -286.116;  -28.791
566.595;   52.869;  -17.115;  -12.793
566.873;   89.959; -166.111;  -79.801
567.152;  -44.759; -490.113; -590.797
567.431;   14.932; -113.116;    6.210
567.709;   16.214; -344.107; -212.807
567.988;  264.753; -810.114; -769.794
568.266;  523.119; -160.115;  -68.793
568.545;  354.702; -644.100; -514.819
568.824;  550.990;  160.885;  356.208
569.102;  536.777; -351.114; -235.794
569.381;  208.440; -492.116; -407.792
569.659;  -47.787; -553.113; -553.796
569.938;   35.582; -743.122; -465.780
570.216;   97.724; -225.109; -225.804
570.494;  -14.344; -632.114; -572.795
570.773;   42.616;  202.879;  114.218
571.051;   11.347; -373.123; -357.778
571.330;   60.310; -221.113; -174.796
571.608;   36.820; -181.098; -173.823
571.886;  -60.524; -671.111; -581.799
572.164;  -53.882; -739.121; -621.782
572.443;  -41.117; -562.105; -512.811
572.721;  -43.945; -399.117; -289.790
572.999;  -27.977; -280.117; -168.788
573.277;   84.476;  379.894;  620.191
573.555;  260.679;   94.894;   37.190
573.834; 1258.148;  -86.117; -114.788
574.112; 1491.166;  880.893;  811.193
574.390;  441.008; -143.111;  -96.801
574.668;    9.468;  -91.112;  -61.797
574.946;  -17.321; -165.106; -187.810
575.224;   20.620;   71.891;  -16.803
575.502;  -13.041; -200.116; -204.791
575.780;  -79.056; -767.112; -829.798
576.058;  222.257; 1589.889; 1004.200
576.336;   -0.362; -210.110; -129.801
576.614;  -50.481; -511.112; -340.798
576.891;   42.848; -711.115; -823.794
577.169;  467.457; -158.108; -285.805
577.447;  555.191;  169.893;  202.193
577.725;  258.873;  629.888;  854.201
578.003;    6.521;  -71.112; -371.798
578.280;   93.117; -208.104; -242.812
578.558;   74.147; -450.115; -422.793
578.836;  131.031; -210.114; -145.795
579.114;   58.667; -630.112; -670.797
579.391;   77.374;   -6.117;  -18.789
579.669;  -40.451; -595.114; -704.794
579.947;  170.088; -326.107; -127.806
580.224;  314.187; -692.107; -524.806
580.502;  293.992;  127.893;   76.193
580.779;   16.430;  -42.117;   75.210
581.057;  -67.900; -584.109; -470.804
581.334;  -89.518; -726.102; -695.815
581.612;   44.505;   54.895;  511.190
581.889;  -25.929;  -83.101; -129.818
582.167;  -31.065; -298.099; -190.821
582.444; -100.185; -845.102; -814.817
582.721;   91.191;  657.899;  715.183
582.999;   34.933; -326.100; -167.821
583.276;  477.026; -812.123; -713.779
583.553;  668.861; -364.102; -294.816
583.831;  205.939; -607.104; -631.812
584.108;   63.480;  349.892;  174.195
584.385;   14.407; -122.102;  -98.815
584.662;  -65.841; -651.111; -828.801
584.940;   26.509;  204.889;  204.199
585.217;  -21.388;  -73.113; -303.796
585.494;   22.293;   71.890;  118.198
585.771;  203.550; -250.109; -354.804
586.048;  483.387; -196.113;  -76.796
586.325;  295.587; -721.110; -773.801
586.602;   86.568;  230.896;  213.188
586.879;  -24.921; -499.100; -580.820
587.156;   34.505; -156.105; -331.810
587.433;  -39.712; -701.102; -667.817
587.710;   72.444;  152.888;  234.202
587.987;  289.361; -264.105; -236.811
588.264;  751.596;  315.888;  387.202
588.541; 1260.795;  -61.104;   26.187
588.818; 2612.628;   72.892;  171.196
589.095; 2222.116; -163.104; -174.812
589.371;  385.548; -459.109; -414.804
589.648;    3.966; -581.107; -437.807
589.925;    1.007; -517.114; -621.795
590.202;   10.819; -741.112; -607.798
590.478;   86.288; -166.105;  -73.811
590.755;  244.159; -241.108; -132.806
591.032; 2330.539; -741.110; -699.802
591.308; 3240.511; -732.094; -790.831
591.585; 1655.464; -573.110; -560.802
591.862;  120.065;-1056.102; -950.817
592.138;   48.131; -475.108; -474.805
592.415;  136.318; -486.104; -495.813
592.691; 1404.966;  460.896;  518.188
592.968; 1804.747; -208.098; -123.824
593.244;  857.408; -695.116; -595.790
593.521;   46.340; -105.102;  -42.817
593.797;  -15.895; -810.122; -720.780
594.074;  311.435; -611.096; -588.826
594.350;  642.072;  828.905;  729.172
594.626;  280.884; -303.111; -283.801
594.903;   97.366; -643.101; -645.817
595.179;  181.022;  243.896;  418.187
595.455;    9.068; -136.107; -150.807
595.731;   18.149;  -19.103;  -38.814
596.008;  -37.646; -464.111; -434.800
596.284;   32.207; -187.100; -242.820
596.560;   47.193; -501.093; -493.833
596.836;  192.557; -173.105;  -70.810
597.112;  331.307; -582.108; -437.805
597.388;  283.658;  -49.097;  -48.826
597.665;  106.090;  437.887;  530.203
597.941;  -50.152; -572.089; -658.839
598.217;   28.192; -323.110; -293.802
598.493;  243.377;   61.891; -204.804
598.769;  490.201; -175.100;  -50.819
599.045;  271.010; -490.108; -562.806
599.321;   49.580; -193.100; -261.820
599.597;  127.926; -355.109; -476.804
599.872;  430.920;  409.896;  429.187
600.148;  347.835;  -61.097; -172.826
600.424;  278.140;   91.893;  202.193
600.700;  221.917; -170.107; -280.807
600.976;  113.579; -442.097; -464.825
601.252;  231.548; -226.109; -272.803
601.527;  200.246; -833.104; -840.813
601.803;  133.963; -453.105; -404.812
602.079;  159.926; -124.100; -118.819
602.354;  539.203; -620.092; -531.835
602.630;  803.712; -140.113; -482.796
602.906; 2112.596; -910.101; -863.818
603.181; 6356.737; -627.119; -534.786
603.457; 5389.182;   98.903; -278.826
603.733;  790.845; -605.120; -626.783
604.008;  887.579; -245.106; -164.810
604.284; 2961.517; -636.101; -580.817
604.559; 2552.998;   -3.112;  -42.799
604.835;  447.532; -163.105; -225.810
605.110;  384.261; -732.099; -892.821
605.385;  670.071;  224.907;  267.167
605.661;  591.599; -625.095; -729.829
605.936; 1101.685; -664.108; -737.806
606.211;  927.406;  -17.103; -170.815
606.487;  188.751; -329.114; -376.794
606.762;   21.012; -791.119; -745.786
607.037;  -23.468; -501.105; -433.810
607.313;  -38.882; -589.096; -574.828
607.588;   15.279; -375.106; -137.810
607.863;   42.195;  -28.101; -143.818
608.138;  159.341;  513.890;  516.198
608.413;   23.415; -576.099; -592.822
608.688;   35.732; -203.108; -267.805
608.964;  171.073; -509.106; -218.809
609.239;  234.555; -107.105; -212.810
609.514;  224.238;  281.895;  240.188
609.789;  626.567; -187.104; -716.812
610.064;  819.916; -435.096; -609.827
610.339;  803.723; -855.109; -799.804
610.614; 1114.981; -131.100; -315.820
610.889;  624.688;  215.895;  107.188
611.163;   26.739; -407.104; -591.812
611.438;   76.303;   81.886; -167.794
611.713;   13.567; -467.101; -499.817
611.988;   52.969; -144.101; -328.818
612.263;  -18.893; -771.102; -717.815
612.538;  189.687;  385.887;  251.204
612.812;  152.282; -832.100; -911.820
613.087;  118.395; -358.098; -338.823
613.362;  -55.058; -497.107; -557.807
613.637;   34.352;  261.897;  138.186
613.911;  -12.196; -256.092; -345.835
614.186;   99.316; -249.107; -292.807
614.460;  625.249; -842.081; -758.854
614.735;  730.097;  -55.087;  -17.843
615.010;  158.011;   43.912;  -82.841
615.284;  232.256;  360.892;  246.195
615.559;  368.252; -792.092; -955.835
615.833;  273.263;  -76.099;  -87.822
616.108;   -3.986; -225.090; -390.837
616.382;  126.523;  274.913;  402.156
616.656;  131.115; -241.090; -232.837
616.931;  476.038; -785.099; -700.822
617.205; 1016.796; -973.104; -979.813
617.480;  912.005;  -91.125;    6.225
617.754;  168.528; -396.125; -128.774
618.028;   15.373; -369.129; -382.768
618.302;   60.030;   73.892;  -25.805
618.577;  -44.722; -371.103; -518.815
618.851;  -59.430; -399.109; -600.803
619.125;  -50.323; -335.134; -378.759
619.399;  -33.328; -244.104; -374.813
619.673;  -49.259; -330.115; -515.792
619.947;  -36.320; -333.114; -448.795
620.222;  -14.390; -198.110; -204.801
620.496;   -9.732;  -47.121;  -96.782
620.770;    9.184; -187.122;  -93.781
621.044;  193.130;  323.895;  346.190
621.318;  694.996; -653.120; -614.783
621.592;  623.869; -430.121; -409.783
621.866;  340.924; -476.112; -572.799
622.140;   26.009; -207.116; -356.791
622.413;   43.903;  138.889;  112.200
622.687;  -51.883; -746.101; -492.817
622.961;    5.005; -130.108; -143.805
623.235;  -56.871; -633.111; -661.800
623.509;  -99.013; -816.105; -848.811
623.783;    9.663;  -12.107;   48.193
624.056;  -18.953; -254.120; -280.783
624.330;   39.268;   63.888;   -3.797
624.604;   51.981; -271.116; -355.790
624.877;   70.440;  180.890;   26.198
625.151;   35.625; -249.114; -238.794
625.425;  -45.926; -150.103; -283.814
625.698;  -60.219; -367.119; -374.785
625.972;  -85.308; -799.110; -765.802
626.245;   64.583;  685.884;  484.210
626.519;  -44.049; -426.120; -340.784
626.792;  -37.408; -192.107; -380.807
627.066;  -86.223; -485.122; -662.779
627.339;  -94.987; -736.110; -663.802
627.613;   33.100;  351.880;  148.216
627.886;   54.494;  187.891; -612.803
628.160;  -10.755;  312.880; -161.783
628.433; -107.592; -695.125; -703.775
628.706;  -78.274; -517.120; -615.784
628.979;   28.990;  296.876;  117.223
629.253;  -83.089; -785.119; -833.786
629.526;  318.542; -334.126; -253.772
629.799;  300.247; -641.123; -479.778
630.072;  148.224; -497.128; -516.769
630.346;  -74.442;-1115.116;-1080.790
630.619;  420.818; -467.107; -545.808
630.892;  585.305;  709.889;  593.200
631.165;  316.072;  790.896;  679.187
631.438;  -79.779;-1092.112;-1055.798
631.711;   44.900;  453.877;  257.221
631.984;  -65.272; -523.117; -624.789
632.257;  -56.601; -636.117; -681.789
632.530;  -49.593; -412.119; -433.785
632.803;    8.523; -109.115;    7.207
633.076;  -67.106; -360.123; -422.777
633.349;    0.253;  173.872;  121.231
633.622;  -51.145; -187.119; -240.785
633.895; -122.353; -903.120; -823.783
634.167;  -63.356; -496.126; -525.773
634.440;  -10.161;  -19.116; -137.792
634.713;   -6.790;  -22.119; -120.786
634.986;   81.543;  593.871;  453.233
635.258;  -66.929; -507.115; -597.793
635.531;   85.295;  742.882; -343.788
635.804;  -30.598; -303.117; -318.789
636.077;  -86.465; -830.116; -852.791
636.349;  -15.555; -586.115; -474.793
636.622;  362.617; 1695.874; 1392.228
636.894;  229.451; -474.120; -909.784
637.167;  123.885; -836.127; -789.771
637.439;   38.007; -278.128; -213.770
637.712;  -51.207; -312.126; -293.772
637.984;  -88.814; -635.116; -707.791
638.257;  330.694;  515.877;  488.222
638.529;  553.859; -881.125; -924.776
638.802;  247.149; -508.128; -449.769
639.074; -115.141; -927.122; -952.781
639.346; -106.356; -942.135; -930.757
639.619;   -7.448;  -79.142; -319.744
639.891;   -9.098;  -83.122; -168.779
640.163;  -77.821; -689.122; -756.780
640.435;   42.481;  273.878;  103.220
640.708;   -0.692;  -72.122; -132.780
640.980;  -22.590; -366.122; -362.781
641.252;  173.637;  -25.121;  -71.781
641.524; 1737.813;  580.879;  573.219
641.796; 1797.165;-1094.121; -907.782
642.068;  322.117; -191.121; -300.782
642.340;  -52.806; -486.121; -566.783
642.613;   42.096;  294.880;  323.217
642.885;  -96.627; -787.120; -878.783
643.157;  -48.150; -810.120; -658.784
643.428;   62.076;  170.880;  218.216
643.700;  -67.997; -498.120; -425.784
643.972;  -42.370;  -16.119; -133.785
644.244;  -85.793; -474.119; -559.785
644.516;  -48.416; -250.119; -114.786
644.788;   57.036;  662.881;  548.214
645.060;  -14.262;  -12.119; -124.786
645.332;  -85.961; -525.118; -535.787
645.603;   27.016;  479.882;  342.213
645.875;  -74.032; -334.118; -369.787
646.147;  161.920; 1487.882; 1242.212
646.418;  -79.728; -931.117; -918.788
646.690;  116.049; -714.117; -715.789
646.962;   33.151; -413.117; -451.789
647.233;  -14.597;   15.883;   11.211
647.505; -105.921; -595.117; -475.790
647.776;   29.656;  328.884;  229.210
648.048;   -4.442; -248.116; -418.790
648.320;  -66.965; -752.116; -679.791
648.591; -144.788;-1055.116; -958.791
648.862;  -96.036; -505.116; -577.792
649.134;   14.141;  115.885;  198.208
649.405;  -62.208; -661.115; -618.792
649.677;  -50.631; -475.115; -598.793
649.948;  -15.004; -181.115; -296.793
650.219;   -7.477;  -37.115; -147.793
650.491;  -72.150; -431.114; -520.794
650.762; -120.748; -705.114; -731.794
651.033;  -84.046; -437.114; -424.795
651.304;  -96.545; -743.114; -728.795
651.576;  -65.393; -680.114; -645.795
651.847;  -47.616; -250.113; -140.796
652.118;  -25.589;  -32.113; -189.796
652.389; -108.087; -639.113; -722.796
652.660;  -38.935; -147.113;  -89.797
652.931; -138.708; -897.112; -871.797
653.202;  -83.681; -382.112; -541.798
653.473;  -65.955; -633.112; -533.798
653.744;  144.947; -595.112; -590.798
654.015;  115.124; -356.112; -303.799
654.286;  -72.249; -642.111; -663.799
654.557;  -55.422; -586.111; -521.799
654.828; -161.045;-1114.111;-1088.800
655.099;  -83.418; -404.111; -291.800
655.370;  -86.617; -427.111; -543.801
655.641; -116.915; -656.110; -714.801
655.911; -107.238; -618.110; -638.801
656.182;   51.864;  437.890;  387.198
656.453;   93.741;  830.890;  746.198
656.724;  -73.907; -466.110; -426.802
656.994;  -74.555; -553.109; -568.803
657.265; -115.354; -862.109; -873.803
657.536;  -82.877; -500.109; -377.804
657.806; -110.425; -561.109; -593.804
658.077; -130.623; -866.109; -950.804
658.347;  -92.246; -523.108; -598.805
658.618; -108.744; -646.108; -694.805
658.888;  -22.017;  -41.108;  112.195
659.159;  -76.565; -432.108; -548.806
659.429;  -21.364; -292.108; -349.806
659.700;   10.388; -435.107; -390.807
659.970;  -21.935; -370.107; -359.807
660.241;   -4.308; -754.107; -921.807
660.511;  468.744; -147.107; -174.808
660.781;   87.571; -793.106; -748.808
661.052;  -38.152; -222.106; -381.808
661.322;  -19.401;   21.894;   -9.809
661.592;   10.351;  257.894;  148.191
661.862;  -75.022; -369.106; -382.810
662.133;  -94.145; -551.105; -502.810
662.403; -129.543; -770.105; -676.810
662.673;  -54.991; -256.105; -213.811
662.943;  -94.864; -612.105; -551.811
663.213;  -10.712;  -85.105;  -81.811
663.483;  -66.511; -593.104; -568.812
663.753;  -50.934; -194.104; -152.812
664.023;  -15.507;   68.896;  -32.813
664.293;  -68.430; -319.104; -126.813
664.563; -103.403; -694.104; -648.813
664.833; -117.101; -743.103; -608.814
665.103; -127.149; -730.103; -793.814
665.373; -113.773; -766.103; -806.814
665.643;  -89.771; -863.103; -918.815
665.913;   24.031; -534.103; -714.815
666.182;  132.983; -685.102; -719.816
666.452;  251.610;  -22.102;  -89.816
666.722;  -31.413; -724.102; -784.816
666.992; -122.386; -948.102; -921.817
667.261;  -85.460; -824.102; -808.817
667.531;  193.842;  134.899;   45.183
667.801;  561.669; -440.101; -412.818
668.070;  227.821;  714.899;  697.182
668.340;  -95.602; -883.101; -840.819
668.609;   80.200;  588.900;  301.181
668.879;  -77.623; -490.100; -558.819
669.149;  -80.396; -539.100; -516.820
669.418;  -87.670; -698.100; -726.820
669.688;  -34.093; -482.100; -666.820
669.957;   52.159; -423.099; -546.821
670.226;  -11.939; -268.099; -331.821
670.496;  -91.862; -431.099; -635.822
670.765;  -77.710; -418.099; -501.822
671.034; -127.258; -872.099; -828.822
671.304;  -18.182;   55.902; -111.823
671.573; -157.405;-1085.098; -957.823
671.842;   69.872; -380.098; -294.823
672.112;   22.624; -692.098; -586.824
672.381;   -8.324; -239.098; -214.824
672.650; -135.172;-1005.097;-1021.825
672.919;  -85.020; -631.097; -507.825
673.188;  -93.594; -681.097; -878.825
673.457; -147.992;-1101.097;-1143.826
673.726;  -84.065; -579.096; -646.826
673.995;  -42.513; -533.096; -479.826
674.265;  -30.461; -263.096; -333.827
674.534;    3.191; -183.096; -235.827
674.802;  -13.257; -618.096; -703.828
675.071;  861.970; -886.095; -801.828
675.340; 3753.021; -464.095; -339.828
675.609; 1230.648;  103.905;   82.171
675.878;   61.550; -949.095; -893.829
676.147;   25.652;  -26.095;   -8.829
676.416;   73.279; -210.094; -294.830
676.685;  701.106; 1000.906; -622.830
676.953;   79.483; -603.094; -452.831
677.222;  -35.541; -193.094; -273.831
677.491;  -36.439;  -24.094; -127.831
677.759;  -12.037;   11.907;  172.168
678.028;  -27.785; -279.093; -222.832
678.297;  -15.733;   71.907;  197.168
678.565; -148.581; -898.093; -944.833
678.834;  -61.804; -311.093; -268.833
679.102;  -80.553; -411.092; -391.834
679.371; -129.826; -898.092; -727.834
679.639; -122.774; -797.092; -786.834
679.908; -116.622; -794.092; -724.835
680.176; -139.995; -895.091; -941.835
680.445;  -76.443; -346.091; -352.835
680.713;  -11.066;  -58.091;  -23.836
680.982; -101.414; -523.091; -525.836
681.250; -104.538; -578.091; -507.837
681.518;  -97.836; -534.090; -751.837
681.787;  -32.634; -204.090; -167.837
682.055;  -63.607; -490.090; -422.838
682.323; -138.880; -993.090; -992.838
682.591;   17.822; -216.090; -538.838
682.859;   75.074;    9.911;  -35.839
683.128;   12.000;  232.911;  497.161
683.396; -158.848;-1102.089;-1122.840
683.664;  -48.846; -241.089;   21.160
683.932;   -6.044;  144.911;  -76.840
684.200;  -78.617; -576.088; -320.841
684.468;  -40.790;  -73.088; -124.841
684.736;  -31.038; -214.088; -175.841
685.004; -123.162;-1024.088; -982.842
685.272;  -54.260; -880.088; -774.842
685.540;  -61.958; -499.087; -557.843
685.808;  -89.231; -651.087; -682.843
686.076; -101.254; -894.087; -969.843
686.343;  -48.827; -601.087; -815.844
686.611;   40.075; -195.087; -224.844
686.879;  389.477; -530.086; -553.844
687.147; 3111.028; -483.086; -480.845
687.414;  898.030;  -12.086; -169.845
687.682;   14.607; -658.086; -757.846
687.950;  286.984;  259.915;  263.154
688.217;   19.136; -792.085; -760.846
688.485;  -12.637; -632.085; -636.847
688.753;  483.815;  -11.085; -102.847
689.020;  157.491; -820.085; -851.847
689.288;  -96.132; -853.084; -787.848
689.555;  -30.505; -195.084; -148.848
689.823;  -46.353; -241.084; -345.849
690.090;  -80.101; -546.084; -651.849
690.358; -143.049; -877.084; -897.849
690.625;   -0.822;  120.917;   45.150
690.892;  -72.746; -403.083; -369.850
691.160;  -11.094;   72.917;  -35.850
691.427;    2.983;  141.917;  130.149
691.694; -128.290; -855.083; -929.851
691.962; -133.388;-1177.082;-1060.852
692.229;   20.564;  127.918;   56.148
692.496;   73.166;  130.918;  -49.852
692.763;   22.768; -164.082; -201.853
693.031;  -61.131; -739.082; -716.853
693.298;  -32.154; -509.081; -368.853
693.565;  255.998; -155.081; -163.854
693.832; 1228.000;   -5.081;   -9.854
694.099;  126.227; -643.081; -642.855
694.366;  -43.796; -882.081; -896.855
694.633;  -44.694; -920.080; -633.855
694.900;  712.757; 4367.920; -114.856
695.167;  424.334; -214.080; -380.856
695.434;  101.236; -646.080; -623.856
695.701;  197.988;  121.921;  -61.857
695.968;  453.290; -365.079; -361.857
696.234;  950.792; -415.079; -646.858
696.501;10445.794; -776.079; -614.858
696.768; 5619.595; -554.079; -617.858
697.035;  340.372; -632.078; -667.859
697.302;   50.099; -448.078; -552.859
697.568;   16.626; -458.078; -497.859
697.835;  -37.447; -683.078; -624.860
698.102;  -13.995; -498.078; -407.860
698.368;   74.207;  384.923;  396.139
698.635;  -34.966;  -47.077; -424.861
698.901;  -19.140; -240.077; -348.861
699.168;   63.762; -534.077; -456.862
699.435;   76.639;  -72.077;  -13.862
699.701; -110.934; -868.076; -764.862
699.968;   15.293;  144.924; -441.863
700.234;  -86.855; -783.076; -822.863
700.500;  -52.728; -448.076; -539.864
700.767;   13.823;   -1.075;   26.136
701.033; -126.450;-1015.075; -963.864
701.299;  -49.873; -450.075; -483.865
701.566;  108.904;  950.925;  763.135
701.832;   32.856;  -31.075;  -76.865
702.098;  -90.317;-1054.074;-1034.866
702.365;  -81.190;-1098.074;-1030.866
702.631;  -28.664;-1038.074;-1063.867
702.897; 1230.888; -765.074; -676.867
703.163; 2239.040;  348.926;  254.133
703.429;  176.092; -256.073; -273.868
703.695;  -37.331; -796.073; -792.868
703.961;    8.821; -214.073; -210.868
704.227;  -48.327; -630.073; -725.869
704.493;  125.700;  613.927;  510.131
704.759;  -21.699; -565.072; -540.870
705.025;   33.128; -203.072; -194.870
705.291;   -8.145; -666.072; -562.870
705.557;  177.032;  719.928;   34.129
705.823;   29.384; -742.072; -694.871
706.089;  166.736; -307.071; -326.871
706.355;  360.663; -315.071; -244.872
706.620; 5639.114; -776.071; -729.872
706.886; 8316.866; -309.071; -362.873
707.152;  785.843; -818.070; -973.873
707.418;    1.595;-1153.070;-1186.873
707.683;    4.147; -550.070; -530.874
707.949;  -45.076; -547.070; -578.874
708.215;    4.101; -129.070; -207.874
708.480;  -24.248; -520.069; -420.875
708.746;   95.004;   68.931;   28.125
709.011;  -46.044; -578.069; -612.876
709.277;  -65.192; -538.069; -543.876
709.542;  -44.390; -428.069; -387.876
709.808;   -1.063;  -59.068;   89.123
710.073;  -75.336; -577.068; -695.877
710.339;  -33.309; -242.068; -228.877
710.604;   64.667; -780.068; -845.878
710.869;  327.219; -277.068; -366.878
711.135;  -78.154; -715.067; -628.879
711.400;  -81.952; -507.067; -608.879
711.665;  -62.450; -404.067; -479.879
711.931;  -71.748; -661.067; -677.880
712.196; -113.771; -876.067; -954.880
712.461;   85.155; -402.066; -490.880
712.726;  150.682; -727.066; -771.881
712.991;  -80.241; -647.066; -664.881
713.256;  -45.114; -350.066; -332.882
713.521;  -52.637; -417.065; -381.882
713.787;  -57.210; -454.065; -472.882
714.052;  -28.158; -214.065; -400.883
714.317;  -82.682;-1045.065; -981.883
714.581; 1002.570; -374.065; -268.883
714.846; 1567.272; -822.064; -888.884
715.111;  139.449;  261.936;  257.116
715.376;  -31.724;  -86.064; -223.885
715.641;  -15.672; -365.064; -367.885
715.906;  291.630;   15.936; -551.885
716.171;  135.882;  221.937;  209.114
716.436;   34.208;  -78.063; -104.886
716.700; -106.390; -818.063; -692.886
716.965; -118.413; -794.063; -807.887
717.230;  -75.061; -339.063; -392.887
717.494;  -43.084;  -40.062; -134.888
717.759; -104.682; -784.062; -640.888
718.024;    7.620;  269.938;  250.112
718.288;   80.521;  685.938;  395.111
718.553; -147.877; -803.062; -977.889
718.817; -132.400; -883.061; -899.889
719.082;  -42.223; -115.061; -125.890
719.346; -135.396;-1000.061; -947.890
719.611;  -41.419; -300.061; -255.891
719.875; -110.967; -568.060; -537.891
720.140;  -71.041; -453.060; -603.891
720.404;   25.961; -136.060; -249.892
720.668;  782.488; -475.060; -411.892
720.933;  330.315;  146.940;  137.108
721.197;  -95.633; -667.059; -600.893
721.461; -115.656; -851.059; -826.893
721.725;    4.746;  -21.059; -250.894
721.990;  -57.052; -284.059; -204.894
722.254;  -33.101;  -26.059; -108.894
722.518;  -66.274; -286.058; -442.895
722.782;  -96.872; -743.058; -594.895
723.046;  125.330;  614.942;  570.105
723.310;   19.132;  374.942;  210.104
723.574; -105.766; -654.058; -614.896
723.838; -109.139; -576.057; -642.897
724.102;  -55.688; -226.057; -239.897
724.366; -125.811;-1032.057; -978.897
724.630;  -91.259; -749.057; -571.898
724.894;  -84.107; -722.057; -514.898
725.158;  -14.955;   38.944; -295.898
725.422;  -55.578; -394.056; -327.899
725.685;  -51.576; -441.056; -349.899
725.949;  -77.250; -566.056; -519.900
726.213;  -78.848; -732.056; -811.900
726.477;  136.954;-1020.055; -933.900
726.740;  159.431; -274.055; -104.901
727.004;  315.408; -384.055; -510.901
727.268; 3371.635; -442.055; -400.901
727.531; 1029.937; -961.055; -775.902
727.795;  -32.036; -713.054; -673.902
728.059;  -56.485; -552.054; -557.903
728.322;  -87.383; -841.054; -669.903
728.586;    6.894; -692.054; -701.903
728.849;  -71.779; -695.053; -756.904
729.112;  -92.627; -812.053; -912.904
729.376; -119.350; -959.053; -905.904
729.639;  -60.848; -536.053; -536.905
729.903; -109.572; -733.053; -699.905
730.166;  -56.220; -437.052; -399.906
730.429;  -31.268; -317.052; -468.906
730.693;  -64.041; -355.052; -894.906
730.956;  192.461;  810.948;  651.093
731.219;  692.313; -310.052; -103.907
731.482;  105.090;-1003.051; -894.907
731.745;  113.692; -794.051; -935.908
732.009;   15.443;  -30.051;   50.092
732.272;  -83.830; -904.051; -771.909
732.535;  -47.853; -300.051; -310.909
732.798; -148.251;-1083.050;-1166.909
733.061;  -54.349; -430.050; -456.910
733.324;    1.603;   31.950; -180.910
733.587;   59.830;  290.950;  365.090
733.850;  -55.019; -973.049;-1050.911
734.113;   30.708;   33.951;   32.089
734.376;   12.285; -328.049; -447.912
734.639;  208.037; 1188.951; 1011.088
734.901;   60.314; -180.049; -402.912
735.164;  447.491; -883.048; -837.913
735.427; 1288.243; -166.048; -355.913
735.690;  119.694; -205.048; -234.913
735.952;  -28.704; -923.048; -925.914
736.215;  -32.827;-1113.048;-1009.914
736.478;   55.350; -771.047; -774.915
736.740;  201.577;   33.953;  129.085
737.003;  595.504; -658.047; -672.915
737.266; 3883.831;  -94.047;   46.084
737.528;  439.058; -682.047; -660.916
737.791;  329.934; -316.046; -327.916
738.053;  773.861;  465.954;  649.083
738.316;10460.563; -162.046; -136.917
738.578; 8268.040; -770.046; -736.918
738.841;  490.792; -382.046; -446.918
739.103;  179.544; -875.045; -777.918
739.365;  519.846;   79.955;  -69.919
739.628;    0.972; -884.045; -805.919
739.890;  -26.726; -758.045; -710.919
740.152;  -50.899; -692.044; -754.920
740.414;    3.528; -408.044; -359.920
740.677;  -57.445; -785.044; -634.921
740.939;  -53.418; -587.044; -487.921
741.201;  233.659; -432.044; -572.921
741.463;   58.460; -689.043; -745.922
741.725;    7.362;  -21.043; -199.922
741.987;   41.814;  220.957;  116.078
742.249;    4.066; -751.043; -859.923
742.511;  188.968; -703.043; -794.923
742.773;   28.395; -546.042; -546.924
743.035;  134.622;  796.958;  533.076
743.297;  -48.651; -963.042;-1013.924
743.559;  716.825; -278.042; -262.925
743.821;   65.952; -735.042; -744.925
744.083;   15.704;  -44.041; -149.925
744.345;  -77.269; -869.041; -892.926
744.607;   43.333;   75.959;  122.074
744.868;  -53.440; -490.041; -554.927
745.130; -109.188; -994.041;-1008.927
745.392;   34.263;   -1.040;  -44.927
745.653;  -27.810; -411.040; -378.928
745.915;  142.942;  896.960;  631.072
746.177;   40.569;   35.960;  -43.928
746.438;    3.621; -428.040; -543.929
746.700;  -28.202; -947.039; -988.929
746.961;   19.525; -659.039; -740.930
747.223;  151.426; -190.039;  -74.930
747.484;   96.128; -391.039; -471.930
747.746;  134.880;  -23.038; -106.931
748.007;  119.107; -647.038; -689.931
748.269;  275.734; -468.038; -440.931
748.530;  491.986; -852.038; -638.932
748.791;  272.388; -354.038; -420.932
749.053;  427.740;  286.963;  163.067
749.314;  465.466; -236.037; -169.933
749.575;  503.493; -945.037; -905.933
749.836;  828.345; -217.037;   86.066
750.098; 2223.172;  -60.037;  -21.934
750.359;35082.674;  414.964;  555.066
750.620;10051.676; -121.036; -220.935
750.881; 1018.428; -585.036; -513.935
751.142; 1332.904; -950.036; -938.936
751.403;16074.531; -789.036; -705.936
751.664; 8047.958;-1034.035; -999.936
751.925;  506.160; -175.035; -262.937
752.186;  269.912; -298.035; -278.937
752.447;  139.964; -590.035; -445.937
752.708;   48.741; -532.035; -648.938
752.969;    9.467; -566.034; -576.938
753.230;  -12.481; -777.034; -672.939
753.491;   -7.429; -650.034; -631.939
753.751;   60.173;  109.966;   19.061
754.012;   86.675;  258.967;  181.060
754.273;   49.752; -174.033;  -71.940
754.534;    2.004; -487.033; -580.940
754.794;  -71.444; -926.033; -911.941
755.055;  135.507; 1051.967;  881.059
755.316;  -69.191; -700.032; -566.942
755.576;  -14.864; -606.032; -576.942
755.837;  -52.737; -527.032; -695.942
756.097;  -34.785; -530.032; -564.943
756.358;  -72.858; -725.032; -770.943
756.618;  -57.956; -705.031; -641.943
756.879;   12.095; -254.031; -349.944
757.139; -108.253;-1098.031;-1116.944
757.400;  -51.201; -538.031; -553.945
757.660;  -14.299; -365.031; -401.945
757.920;    5.103; -266.030; -228.945
758.181;  -21.745; -468.030; -351.946
758.441;  -86.193; -870.030; -809.946
758.701;  -23.242; -308.030; -215.946
758.961;  -25.765; -220.030; -278.947
759.222;  -55.413; -574.029; -502.947
759.482;  -77.811; -683.029; -723.948
759.742;  -77.934; -706.029; -547.948
760.002;   14.268;  -83.029; -143.948
760.262;   28.045;   50.972;  182.051
760.522;  -40.678; -498.028; -574.949
760.782;  -59.677; -738.028; -612.949
761.042;  -32.700; -618.028; -573.950
761.302;   49.952;   55.972;  -18.950
761.562;   53.904; -164.027; -154.951
761.822;   73.681; -710.027; -551.951
762.082;  -41.792;-1104.027;-1093.951
762.342;   80.760; -328.027; -403.952
762.601;   96.136; -567.027; -506.952
762.861;  349.138; -281.026; -207.952
763.121;  416.115; -406.026; -411.953
763.381; 7192.392; -499.026; -485.953
763.640; 9062.719; -139.026; -307.954
763.900;  395.896; -242.026; -203.954
764.160;   83.173; -458.025; -491.954
764.419;   -9.001; -726.025; -782.955
764.679;  -68.899; -795.025; -726.955
764.939;    0.778; -124.025; -210.955
765.198;  -68.545; -608.025; -563.956
765.458;  -79.068; -710.024; -612.956
765.717;  -84.191; -454.024; -590.957
765.976;  -48.289; -428.024; -411.957
766.236;  -75.712; -475.024; -610.957
766.495;    7.564;  260.977;   73.042
766.755;  -94.559;-1090.023; -987.958
767.014;   15.943; -594.023; -665.958
767.273;  -60.080; -373.023; -397.959
767.533;  -39.553; -228.023; -307.959
767.792;  -25.601; -151.022; -188.960
768.051;  -44.324; -228.022; -276.960
768.310;  -80.798; -546.022; -650.960
768.569;   -3.796; -161.022;    4.039
768.828;  -41.644; -285.022; -363.961
769.088; -112.217;-1050.021; -942.961
769.347;  -71.115; -755.021; -599.962
769.606;  -87.638; -876.021; -857.962
769.865; -103.561;-1016.021;-1033.963
770.124;   -6.285; -411.021; -336.963
770.383;  -45.583; -778.020; -910.963
770.641;   17.194; -398.020; -400.964
770.900;  -54.479; -953.020; -846.964
771.159;  -31.277; -851.020; -951.964
771.418;   12.000; -917.020; -779.965
771.677;  131.652; -224.019; -293.965
771.936;  164.079; -794.019; -865.966
772.194; 1995.655; -465.019; -437.966
772.453;11894.607; -213.019; -391.966
772.712;  874.209;  416.982;  329.033
772.970;  130.586;   32.982;   63.033
773.229;   87.563;  -22.018;  102.033
773.488;  -79.660; -814.018; -770.968
773.746;   71.417;  296.982;  335.032
774.005;   17.293;  190.983;  -22.969
774.263;   10.170;  243.983;  177.031
774.522;  -55.128; -422.017; -548.969
774.780;  -65.701; -484.017; -417.970
775.039;  -74.374; -551.017; -531.970
775.297;  -29.122; -135.016; -351.970
775.555; -103.045; -489.016; -612.971
775.814; -104.394; -618.016; -570.971
776.072; -115.242; -749.016; -740.971
776.330;  -92.815; -630.016; -520.972
776.589; -114.738; -703.015; -721.972
776.847; -123.811; -645.015; -624.973
777.105; -157.684;-1016.015;-1032.973
777.363;  -89.132; -459.015; -454.973
777.621; -144.330; -660.015; -717.974
777.879;  -16.054;  -42.014;   32.026
778.138; -109.477; -554.014; -717.974
778.396; -103.675; -585.014; -526.975
778.654; -157.948;-1015.014; -970.975
778.912;  -51.746; -269.014; -371.976
779.170; -146.294; -880.013; -803.976
779.427; -139.617; -922.013; -897.976
779.685; -121.141; -880.013; -832.977
779.943;  -82.464; -654.013; -593.977
780.201; -150.412; -964.012; -883.978
780.459; -109.035; -651.012; -610.978
780.717;  -73.908; -440.012; -390.978
780.974;  -97.781; -449.012; -490.979
781.232;  -75.004; -358.012; -338.979
781.490;  -67.903; -551.011; -472.979
781.747;  -98.676; -555.011; -476.980
782.005;    6.551;  462.989;  254.020
782.263; -162.547; -542.011;-1004.981
782.520;  -89.445; -326.011; -501.981
782.778; -173.418;-1013.010;-1051.981
783.035; -158.616; -962.010; -938.982
783.293;  -45.464; -248.010; -206.982
783.550;  -61.438; -134.010; -198.982
783.808; -134.736; -764.010; -776.983
784.065; -143.459; -745.009; -874.983
784.322;  -48.282;   25.991;  -86.984
784.580; -138.180; -915.009; -771.984
784.837;  -87.653; -392.009; -466.984
785.094; -131.226; -783.009; -762.985
785.352;  -67.075; -304.008; -404.985
785.609; -106.123; -934.008; -839.985
785.866;  -92.371; -345.008; -401.986
786.123;  -70.044; -639.008; -583.986
786.380; -100.117; -665.008; -604.987
786.637;  -41.065; -225.007; -380.987
786.895;  -21.138; -456.007; -543.987
787.152;  -33.787; -135.007; -267.988
787.409;  -55.960; -123.007; -225.988
787.666;  -89.833; -299.006; -378.988
787.923; -112.906; -616.006; -695.989
788.179;  -90.854; -551.006; -584.989
788.436; -104.027; -585.006; -585.990
788.693;  -31.050;  -92.006;  -87.990
788.950;  119.427; -125.005; -112.990
789.207;  205.853; -381.005; -372.991
789.464;  -47.170; -161.005; -301.991
789.720;  -18.668;  150.995;  110.009
789.977; -178.991;-1003.005; -671.992
790.234;  -28.064;   44.996;  -66.992
790.490; -145.437; -884.004;-1031.993
790.747;  -22.060;  -85.004;   22.007
791.004;  -31.984; -426.004; -348.993
791.260;  -73.432; -430.004; -560.994
791.517; -108.180; -843.003; -788.994
791.773;  -49.878; -379.003; -342.994
792.030; -107.626; -596.003; -660.995
792.286;  -95.499; -686.003; -636.995
792.543;  -18.122;  -74.002; -159.995
792.799;  -45.071; -584.002; -382.996
793.055; -154.319;-1179.002;-1210.996
793.312;  -95.692; -827.002; -816.997
793.568;  -51.640; -746.002; -599.997
793.824;    7.512; -226.001; -284.997
794.081;   16.189; -447.001; -508.998
794.337;   73.566; -664.001; -561.998
794.593; 1159.368; -319.001; -271.999
794.849; 6920.444; -746.001; -772.999
795.105;  389.221; -270.000; -261.999
795.361;    8.973; -490.000; -457.000
795.617;  -51.250; -875.000; -945.000
795.873;  -59.175; -360.000; -407.000
796.129;  -29.775; -368.000; -306.000
796.385;  -10.800; -124.000; -156.000
796.641;   65.125;  412.000;  550.000
796.897;  -78.025; -666.000; -635.000
797.153;   63.425;  453.000;  357.000
797.409;  -89.125; -785.000; -868.000
797.665;  -67.750; -625.000; -732.000
797.921;  -65.550; -775.000; -762.000
798.176;  -59.900; -744.000; -747.000
798.432;  -40.025; -824.000; -596.000
798.688;  -74.825;-1174.000;-1078.000
798.943;   82.900; -165.000; -147.000
799.199;   12.475;-1005.000; -959.000
799.455;  238.400;  369.000;  316.000
799.710;  152.975; -813.000; -380.000
799.966;  311.875; -162.000; -160.000
800.221;  479.200; -638.000; -721.000
800.477; 9793.275; -743.000; -710.000
800.732;10391.700; -773.000; -800.000
800.988;  674.375;  205.000;  -19.000
801.243; 1703.350; -454.000; -344.000
801.498; 8790.025; -814.000; -739.000
801.754;  558.000; -289.000; -163.000
802.009;   94.575; -257.000; -335.000
802.264;  -36.100; -967.000;-1033.000
802.520;   29.975;  222.000;   -3.000
802.775;  -46.125; -524.000; -359.000
803.030;   49.525;  395.000;  356.000
803.285;  -98.325; -840.000; -903.000
803.540;  -59.600; -686.000; -699.000
803.795;  -46.175; -648.000; -583.000
804.051;  -32.850; -279.000; -346.000
804.306;    5.425;  168.000;  128.000
804.561;  142.875;  451.000;  362.000
804.816;  125.700;  714.000;  861.000
805.071;   -1.850; -185.000; -280.000
805.325;  202.675; -257.000; -427.000
805.580; -105.325; -841.000; -877.000
805.835;  -12.150; -204.000; -297.000
806.090;  -63.625; -760.000; -676.000
806.345;  -24.025; -344.000; -264.000
806.600;  -19.900; -549.000; -632.000
806.854;  -17.975; -408.000; -538.000
807.109;    2.700; -493.000; -577.000
807.364;   19.925; -407.000; -328.000
807.618;   -8.700; -415.000; -381.000
807.873;   42.475; -470.000; -494.000
808.128;  104.000; -257.000; -518.000
808.382;  100.450; -224.000; -332.000
808.637;   81.050; -440.000; -511.000
808.891;  190.350; -257.000; -180.000
809.146;  104.750; -902.000; -794.000
809.400;  262.450; -848.000; -923.000
809.654;  324.450; -779.000; -551.000
809.909;  492.825; -841.000; -927.000
810.163; 5666.575; -813.000; -651.000
810.418;17737.750; -940.000; -861.000
810.672; 1141.250; -685.000; -690.000
810.926;  761.150; -993.000; -973.000
811.180; 1408.250; -439.000; -372.000
811.434;31692.500;  240.000;  135.000
811.689;15500.325; -231.000; -365.000
811.943;  753.300; -936.000; -953.000
812.197;  384.125; -893.000; -671.000
812.451;  142.850; -379.000; -514.000
812.705;    1.150; -809.000; -619.000
812.959;    4.525; -263.000; -388.000
813.213;   -6.500; -283.000; -209.000
813.467;   74.225;  470.000;  253.000
813.721;  -89.550; -764.000; -792.000
813.975; -102.700; -826.000; -877.000
814.229;   44.100;  430.000;  353.000
814.482;  -67.550; -517.000; -566.000
814.736; -114.275; -766.000; -744.000
814.990; -118.600; -779.000; -872.000
815.244;  -31.925; -228.000; -285.000
815.497;  -88.775; -636.000; -601.000
815.751;  -11.150; -141.000;   82.000
816.005;  -92.300; -470.000; -586.000
816.258;  -71.850; -510.000; -363.000
816.512;  -90.225; -693.000; -610.000
816.766;   -0.125;  121.000;  157.000
817.019;   20.100;  148.000;  149.000
817.273; -106.000;-1000.000; -802.000
817.526;  -31.700; -206.000; -173.000
817.779;  -63.800;-1049.000; -960.000
818.033;  -54.425; -693.000; -807.000
818.286; -118.675; -725.000; -792.000
818.540;  -89.500; -403.000; -403.000
818.793;  -66.775; -402.000; -489.000
819.046; -100.375; -582.000; -520.000
819.299;  -40.000; -157.000; -166.000
819.553; -102.500; -552.000; -592.000
819.806; -155.800;-1016.000; -838.000
820.059;  -68.750; -334.000; -354.000
820.312;   13.400;  152.000;  185.000
820.565;  -16.100;  110.000;  -27.000
820.818;  -47.600;  -59.000; -173.000
821.071; -158.450;-1041.000; -957.000
821.324; -109.175; -536.000; -540.000
821.577; -100.525; -457.000; -483.000
821.830;  -59.250; -270.000; -172.000
822.083; -126.325; -733.000; -288.000
822.336;  -51.450; -261.000; -167.000
822.589; -137.850; -805.000; -688.000
822.842; -138.100; -875.000; -770.000
823.094; -167.825;-1076.000;-1114.000
823.347; -129.625; -925.000; -729.000
823.600;   -2.575;  402.000;  187.000
823.853;  -50.550; -311.000; -267.000
824.105;  -58.200; -331.000; -575.000
824.358; -103.875; -617.000; -716.000
824.611;   28.150;  234.000;   40.000
824.863;  -52.075; -612.000; -591.000
825.116;   55.925;  -33.000;   27.000
825.368;   70.350; -366.000; -372.000
825.621;  153.200; -186.000; -240.000
825.873;   78.725; -704.000; -737.000
826.126;  519.950; -669.000; -641.000
826.378;11243.825; -389.000; -505.000
826.630; 3421.850; -890.000; -898.000
826.883;   64.050; -754.000; -693.000
827.135;   51.725; -279.000; -270.000
827.387; -114.375; -893.000; -839.000
827.639;  -27.000;  -86.000;   32.000
827.892; -112.350; -742.000; -582.000
828.144; -138.500; -848.000; -804.000
828.396;  -35.100;  104.000;  -80.000
828.648;  -91.625; -440.000; -333.000
828.900; -150.250; -702.000; -795.000
829.152; -124.325; -684.000; -683.000
829.404;  -68.350; -215.000; -267.000
829.656;   -3.175;  321.000;  214.000
829.908;  -22.025;  393.000;  229.000
830.160; -160.450;-1064.000;-1047.000
830.412; -102.150; -481.000; -430.000
830.664; -127.400; -557.000; -665.000
830.916;  -75.525; -268.000; -206.000
831.167; -176.575;-1073.000; -951.000
831.419; -108.575; -623.000; -566.000
831.671; -132.850; -764.000; -809.000
831.923;  -84.650; -311.000; -447.000
832.174;  -74.425; -273.000; -331.000
832.426; -112.125; -493.000; -582.000
832.678; -188.300;-1043.000;-1091.000
832.929; -164.400; -947.000; -935.000
833.181;  -61.700; -575.000; -677.000
833.432;  -44.400;  -59.000; -186.000
833.684;  -20.575;  112.000;  -27.000
833.935; -110.125; -610.000; -566.000
834.187; -127.575; -829.000; -823.000
834.438;  -58.975;  -58.000;  -25.000
834.689;  -67.075; -255.000; -123.000
834.941;  -68.750; -343.000; -244.000
835.192;  -91.375; -590.000; -533.000
835.443; -109.025; -419.000; -506.000
835.695;  -16.150;  138.000;  -16.000
835.946;  -92.650; -608.000; -378.000
836.197; -114.475; -599.000; -622.000
836.448;  -95.150; -528.000; -395.000
836.699;  -64.325; -253.000; -341.000
836.950;  -25.500;   72.000;    7.000
837.201; -140.925;-1003.000; -987.000
837.452;  -50.050; -356.000; -170.000
837.703; -108.850; -791.000; -737.000
837.954;  -28.350; -205.000; -365.000
838.205;  -86.000;-1029.000;-1008.000
838.456;  161.000; -196.000; -282.000
838.707;   17.775; -423.000; -519.000
838.958;    3.475; -634.000; -647.000
839.209;  260.775;   18.000;   40.000
839.460;  113.200; -439.000; -201.000
839.710;  157.125; -135.000; -297.000
839.961;  411.525;  730.000;  612.000
840.212;  334.600; -382.000; -497.000
840.462; 1042.600; -328.000; -277.000
840.713;16973.800; -571.000; -536.000
840.964; 8381.325;  -62.000; -143.000
841.214;  527.200; -384.000; -624.000
841.465;  560.750; -214.000; -141.000
841.715;  514.700; -417.000; -380.000
841.966;  624.225; -746.000; -685.000
842.216; 7542.025; -330.000; -431.000
842.466;34917.450; -169.000; -313.000
842.717; 2442.825; -964.000; -952.000
842.967;  314.000; -635.000; -641.000
843.217;  289.250;   20.000;   28.000
843.468;   75.650; -104.000; -132.000
843.718;  -40.300; -718.000; -726.000
843.968;  -90.775; -837.000; -765.000
844.218;    8.775; -315.000; -262.000
844.469;  -48.000; -577.000; -561.000
844.719; -102.525; -537.000; -682.000
844.969;  -96.100; -550.000; -580.000
845.219; -132.050; -814.000; -862.000
845.469;  -92.825; -392.000; -342.000
845.719; -132.300; -792.000; -884.000
845.969;  -16.050;  119.000;  174.000
846.219; -124.275; -738.000; -720.000
846.469;   26.000;  464.000;  432.000
846.718;  -54.250; -115.000;   31.000
846.968; -135.275; -827.000; -827.000
847.218;  -57.425; -224.000; -371.000
847.468; -107.300; -586.000; -555.000
847.718; -128.975; -827.000; -798.000
847.967; -109.275; -826.000; -915.000
848.217;  -90.300; -449.000; -569.000
848.467;  -59.300; -405.000; -376.000
848.716; -106.350; -708.000; -725.000
848.966;   -2.950; -372.000; -358.000
849.215;  -58.100; -428.000; -419.000
849.465;  -77.100; -785.000; -615.000
849.714; -136.875;-1132.000;-1150.000
849.964;  -59.025; -551.000; -613.000
850.213;  -26.750; -393.000; -355.000
850.463;   81.400;  137.000;  340.000
850.712;   10.550; -542.000; -567.000
850.961;   26.025; -739.000; -678.000
851.211;  112.500; -513.000; -504.000
851.460;  172.275; -635.000; -650.000
851.709;  544.950;  -25.000;   18.000
851.958; 9396.375; -912.000; -750.000
852.208;14206.000; -859.000; -879.000
852.457;  559.225; -181.000;  -13.000
852.706;   78.925; -791.000; -823.000
852.955;   45.925; -507.000; -528.000
853.204;  -74.100; -521.000; -461.000
853.453;  -79.975; -418.000; -458.000
853.702; -128.450; -660.000; -750.000
853.951;  -97.000; -532.000; -520.000
854.200; -110.075; -613.000; -562.000
854.449; -133.975; -695.000; -661.000
854.698;  -97.400; -340.000; -279.000
854.946;  -70.575; -181.000; -284.000
855.195; -148.475; -843.000; -868.000
855.444;  -93.750; -395.000; -420.000
855.693; -115.450; -345.000; -432.000
855.941; -116.650; -387.000; -516.000
856.190;  -62.725; -256.000; -382.000
856.439; -120.050; -652.000; -703.000
856.687;  -59.750;  -99.000;  -72.000
856.936; -123.300; -621.000; -323.000
857.184; -181.425;-1067.000;-1020.000
857.433;  -99.550; -423.000; -512.000
857.681; -147.325; -989.000; -953.000
857.930;  -83.850; -282.000; -433.000
858.178; -167.800; -856.000; -929.000
858.427; -136.700; -802.000; -781.000
858.675; -108.925; -377.000; -544.000
858.923; -118.425; -527.000; -819.000
859.172; -185.075;-1094.000;-1070.000
859.420;  -97.375; -339.000; -239.000
859.668; -127.650; -624.000; -628.000
859.916;  -33.950;  109.000;  115.000
860.164; -123.850; -699.000; -603.000
860.413;  222.225; -878.000; -696.000
860.661;  245.750; -709.000; -577.000
860.909;  -74.475; -339.000; -325.000
861.157;  -94.075; -277.000; -444.000
861.405; -122.000; -534.000; -670.000
861.653;    2.925;  310.000;  310.000
861.901;  146.625; -543.000; -613.000
862.149;    4.700; -801.000; -824.000
862.396;  -81.900; -297.000; -187.000
862.644;  -90.225; -368.000; -347.000
862.892;  -28.525;   98.000;  138.000
863.140; -122.425; -549.000; -530.000
863.388; -164.800; -815.000; -759.000
863.635; -134.500; -642.000; -601.000
863.883;  -19.400;  231.000;  190.000
864.131;  -96.675; -288.000; -357.000
864.378; -136.200; -675.000; -540.000
864.626;  -96.075; -347.000; -415.000
864.873; -126.825; -556.000; -505.000
865.121; -152.825; -714.000; -799.000
865.368;  -31.300; -173.000;   75.000
865.616;  -44.475;  -33.000;  -40.000
865.863;  -79.250; -462.000; -506.000
866.111;  -94.550; -795.000; -824.000
866.358;   35.200; -426.000; -420.000
866.605; 2186.850;  -64.000; -804.000
866.853; 2769.925; -621.000; -537.000
867.100;  -14.100; -728.000; -775.000
867.347;  -85.225; -672.000; -611.000
867.594;  -96.100; -740.000; -714.000
867.841;   77.550;   97.000;   17.000
868.089; -138.900; -746.000; -698.000
868.336; -112.750; -477.000; -420.000
868.583; -129.425; -637.000; -741.000
868.830;  -61.600; -131.000; -170.000
869.077; -163.475; -859.000; -787.000
869.324; -124.750; -502.000; -458.000
869.571; -116.825; -398.000; -430.000
869.818; -127.275; -485.000; -439.000
870.065; -112.275; -439.000; -513.000
870.311; -112.475; -456.000; -542.000
870.558; -101.875; -332.000; -311.000
870.805;  -93.200; -320.000; -384.000
871.052; -100.500; -494.000; -369.000
871.298;  -62.200; -204.000; -131.000
871.545;  -69.350; -151.000; -185.000
871.792;  -99.500; -173.000; -222.000
872.038;  -79.850;   43.000; -126.000
872.285; -132.400; -496.000; -387.000
872.532; -102.050; -357.000; -387.000
872.778;    0.000;  556.000;  403.000
873.025; -102.075; -384.000; -359.000
873.271;    2.875;  501.000;  578.000
873.517;  -32.075; -133.000; -209.000
873.764;  -37.275; -193.000;  -80.000
874.010;  -67.375; -143.000; -230.000
874.257;  -43.375;  123.000;   90.000
874.503; -134.625; -579.000; -479.000
874.749;  -73.850;   31.000;  275.000
874.995;  -80.275;  -80.000;  -20.000
875.242; -112.075; -540.000; -478.000
875.488; -115.775; -414.000; -439.000
875.734;  -50.275; -106.000; -234.000
875.980;  119.500; -872.000;-1032.000
876.226;  373.300; -157.000; -255.000
876.472;  -11.775;  343.000;  237.000
876.718;  -37.150;  184.000;  158.000
876.964;  -54.650;   56.000;   55.000
877.210; -141.175; -547.000; -677.000
877.456; -141.050; -630.000; -557.000
877.702; -169.975; -821.000; -832.000
877.948; -114.400; -377.000; -497.000
878.193;  -22.375;  361.000;  255.000
878.439;  -83.375; -487.000; -472.000
878.685;  -89.150; -272.000; -343.000
878.931; -142.425; -618.000; -676.000
879.176;  -93.975; -201.000; -201.000
879.422; -186.950; -933.000; -820.000
879.668;   26.375;   10.000;   79.000
879.913;  132.100;   53.000;  137.000
880.159;  -72.700; -112.000;  -17.000
880.404;  -59.850; -152.000; -162.000
880.650;  -52.075;   91.000;  141.000
880.895; -158.875; -670.000; -710.000
881.141; -128.125; -454.000; -428.000
881.386; -150.025; -503.000; -658.000
881.631;  -93.750; -311.000; -166.000
881.877;  -37.550;  112.000;  -13.000
882.122; -143.325; -684.000; -600.000
882.367;  -89.600; -136.000; -186.000
882.612;  -82.175;  -80.000; -176.000
882.858; -173.200; -877.000; -823.000
883.103; -104.500; -297.000; -267.000
883.348; -153.875; -759.000; -852.000
883.593; -144.650; -677.000; -602.000
883.838;  -66.800; -311.000;  -24.000
884.083;   19.475;  353.000;  288.000
884.328; -110.000; -564.000; -545.000
884.573;  -67.225; -196.000; -143.000
884.818;  148.350; -694.000; -531.000
885.063;  201.075; -348.000; -315.000
885.308;  -99.875; -475.000; -398.000
885.553;   -8.825;  245.000;  325.000
885.797; -130.625; -545.000; -615.000
886.042;  -76.050;    8.000;   58.000
886.287;  -98.825; -253.000; -211.000
886.532;  -51.950;   26.000;  204.000
886.776; -103.250; -407.000; -525.000
887.021; -140.700; -621.000; -574.000
887.265; -151.275; -685.000; -689.000
887.510; -119.675; -557.000; -496.000
887.755; -103.800; -194.000; -164.000
887.999; -130.150; -552.000; -575.000
888.244;  -68.075;  -58.000;  161.000
888.488;  -16.425;  371.000;  393.000
888.732; -130.400; -368.000; -520.000
888.977; -132.875; -622.000; -567.000
889.221; -146.050; -683.000; -659.000
889.465; -133.125; -422.000; -566.000
889.710;  -80.000;  -56.000; -299.000
889.954;   -3.400;  579.000;  467.000
890.198; -147.575; -584.000; -707.000
890.442; -147.350; -716.000; -712.000
890.687; -161.950; -800.000; -753.000
890.931;  -95.500; -273.000; -210.000
891.175; -136.400; -502.000; -500.000
891.419;  -88.850; -105.000; -110.000
891.663;  -96.300; -239.000; -112.000
891.907; -164.250; -801.000; -545.000
892.151; -182.850; -920.000; -815.000
892.395; -116.200; -274.000; -387.000
892.638;  -19.375;  408.000;  291.000
892.882; -178.650; -780.000; -867.000
893.126;   -2.600;  758.000;  558.000
893.370;  -88.000; -167.000; -168.000
893.614; -134.800; -714.000; -715.000
893.857; -114.950; -183.000; -197.000
894.101; -142.200; -527.000; -631.000
894.345;  -70.875;  300.000;  150.000
894.588;   16.675;  569.000;  380.000
894.832;  -90.850; -178.000;  -84.000
895.075;  -83.175;   15.000;  -92.000
895.319; -130.975; -552.000; -420.000
895.563; -114.650; -413.000; -353.000
895.806; -147.775; -628.000; -741.000
896.049;  -73.000; -576.000; -368.000
896.293;   78.400;  527.000;  405.000
896.536;  -68.250; -465.000; -468.000
896.779;  -65.375; -149.000;   -1.000
897.023; -137.350; -751.000; -714.000
897.266;  -33.075;  325.000;  269.000
897.509; -179.650; -900.000; -901.000
897.752;  -44.225;  149.000;  171.000
897.996; -190.525; -972.000; -864.000
898.239;  -56.475;  168.000;  102.000
898.482; -120.600; -431.000; -453.000
898.725;  -50.350;  101.000;   53.000
898.968; -156.450; -609.000; -744.000
899.211; -112.675; -513.000; -361.000
899.454; -129.250; -633.000; -539.000
899.697;  -76.050;   90.000;  -43.000
899.940; -167.975; -761.000; -757.000
900.182; -106.425; -335.000; -405.000
900.425;  -85.250; -150.000; -298.000
900.668;  -40.425;  491.000;  350.000
900.911; -106.600; -292.000; -345.000
901.154;  -48.075;  141.000;   -3.000
901.396; -143.975; -407.000; -412.000
901.639; -129.125; -430.000; -496.000
901.882; -184.175; -790.000; -809.000
902.124;  -93.550;  -29.000; -143.000
902.367; -115.850; -315.000; -361.000
902.609; -150.600; -476.000; -453.000
902.852;  -98.975; -108.000; -260.000
903.094; -129.900; -458.000; -337.000
903.337;  -59.950;  -26.000;   53.000
903.579; -107.700; -228.000; -441.000
903.821; -157.875; -597.000; -744.000
904.064;  -64.250;   85.000;  127.000
904.306;  -85.225; -126.000; -166.000
904.548; -106.200; -152.000; -366.000
904.790;  -97.400; -195.000; -340.000
905.033; -134.275; -625.000; -577.000
905.275; -133.400; -513.000; -524.000
905.517;   28.900;  468.000;  256.000
905.759;  -69.650; -667.000; -761.000
906.001; -111.575; -322.000; -369.000
906.243;  -75.625; -162.000; -224.000
906.485;   79.100; -265.000; -207.000
906.727;  104.700; -499.000; -542.000
906.969;  -38.650;  -30.000; -135.000
907.211;   87.550; -316.000; -382.000
907.453;  254.950; -188.000; -237.000
907.695;   19.275; -158.000; -385.000
907.936;   38.650;  818.000;  706.000
908.178;  -57.275;   92.000; -135.000
908.420;  -71.075; -111.000; -162.000
908.662; -134.450; -633.000; -682.000
908.903;  -72.300; -208.000; -123.000
909.145;  -72.625; -240.000; -305.000
909.386;   11.225;  315.000;  280.000
909.628;   37.275;  363.000;  397.000
909.870;    6.500;   29.000;  264.000
910.111; -102.750; -809.000; -949.000
910.353;   15.625; -123.000; -161.000
910.594;    7.650; -574.000; -606.000
910.835;   76.425; -265.000; -326.000
911.077;  164.175; -503.000; -604.000
911.318;  309.300; -505.000; -471.000
911.559;  488.775; -577.000; -880.000
911.801; 1324.525; -284.000; -280.000
912.042; 9617.675;  -50.000; -159.000
912.283;28674.300;  404.000;  371.000
912.524; 5318.900; -396.000; -457.000
912.765;  580.975; -193.000;   79.000
913.006;  264.775; -307.000; -338.000
913.247;   62.675; -270.000; -290.000
913.488;    5.025;  -43.000;   30.000
913.729;  -81.925; -373.000; -373.000
913.970;  -62.550;  -96.000; -292.000
914.211;  -75.400; -160.000; -198.000
914.452;  -71.400; -118.000;  -11.000
914.693;    1.800;  510.000;  592.000
914.934;    3.325;  510.000;  440.000
915.175;  -70.450;   53.000;  -95.000
915.415;  -83.275; -137.000;   27.000
915.656;  -76.175;  -28.000;  192.000
915.897;  -97.300; -252.000;  -82.000
916.137;  -73.650;   74.000;   -9.000
916.378; -127.300; -573.000; -517.000
916.619;  -80.875; -159.000;  -63.000
916.859;  -31.500;  303.000;  330.000
917.100;  112.975; 1655.000; 1070.000
917.340;   49.325;  930.000;  728.000
917.581;   35.300;  965.000;  789.000
917.821;  -47.325; -171.000;  143.000
918.061;    1.075; -199.000;  -72.000
918.302;  -51.875; -152.000; -211.000
918.542;  -37.800;  -22.000;    3.000
918.782;   43.800;  369.000;  377.000
919.023;  129.375;  360.000;  427.000
919.263; 1235.325; 8131.000;  202.000
919.503; 1147.800; -137.000;  -54.000
919.743;  615.625;  390.000;  266.000
919.983;  285.025; -134.000;  -26.000
920.223;   81.425;  135.000;   14.000
920.463;  156.825;  631.000;  554.000
920.703;  130.675;   84.000;   39.000
920.943;  169.125; -110.000;   90.000
921.183;  235.100; -414.000; -405.000
921.423;  516.050;  307.000;  546.000
921.663;  742.575; -174.000; -257.000
921.903; 1553.650;  237.000;  173.000
922.143; 8259.700;  372.000;  389.000
922.383;34094.100;  158.000;  115.000
922.622;13847.050; -120.000;  -15.000
922.862; 1405.225;  796.000;  785.000
923.102;  511.450;  -51.000;   33.000
923.341;  227.525;   59.000;   74.000
923.581;  105.075;  450.000;  360.000
923.821;   31.250;  301.000;  398.000
924.060;   10.925;  351.000;  193.000
924.300;  -55.225;  -16.000; -128.000
924.539;  -17.375;  584.000;  473.000
924.779;   15.325;  812.000;  597.000
925.018;  -52.650;  247.000;  353.000
925.257;    9.875;  595.000;  666.000
925.497;  -37.775;  447.000;  412.000
925.736;  -72.575;  -35.000;  102.000
925.975;  -14.300;  687.000;  669.000
926.214;   32.325;  907.000;  850.000
926.454;    9.175;  706.000;  757.000
926.693;  -31.600;  419.000;  543.000
926.932;   38.450; 1021.000;  825.000
927.171;   65.575; 1107.000; 1044.000
927.410;   61.250; 1144.000;  967.000
927.649;   19.400;  924.000;  742.000
927.888;  -24.050;  590.000;  564.000
928.127;   -4.500;  680.000;  678.000
928.366;   18.750;  842.000;  826.000
928.605;   35.300;  831.000;  737.000
928.844;  210.850; 1451.000; 1393.000
929.083;  579.275;  770.000;  613.000
929.321;  351.400; 1335.000; 1359.000
929.560;   85.375; 1158.000; 1122.000
929.799;  -23.525;  574.000;  475.000
930.038;   72.575; 1025.000; 1394.000
930.276;  -50.575;  334.000;  397.000
930.515;    1.675;  827.000;  681.000
930.753;  -17.100;  614.000;  589.000
930.992;   -0.700;  664.000;  717.000
931.230;   -3.325;  847.000;  847.000
931.469;  174.375; 2162.000;  892.000
931.707;   71.200;  840.000;  751.000
931.946;   43.925; 1278.000; 1344.000
932.184;   48.925; 1437.000; 1175.000
932.423;   42.225; 1265.000;  963.000
932.661;   90.650; 1296.000; 1428.000
932.899;   20.575;  987.000;  821.000
933.137;   12.225;  754.000;  564.000
933.376;  144.075; 1664.000; 1335.000
933.614;  158.550; 1759.000; 1196.000
933.852;   68.625; 1357.000; 1171.000
934.090;  131.750; 1722.000; 1747.000
934.328;  108.650; 1252.000; 1457.000
934.566;   81.550; 1431.000; 1110.000
934.804;  137.550; 1263.000; 1309.000
935.042;  459.300; 1861.000; 1850.000
935.280; 1814.900; 2088.000; 2063.000
935.518; 1982.850; 2113.000; 2007.000
935.756;  418.575; 2481.000; 2316.000
935.994;  171.225; 1808.000; 1751.000
936.231;  342.100; 2890.000; 2950.000
936.469;  206.350; 2367.000; 2378.000
936.707;  166.200; 2220.000; 2167.000
936.945;  209.700; 2825.000; 2882.000
937.182;  209.975; 2679.000; 2741.000
937.420;  305.000; 3602.000; 3031.000
937.657;  377.250; 3365.000; 3478.000
937.895;  375.575; 3331.000; 3488.000
938.133;  313.975; 3540.000; 3528.000
938.370;  327.300; 3896.000; 4191.000
938.607;  396.450; 4488.000; 4205.000
938.845;  551.625; 5587.000; 5549.000
939.082;  493.575; 5387.000; 5177.000
939.320;  530.075; 5799.000; 5728.000
939.557;  627.425; 6549.000; 6491.000
939.794;  720.925; 7285.000; 7097.000
940.031;  884.875; 8421.000; 8368.000
940.269; 1068.400; 9552.000; 9107.000
940.506; 1130.675;10901.000;10507.000

