
Integration time [ms]: 100.000
Averaging Nr. [scans]: 40
Smoothing Nr. [pixels]: 0
Data measured with spectrometer [name]: 2101013U2
Wave   ;Sample   ;Dark     ;Reference
[nm]   ;[counts] ;[counts] ;[counts] 

394.013;  -45.999; -450.257; -315.536
394.305;  -64.749; -461.258; -419.536
394.596;  -84.788; -676.269; -527.514
394.887;  -86.410; -796.268; -654.518
395.178;    4.494;  145.736;   11.476
395.470;  -31.355; -210.263; -356.526
395.761;   42.591;  305.734;  394.479
396.052;  -54.554; -545.284; -306.489
396.343;  -56.045; -557.276; -454.503
396.634;  -43.474; -200.279; -290.497
396.926;  -54.361; -618.268; -565.517
397.217;  -12.269;   11.725;  -17.504
397.508;  -26.742; -366.273; -154.507
397.799;  -83.799; -555.279; -571.497
398.090; -107.400; -973.280; -902.495
398.381;    4.461;   11.708;  -11.473
398.672;  -87.889; -585.292; -742.473
398.963;  -40.898; -348.279; -373.498
399.254;   -0.938;   54.709; -209.475
399.545; -111.184;-1017.266; -883.520
399.836;  -32.271; -407.277; -343.501
400.127;  -18.317; -205.295; -209.468
400.418;  -30.068; -423.274; -392.506
400.709;  -50.602; -359.281; -333.493
401.000;  -32.862; -268.291; -309.476
401.290;   10.724;  225.698;  115.545
401.581;  -17.307; -166.286; -228.485
401.872;  -64.346; -542.298; -486.462
402.163;  -29.668; -313.296; -252.467
402.454;  -14.788; -123.291; -163.475
402.744;  -91.145; -844.297; -813.465
403.035;  -29.715; -226.293;  -86.471
403.326;  -34.089; -366.292; -384.474
403.617;    6.053;  204.701;  165.539
403.907;  -70.879; -593.283; -679.490
404.198;  -86.357; -545.307; -599.446
404.489;  -73.578; -618.283; -588.491
404.779;  -81.800; -618.302; -660.456
405.070;    4.647;  -67.304; -174.451
405.360;  -35.815; -259.293; -238.472
405.651;   10.226;  125.699;   98.542
405.942;   10.918;  209.714;  127.516
406.232;  -61.980; -432.285; -413.487
406.523;   67.759;  641.706;  758.530
406.813;  -65.032; -579.286; -644.484
407.104;   16.261;  261.708;  144.527
407.394;  -86.772; -604.299; -591.462
407.685;    5.120;  336.715;  222.513
407.975;  -59.553; -400.283; -382.490
408.265;  -20.086; -134.289; -190.478
408.556;  -54.263; -472.291; -459.475
408.846;   61.459;  474.706;  429.530
409.137;   -6.110;   -1.288; -216.480
409.427;  -44.155; -193.285; -271.487
409.717;  -79.692; -776.273; -692.508
410.007;  -13.506;    4.715; -170.486
410.298;  -30.042; -360.295; -342.469
410.588;  -67.906; -495.285; -510.486
410.878; -105.508; -792.287; -873.482
411.168;  -65.771; -481.298; -478.463
411.459;  -27.354; -295.283; -242.489
411.749;  -76.388; -609.292; -507.474
412.039;  -83.085; -755.289; -386.480
412.329;   14.553;   40.722;  132.501
412.619;  -17.982;  -62.286; -148.485
412.909;   72.515;  639.711;  594.521
413.199;  -25.750; -130.280; -251.495
413.490;   45.238;  521.710;  352.523
413.780;  -97.974;-1013.279; -913.496
414.070;    2.755;  -46.276;  235.497
414.360;  -69.923; -729.278; -666.498
414.650; -101.834; -726.288; -688.482
414.940;  -57.874; -538.280; -441.496
415.230;    4.416;   50.712;   74.519
415.520;   19.237;  155.730;   66.486
415.809;  -31.652; -305.281; -125.493
416.099;  -27.521; -388.277; -229.501
416.389;   29.907;  435.726;  236.494
416.679;   11.096;   91.738;   85.473
416.969;  -64.358; -527.287; -503.483
417.259;  -54.899;  341.721;  171.503
417.549;   39.623;  522.718;  318.508
417.838;  -11.286; -205.268; -147.518
418.128;   57.914;  650.710;  492.522
418.418;  -54.266; -491.272; -579.509
418.708;    3.407;    9.726;  -48.506
418.997;  -53.544; -474.275; -480.505
419.287; -102.192; -733.273; -790.507
419.577;  -14.404; -160.283; -123.489
419.866;  -75.921; -588.277; -498.501
420.156;  -21.088; -242.270;  -55.513
420.446;  -23.380; -112.263;  -26.526
420.735;  -72.164; -376.271; -446.512
421.025;  232.252; 1830.722;  315.502
421.314;  -26.314; -203.271; -226.512
421.604;   12.863;   89.732;  233.484
421.893;  -82.590; -705.271; -602.511
422.183;  -71.805; -487.263; -461.526
422.472;  -22.890;  -36.271; -107.511
422.762;  -65.658; -416.266; -379.521
423.051; -110.670; -916.276; -916.503
423.341;  -69.017; -491.273; -439.507
423.630;  -10.932; -121.265;   15.477
423.919;   -0.694;   58.725;   49.495
424.209;  -13.630;  -31.263;   56.473
424.498;   -9.061;   68.732;  161.483
424.787;  -58.785; -535.267; -601.518
425.077;  -13.283;   34.735;   29.478
425.366;  -86.354; -734.262; -744.528
425.655;   65.783;  639.727;  259.493
425.945;  -23.862; -313.247; -268.554
426.234;   -6.651;  117.741;  300.467
426.523;  -42.325;  -86.259; -350.534
426.812;    8.666;  107.734;  159.480
427.101;  -19.987; -127.269; -323.515
427.390;  -18.088;  -55.270;  -86.514
427.680;  -58.348; -624.257; -411.538
427.969;  -55.396; -330.255; -301.540
428.258;  -62.374; -385.257; -477.536
428.547;   24.459;  449.728;  397.490
428.836;  -53.669; -421.253; -398.543
429.125;  -16.500; -199.259;  -72.534
429.414;  -34.166; -330.251; -294.548
429.703;  -51.791; -231.251; -213.548
429.992; -104.541; -938.250; -828.549
430.281;  -70.656; -397.264; -331.524
430.570;   -8.992;  -21.252;   32.454
430.859;   19.350;  279.741;  352.466
431.148;   68.888;  636.752;  631.446
431.437;   20.383;  391.748;  367.454
431.725;  -64.424; -544.257; -481.536
432.014; -110.143; -845.253; -756.545
432.303;  -33.552; -149.239; -105.569
432.592;  -53.981; -460.263; -178.525
432.881;  -73.137; -601.248; -437.554
433.169;  -30.471; -343.255;  -61.540
433.458;   33.977;  445.765;  540.424
433.747;  -76.428; -397.261; -289.529
434.036;  -65.081; -275.242; -280.564
434.324;  -72.889; -395.249; -379.551
434.613;    8.294;   40.757;  159.437
434.902;   14.771;  333.760;  439.433
435.190;   15.072;   75.761;  295.431
435.479;  -25.434;  -52.245;   83.441
435.767;  -65.758; -411.244; -427.561
436.056;  -66.381; -340.242; -294.563
436.345;  -53.853; -372.240; -223.568
436.633;    6.210;   60.750;  383.450
436.922;   38.147;  208.760;  414.432
437.210;  -51.749; -194.236;    1.426
437.499;  -71.673; -583.235; -432.576
437.787;  -52.374; -339.236;  -10.574
438.075;    1.623;   56.761;  162.430
438.364;  -23.027;  -44.238;  250.429
438.652;  -45.788; -286.226; -138.592
438.941;  -20.592;    3.770;  269.415
439.229;  -88.268; -665.252; -466.545
439.517;  -23.197; -160.234;  -85.577
439.806;  -78.661; -501.225; -290.595
440.094;   19.529;  377.766;  650.421
440.382;  -80.071; -653.233; -302.580
440.670;  -81.198; -361.235; -285.576
440.959;  -69.033; -347.223; -170.599
441.247;  -42.641; -151.229; -109.587
441.535;  -39.097; -266.235;   31.423
441.823;  -74.171; -497.234; -305.578
442.111;    0.635;  173.771;  327.412
442.400; -103.209; -628.245; -335.559
442.688;  -34.971; -111.234; -620.579
442.976; -130.897; -786.213; -450.617
443.264;  -84.160; -324.224; -364.597
443.552;  -50.587; -258.226;   51.408
443.840;   56.253;  602.765;  876.423
444.128;   17.279;  265.767;  269.420
444.416;  -92.865; -694.228; -312.588
444.704;  -62.029; -465.219;  -92.605
444.992;  -20.712;   -0.226;  240.407
445.280;  -71.817; -517.230;  -94.585
445.568;  -91.446; -694.212; -396.618
445.856;  -27.431; -174.221;  357.398
446.143;  -37.605;  -54.220;   -7.604
446.431;   -5.264;  -25.228;  625.411
446.719;   49.748;  489.783;  675.391
447.007;   34.582;  481.769;  705.416
447.295;   60.791;  597.777;  871.402
447.583;  -66.616; -464.229;  -34.587
447.870;  -80.582; -434.221; -202.601
448.158;  -29.517; -104.230;  129.415
448.446; -109.455; -800.219; -338.604
448.733;  -23.284;   13.776;  269.403
449.021;    5.129;   60.788;  341.382
449.309;  -44.819; -296.210;  208.379
449.596;   10.848;  128.783;   59.392
449.884;  -87.408; -571.222; -325.600
450.172; -101.564; -756.227; -406.590
450.459;   32.276;  645.786;  780.387
450.747;  -61.302; -411.218; -147.608
451.034;   39.361;  493.772;  889.411
451.322;  -72.923; -413.214; -170.614
451.609;   11.316;  292.777;  508.403
451.897;  -71.586; -550.203; -183.634
452.184; -110.009; -622.223; -400.598
452.472;  -25.616;   97.792;  269.375
452.759;   45.470;  512.781;  864.395
453.047;  -65.597; -407.212; -125.617
453.334; -100.079; -732.219; -216.606
453.621;  -81.173; -438.214; -161.615
453.909;  -10.162;   13.796;  384.368
454.196;  -44.581; -299.199; -123.641
454.483;  -13.159;  317.798;  540.364
454.771;  -32.966; -215.208;  196.374
455.058;  -61.216; -316.207;  102.374
455.345;   -3.824;   71.807;  344.347
455.632;  -38.940; -128.207;  235.373
455.919;  -21.678;  -82.196;  182.354
456.207; -119.330; -774.198; -450.642
456.494;  -72.133; -475.200;  -66.639
456.781;  -78.935; -399.202; -198.635
457.068;  -48.564; -253.206;  -29.628
457.355;  -99.089; -698.206; -401.629
457.642;  -79.013; -552.205; -290.630
457.929; -101.925; -778.194; -417.651
458.216;  -95.097; -575.212; -354.617
458.503;  -45.574; -173.193;  -19.652
458.790; -109.666; -864.208; -630.625
459.077;  -39.884;  -77.202;  110.364
459.364;  -66.951; -350.195; -210.649
459.651;  -18.615;  -46.206;  220.372
459.938; -107.068; -864.209; -665.623
460.225;  -11.984;  132.799;  276.363
460.512; -111.728; -836.197; -688.645
460.799;  -22.528;  -32.218;  320.392
461.086;  -65.307; -370.200; -251.640
461.372;  -88.230; -509.198; -279.642
461.659;  -17.178; -165.196;  108.354
461.946;  -69.824; -445.193;  -54.651
462.233;   82.768;  842.800;  888.361
462.519; -124.408; -814.201; -464.639
462.806;  -99.453; -768.197; -497.645
463.093;  -56.097; -445.191;  -66.656
463.380; -119.516; -920.186; -824.664
463.666;  -27.503; -259.197;  -18.646
463.953;  -52.176; -406.195; -243.648
464.239;  -67.326; -173.195;  -77.648
464.526;   40.000;  413.806;  743.350
464.813;  -96.120; -565.190; -304.658
465.099;   24.226;  606.807;  607.348
465.386;   67.001;  903.807;  921.348
465.672;  -99.678; -694.197; -522.645
465.959;  -84.743; -598.188; -520.662
466.245;  -77.274; -468.193; -359.652
466.532;  -35.027; -109.195;   63.352
466.818;  -57.216; -357.186; -216.664
467.104;  -99.736; -488.182; -415.672
467.391;  -83.220; -628.189; -459.658
467.677;  -52.041; -289.186;    9.335
467.964;  -84.369; -682.189; -471.660
468.250;  -60.165; -331.186; -160.665
468.536;  -12.645;   90.811;  180.341
468.822; -113.814; -821.184; -574.668
469.109;   50.450;  351.827;  471.311
469.395;   60.878;  729.808;  787.346
469.681;  -26.819;   46.811;  156.341
469.967;  -95.544; -699.188; -382.660
470.254;  -52.268; -494.188; -306.662
470.540;  -85.553; -601.196; -476.646
470.826;  -75.084; -488.181; -397.675
471.112;    5.662;  288.816;  113.331
471.398;  -24.038; -253.183;  -58.670
471.684;  -90.381; -626.177; -447.680
471.970; -124.084; -918.180; -981.675
472.256;  -81.323; -521.192; -441.654
472.542;  -75.899; -499.171; -434.691
472.828; -104.086; -743.182; -607.672
473.114;  -62.193; -380.166; -283.700
473.400;  -78.404; -504.175; -293.684
473.686;  -66.117; -452.166; -400.701
473.972;  -36.502; -230.174; -131.687
474.258; -110.100; -925.173; -843.689
474.544;  -30.782; -183.178;   -2.679
474.830;  -15.978;  -65.175;   45.316
475.116;  -47.445; -123.190; -196.658
475.401;  -65.684; -558.180; -467.676
475.687; -101.209; -725.180; -718.676
475.973;  -97.085; -673.181; -770.673
476.259;   50.147;  736.825;  764.315
476.544;  -74.530; -539.176; -437.682
476.830;  -73.049; -398.172; -322.690
477.116;  -45.130; -430.177; -336.682
477.401;   41.341;  346.820;  358.324
477.687;  -50.229; -289.175; -405.684
477.973;  -23.435;   21.819;   28.326
478.258;  -66.415; -448.163; -348.706
478.544;  -23.865;   21.815;   61.334
478.829; -103.748; -818.171; -738.692
479.115; -115.574; -749.172; -651.690
479.401;  -54.927; -444.174; -449.686
479.686;  -49.184; -253.180;  -74.676
479.972; -105.631; -886.178; -776.680
480.257;  -58.068; -258.166;  -65.700
480.542;  -71.773; -614.170; -469.693
480.828;  130.671; 1288.824; 1392.317
481.113;  -82.454; -464.176; -426.683
481.399;  -50.286; -236.161; -202.711
481.684;  -86.568; -620.166; -462.700
481.969;  -32.085; -158.159;  -73.713
482.255;  -58.171; -439.169; -285.695
482.540;  -87.806; -569.178; -441.680
482.825;  -73.117; -395.187; -404.663
483.110;  -33.096;  -85.169; -105.696
483.396; -100.682; -840.157; -652.718
483.681;   38.848;  543.826;  730.313
483.966; -107.185; -696.160; -700.712
484.251;  -64.477; -404.174; -310.687
484.536;  -77.742; -356.165; -378.703
484.822;  -60.751; -205.173; -218.687
485.107;  -85.527; -599.152; -502.726
485.392;   48.434;  662.836;  541.296
485.677;    5.756;  354.832;  163.302
485.962;   -0.182;  160.843;  270.283
486.247;   -9.863;  -14.162;   -8.707
486.532;  -58.718; -178.166; -325.701
486.817;   24.738;  381.839;  431.291
487.102; -100.554; -453.154; -514.722
487.387;  -89.932; -637.156; -652.718
487.672;  -41.740; -154.164;  -38.705
487.957;  -61.011; -394.160; -286.711
488.241;  -65.049; -290.150; -314.729
488.526;  -56.827; -280.152; -148.726
488.811; -134.906; -881.177; -818.680
489.096;  -96.404; -666.154; -702.723
489.381;   -7.227;    3.847;  162.275
489.666;  -57.911; -428.161; -510.710
489.950;   42.397;  558.846;  627.277
490.235;  -85.200; -480.151; -458.728
490.520; -110.887; -756.161; -723.710
490.804; -104.206; -827.156; -736.719
491.089;  -66.847; -469.149; -299.732
491.374;  -29.190; -132.164;  -75.704
491.658; -120.421; -817.147; -717.735
491.943;  -89.101; -657.152; -609.727
492.227;  -35.605; -178.155;  -38.721
492.512;  -56.007; -294.157; -341.717
492.797; -100.773; -713.149; -716.731
493.081;  -97.671; -588.147; -598.735
493.366; -103.111; -751.161; -635.711
493.650;   77.236;  831.859;  917.254
493.935;  -99.771; -648.147; -447.734
494.219; -108.090; -778.142; -687.743
494.503;  -98.024; -585.150; -487.730
494.788;  -13.258;   46.842;   74.285
495.072;    8.376;  184.850;  434.271
495.356;  -70.497; -463.148; -343.733
495.641; -117.845; -812.146; -736.736
495.925; -132.231; -976.156; -903.719
496.209;  -92.997; -599.149; -451.732
496.494;  -96.715; -763.142; -544.744
496.778;  -78.029; -364.154; -360.722
497.062; -107.656; -819.156; -627.719
497.346; -119.261; -869.160; -640.711
497.631;   38.753;  580.852;  560.266
497.915;  -38.818;  -64.145;  175.261
498.199;  -52.807; -341.157; -277.718
498.483;  -84.527; -562.152; -508.725
498.767;   15.426;  301.850;  300.271
499.051;  -38.023; -126.149; -100.732
499.335; -107.373; -693.149; -739.731
499.619;  -90.525; -381.129; -423.767
499.903;  -34.155; -272.155;  -65.721
500.187;  -77.103; -588.153; -316.724
500.471; -116.651; -796.152; -595.727
500.755;  -32.212;   62.839;  -96.710
501.039;  -65.130; -270.155; -357.721
501.323;  -18.813;  -21.141;  264.254
501.607;  -55.539; -447.163; -503.706
501.891;  -90.657; -607.156; -512.718
502.174; -101.792; -726.144; -585.741
502.458;   -8.651;   89.849;  370.273
502.742;  -37.260; -180.138; -191.751
503.026;  -54.946; -412.147; -254.734
503.310;  -72.460; -437.159; -375.713
503.593;  -78.821; -464.147; -325.735
503.877;  -52.555; -232.133; -156.760
504.161;  -41.578;    2.847;  -50.724
504.444;  -99.508; -841.158; -710.716
504.728; -110.290; -487.164; -522.704
505.012;  -32.500; -257.150;  -76.729
505.295;  -65.436; -417.161; -212.711
505.579;  -49.306; -256.156; -496.719
505.862;  -94.369; -555.145; -333.738
506.146; -105.484; -681.159; -758.714
506.429;   28.516;  568.841;  461.286
506.713;  -92.500; -732.151; -667.728
506.996;  -21.554;   90.846;  295.278
507.280;  -94.791; -633.165; -474.703
507.563;  -89.330; -469.155; -261.721
507.847;  -69.128; -423.153; -112.724
508.130;  -97.586; -665.161; -456.711
508.413; -100.443; -758.167; -577.700
508.697;  -31.943; -151.167;   12.300
508.980;  -59.628; -422.153; -312.724
509.263;  -88.905; -466.155; -450.720
509.547;  -37.600; -124.150;   82.271
509.830;  -46.161; -172.160;  140.289
510.113;    2.419;  128.844;  298.281
510.396;  -90.477; -530.152; -300.725
510.680; -129.769; -818.145; -812.738
510.963;  -10.653;  184.846;  180.277
511.246;  -81.224; -493.150; -357.730
511.529;  -79.918; -482.145;  -83.739
511.812;  -28.405; -250.134;   10.241
512.095; -103.325; -740.151; -396.728
512.378;  -55.345; -317.147; -245.736
512.661; -102.609; -703.137; -623.753
512.944; -107.165; -750.142; -637.744
513.227;  -56.259; -170.137; -171.752
513.510;  -73.692; -479.144; -671.741
513.793; -104.663; -485.140; -435.747
514.076;  -36.497;  -43.127;  -39.771
514.359;  -55.447; -294.149; -135.732
514.642;  -76.090; -442.142; -567.744
514.925;   29.012;  581.860;  561.253
515.208;  -71.831; -498.134; -443.758
515.491;  -50.354; -276.133; -182.761
515.773;  -78.616; -410.143; -337.742
516.056;    7.642;  249.864;  409.246
516.339; -108.658; -754.136; -652.755
516.622;  -91.174; -518.150; -488.730
516.904;   89.535;  882.857;  975.257
517.187;  -97.010; -730.138; -523.752
517.470;  -80.791; -568.143; -510.743
517.752;  -96.682; -624.136; -470.756
518.035;  -90.311; -708.139; -725.749
518.318; -134.333; -799.136; -744.755
518.600;  -73.553; -300.132; -325.762
518.883;   -2.690;  310.858;   88.256
519.165;  -75.986; -585.138; -426.751
519.448;  -34.053;  -61.132;  -19.762
519.730; -100.496; -573.126; -415.773
520.013;   38.171;  588.867;  664.240
520.295;  -39.530;  -94.134;  -15.759
520.578;  -67.277; -335.131; -305.764
520.860;  -20.253; -254.132;   56.238
521.143; -118.307; -763.135; -584.756
521.425;  -63.370; -251.125; -279.775
521.707;  -89.797; -622.127; -380.771
521.990;  -19.597; -199.127;  167.229
522.272;  -39.962; -116.140;   -4.748
522.554;  -63.591; -237.143; -157.742
522.836;  -48.830;  -24.134;   99.241
523.119;  -78.296; -496.148; -189.734
523.401;  -91.326; -448.130; -314.766
523.683; -113.359; -865.137; -693.753
523.965;  -26.510;  408.862;  260.248
524.247;  -23.867;   54.878;  170.220
524.529; -100.430; -451.134; -367.759
524.812;  -29.701;   -3.130;  191.234
525.094; -121.660; -773.138; -631.751
525.376;  -54.618; -143.124;   78.223
525.658;  -84.133; -441.136; -339.754
525.940; -126.602; -805.131; -671.764
526.222;  -58.133; -188.136;  -88.755
526.504;  -32.952; -190.131;   32.237
526.786; -143.205; -960.133; -647.760
527.068;  -65.293; -124.123;  -67.778
527.349; -125.509; -865.137; -774.754
527.631;  -27.879; -137.132;   22.238
527.913; -111.822; -664.127; -450.771
528.195; -122.221; -761.125; -639.774
528.477;  -55.656;  -93.134;  -30.758
528.759;  -98.601; -648.130; -522.766
529.040;  -98.293; -569.123; -293.778
529.322;  -60.545; -235.125;  -10.774
529.604;  -39.625;  -47.130;   93.233
529.886;  -91.046; -546.126; -302.773
530.167;  -19.451;  232.870;  192.235
530.449;  -38.645;    1.853;   63.265
530.731; -101.342; -572.122; -459.779
531.012;  -80.414; -513.120; -216.784
531.294;  -68.884; -118.116;  -43.792
531.575;   25.780;  290.875;  538.225
531.857; -108.256; -548.135; -266.757
532.138;  -45.338; -113.141;   40.254
532.420;  -12.532;  294.865;  403.244
532.701; -126.404; -722.133; -751.760
532.983;  -12.979;  232.867;  182.239
533.264;  -38.597; -243.126;  175.228
533.546;  -92.133; -491.136; -508.755
533.827;  -28.755;  173.867;   -1.759
534.109;  -94.456; -352.135;  -80.757
534.390;  -99.003; -725.132; -582.762
534.671;  -68.107; -270.135;  -82.756
534.953; -119.293; -751.123; -611.779
535.234;  -83.786; -426.117; -255.789
535.515; -136.313; -891.119; -735.785
535.796;  -73.848; -431.128; -193.770
536.078; -144.369;-1050.124; -904.777
536.359;  -50.467;  -22.123;    3.221
536.640;  -85.970; -480.125; -197.774
536.921;  -16.125;  225.871;  143.232
537.202;  -42.460;  -87.138;  -16.751
537.483;   -4.552;  251.869;  377.236
537.764;  -23.851;   17.870;   98.235
538.045; -106.206; -543.134; -371.758
538.326;  -99.599; -596.129; -447.768
538.607; -123.422; -686.127; -476.771
538.888;  -50.965;   98.879;    5.218
539.169; -117.366; -704.122; -535.781
539.450;  -11.400;  236.871;   16.233
539.731;  -69.690; -361.121; -182.783
540.012;  -21.489;  199.880;  412.216
540.293;  -32.719;   82.876;  158.224
540.574; -127.931; -895.113; -717.796
540.855;   -3.365;  435.879;  377.218
541.136;  -12.567;   47.878;  139.220
541.416;  -77.626; -161.130; -220.766
541.697;  -79.752; -274.131; -170.763
541.978;  -80.232; -270.135; -315.757
542.259;  -69.547; -211.127; -236.771
542.539;  -82.060; -191.116; -186.790
542.820;    6.955;  461.875;  480.225
543.101;  -68.743;  -52.145;  -77.738
543.381; -121.297; -638.127; -591.771
543.662;  -33.648;  159.873; -254.771
543.942; -142.698; -751.127; -830.770
544.223;  -34.216;  193.878;  161.219
544.504;  -78.219; -275.124; -182.777
544.784; -103.446; -592.126; -408.773
545.065;  -69.634;  104.884; -254.791
545.345;  -35.088;  227.881;   14.215
545.626;  -48.031;  -14.113; -108.796
545.906;  -40.001;   77.869;   98.235
546.186;  -58.296;   92.874;  -95.773
546.467;  -57.193;   99.877;  -95.778
546.747;    4.040;  264.884;  327.210
547.027;  -21.294;   91.876;  111.223
547.308;  -96.473; -376.127; -530.770
547.588;  -18.899;  299.871;  371.232
547.868;   28.199;  458.870;  588.235
548.149;   28.292;  609.885;  593.207
548.429;  -62.247; -347.127; -299.771
548.709; -110.239; -645.120; -461.784
548.989;  -25.737;   84.882;   88.213
549.269;  -44.404;   10.868;  139.239
549.550;  -26.143;  215.877;  117.222
549.830; -127.204; -758.111; -556.799
550.110;  -88.278; -468.110; -320.801
550.390;  -66.992; -128.122;  -56.779
550.670; -143.082; -868.114; -783.795
550.950; -123.765; -509.121; -471.782
551.230;   51.959;  549.879;  460.218
551.510; -100.990; -381.121; -326.782
551.790;  -55.902; -173.109; -127.803
552.070;   82.132;  940.877; 1181.223
552.350;  -73.163; -492.119; -377.786
552.630;  -31.366;   -2.121;   77.219
552.909;  -29.984;  181.884;   73.209
553.189;  -54.578;  -49.132;   33.237
553.469; -105.838; -703.119; -514.786
553.749;  -98.897; -469.127; -357.772
554.029;  -30.161;   33.883;  -24.790
554.308;  -63.858; -154.115;  -37.794
554.588;  -67.523; -196.128; -204.770
554.868;  -86.115; -366.121;  -47.782
555.147;  -38.583; -114.115;  -46.793
555.427;  -82.909; -260.116; -250.792
555.707;  -51.859; -284.115; -200.793
555.986; -128.729; -719.111; -538.800
556.266;  -42.660;   23.884;   72.210
556.546; -139.165; -888.121; -675.782
556.825; -123.882; -657.114; -556.794
557.105;  -56.348; -125.128;   17.230
557.384;  -29.210;  122.884;  187.209
557.664; -134.859; -717.116; -508.792
557.943;  -95.165; -557.121; -411.782
558.222;  -72.236; -345.118; -344.788
558.502;  -48.733; -116.115;  -76.793
558.781;   -9.309;  194.885;  499.208
559.061;  -61.887; -232.118; -227.788
559.340;  -11.011;  302.883;  353.211
559.619;  -27.535;   93.884;  148.210
559.899;  -87.361; -239.117; -266.789
560.178; -116.408; -778.115; -593.793
560.457; -127.185; -623.117; -562.790
560.736; -105.878; -472.111; -482.800
561.015; -104.524; -500.128; -502.769
561.295;  -29.574;  180.893;  215.193
561.574;  -19.508;  119.885;  116.207
561.853;  -18.102;  274.891;  303.197
562.132;  -52.258;  -45.114;  182.206
562.411;   20.384;  396.879;  553.219
562.690; -122.859; -592.115; -458.792
562.969;   29.794;  472.888;  630.203
563.248;  313.359; 2966.878; 2487.219
563.527;  -65.454; -290.111; -408.800
563.806; -124.097; -650.127; -521.771
564.085;  -58.122; -297.105; -206.810
564.364; -118.235; -594.117; -405.790
564.643;  -79.541; -276.121; -223.781
564.922;  -23.302;  221.890;  397.198
565.201; -120.252; -640.109; -700.803
565.479;  -84.984; -297.115; -219.792
565.758; -135.398; -810.128; -712.770
566.037;  -70.277; -155.109; -100.803
566.316;  -62.659; -286.116;  -28.791
566.595;  -47.009;  -17.115;  -12.793
566.873;   28.372; -166.111;  -79.801
567.152; -106.656; -490.113; -590.797
567.431;  -49.260; -113.116;    6.210
567.709;  -71.174; -344.107; -212.807
567.988; -138.857; -810.114; -769.794
568.266;  -78.834; -160.115;  -68.793
568.545; -122.491; -644.100; -514.819
568.824;   -0.209;  160.885;  356.208
569.102;  -87.857; -351.114; -235.794
569.381;  -98.284; -492.116; -407.792
569.659; -102.606; -553.113; -553.796
569.938; -124.691; -743.122; -465.780
570.216;  -59.751; -225.109; -225.804
570.494; -131.532; -632.114; -572.795
570.773;   -5.515;  202.879;  114.218
571.051;  -92.193; -373.123; -357.778
571.330;  -57.531; -221.113; -174.796
571.608;  -69.489; -181.098; -173.823
571.886; -132.429; -671.111; -581.799
572.164; -130.090; -739.121; -621.782
572.443; -101.472; -562.105; -512.811
572.721;  -86.785; -399.117; -289.790
572.999;  -80.111; -280.117; -168.788
573.277;    1.802;  379.894;  620.191
573.555;  -44.848;   94.894;   37.190
573.834;  -65.261;  -86.117; -114.788
574.112;   50.901;  880.893;  811.193
574.390;  -50.978; -143.111;  -96.801
574.668;  -46.680;  -91.112;  -61.797
574.946;  -74.498; -165.106; -187.810
575.224;  -47.827;   71.891;  -16.803
575.502;  -78.485; -200.116; -204.791
575.780; -132.755; -767.112; -829.798
576.058;   69.971; 1589.889; 1004.200
576.336;  -59.378; -210.110; -129.801
576.614; -107.030; -511.112; -340.798
576.891; -124.433; -711.115; -823.794
577.169;  -79.975; -158.108; -285.805
577.447;  -14.699;  169.893;  202.193
577.725;   45.995;  629.888;  854.201
578.003;  -71.255;  -71.112; -371.798
578.280;  -77.296; -208.104; -242.812
578.558; -112.583; -450.115; -422.793
578.836;  -72.807; -210.114; -145.795
579.114; -118.980; -630.112; -670.797
579.391;  -51.136;   -6.117;  -18.789
579.669; -105.333; -595.114; -704.794
579.947;  -63.150; -326.107; -127.806
580.224; -118.200; -692.107; -524.806
580.502;  -40.574;  127.893;   76.193
580.779;  -43.335;  -42.117;   75.210
581.057; -103.401; -584.109; -470.804
581.334; -127.244; -726.102; -695.815
581.612;  -16.447;   54.895;  511.190
581.889;  -65.192;  -83.101; -129.818
582.167;  -87.540; -298.099; -190.821
582.444; -124.043; -845.102; -814.817
582.721;   23.582;  657.899;  715.183
582.999;  -66.791; -326.100; -167.821
583.276; -136.817; -812.123; -713.779
583.553;  -81.268; -364.102; -294.816
583.831; -132.671; -607.104; -631.812
584.108;   -7.276;  349.892;  174.195
584.385;  -75.844; -122.102;  -98.815
584.662; -121.478; -651.111; -828.801
584.940;  -25.853;  204.889;  204.199
585.217;  -74.681;  -73.113; -303.796
585.494;  -26.702;   71.890;  118.198
585.771;  -70.576; -250.109; -354.804
586.048;  -54.931; -196.113;  -76.796
586.325; -119.578; -721.110; -773.801
586.602;  -28.046;  230.896;  213.188
586.879; -100.516; -499.100; -580.820
587.156;  -60.897; -156.105; -331.810
587.433; -133.018; -701.102; -667.817
587.710;  -46.930;  152.888;  234.202
587.987;  -72.797; -264.105; -236.811
588.264;   -5.705;  315.888;  387.202
588.541;  -39.095;  -61.104;   26.187
588.818;  -41.576;   72.892;  171.196
589.095;  -66.796; -163.104; -174.812
589.371; -123.701; -459.109; -414.804
589.648; -105.099; -581.107; -437.807
589.925; -111.082; -517.114; -621.795
590.202; -120.430; -741.112; -607.798
590.478;  -55.771; -166.105;  -73.811
590.755;  -65.500; -241.108; -132.806
591.032; -125.578; -741.110; -699.802
591.308; -136.859; -732.094; -790.831
591.585; -118.378; -573.110; -560.802
591.862; -151.318;-1056.102; -950.817
592.138; -111.300; -475.108; -474.805
592.415; -102.521; -486.104; -495.813
592.691;    8.179;  460.896;  518.188
592.968;  -82.139; -208.098; -123.824
593.244; -120.985; -695.116; -595.790
593.521;  -61.218; -105.102;  -42.817
593.797; -142.617; -810.122; -720.780
594.074; -122.737; -611.096; -588.826
594.350;   39.690;  828.905;  729.172
594.626;  -67.478; -303.111; -283.801
594.903; -120.318; -643.101; -645.817
595.179;   -7.245;  243.896;  418.187
595.455;  -66.449; -136.107; -150.807
595.731;  -60.320;  -19.103;  -38.814
596.008;  -98.629; -464.111; -434.800
596.284;  -78.716; -187.100; -242.820
596.560; -111.808; -501.093; -493.833
596.836;  -69.372; -173.105;  -70.810
597.112; -119.650; -582.108; -437.805
597.388;  -55.587;  -49.097;  -48.826
597.665;   12.319;  437.887;  530.203
597.941; -119.029; -572.089; -658.839
598.217;  -82.427; -323.110; -293.802
598.493;  -67.301;   61.891; -204.804
598.769;  -66.991; -175.100;  -50.819
599.045; -125.100; -490.108; -562.806
599.321;  -81.091; -193.100; -261.820
599.597;  -85.651; -355.109; -476.804
599.872;   -5.595;  409.896;  429.187
600.148;  -51.462;  -61.097; -172.826
600.424;  -40.299;   91.893;  202.193
600.700;  -55.174; -170.107; -280.807
600.976; -112.413; -442.097; -464.825
601.252;  -72.927; -226.109; -272.803
601.527; -156.820; -833.104; -840.813
601.803;  -87.746; -453.105; -404.812
602.079;  -64.516; -124.100; -118.819
602.354; -106.606; -620.092; -531.835
602.630;  -74.806; -140.113; -482.796
602.906; -139.342; -910.101; -863.818
603.181; -116.938; -627.119; -534.786
603.457;  -48.812;   98.903; -278.826
603.733; -107.115; -605.120; -626.783
604.008;  -55.547; -245.106; -164.810
604.284;  -61.618; -636.101; -580.817
604.559;  -48.830;   -3.112;  -42.799
604.835;  -79.347; -163.105; -225.810
605.110; -126.065; -732.099; -892.821
605.385;   -5.832;  224.907;  267.167
605.661; -129.035; -625.095; -729.829
605.936; -140.200; -664.108; -737.806
606.211;  -47.769;  -17.103; -170.815
606.487;  -91.058; -329.114; -376.794
606.762; -130.688; -791.119; -745.786
607.037;  -93.947; -501.105; -433.810
607.313; -112.261; -589.096; -574.828
607.588;  -68.347; -375.106; -137.810
607.863;  -41.967;  -28.101; -143.818
608.138;    8.498;  513.890;  516.198
608.413; -109.790; -576.099; -592.822
608.688;  -88.150; -203.108; -267.805
608.964;  -80.073; -509.106; -218.809
609.239;  -65.697; -107.105; -212.810
609.514;   -2.321;  281.895;  240.188
609.789; -139.946; -187.104; -716.812
610.064; -101.511; -435.096; -609.827
610.339; -152.951; -855.109; -799.804
610.614;  -74.816; -131.100; -315.820
610.889;  -34.096;  215.895;  107.188
611.163; -102.796; -407.104; -591.812
611.438;  -87.032;   81.886; -167.794
611.713; -105.593; -467.101; -499.817
611.988;  -76.567; -144.101; -328.818
612.263; -140.019; -771.102; -717.815
612.538;    2.794;  385.887;  251.204
612.812; -139.916; -832.100; -911.820
613.087;  -73.964; -358.098; -338.823
613.362;  -97.874; -497.107; -557.807
613.637;  -21.570;  261.897;  138.186
613.911;  -76.056; -256.092; -345.835
614.186;  -86.624; -249.107; -292.807
614.460; -144.669; -842.081; -758.854
614.735;  -48.201;  -55.087;  -17.843
615.010;  -43.702;   43.912;  -82.841
615.284;   -7.950;  360.892;  246.195
615.559; -144.457; -792.092; -955.835
615.833;  -55.165;  -76.099;  -87.822
616.108;  -76.605; -225.090; -390.837
616.382;   -4.351;  274.913;  402.156
616.656;  -66.955; -241.090; -232.837
616.931; -141.365; -785.099; -700.822
617.205; -158.845; -973.104; -979.813
617.480;  -63.420;  -91.125;    6.225
617.754;  -82.920; -396.125; -128.774
618.028;  -97.099; -369.129; -382.768
618.302;  -32.851;   73.892;  -25.805
618.577; -111.544; -371.103; -518.815
618.851; -105.002; -399.109; -600.803
619.125; -104.580; -335.134; -378.759
619.399;  -68.570; -244.104; -374.813
619.673;  -94.209; -330.115; -515.792
619.947;  -93.357; -333.114; -448.795
620.222;  -75.253; -198.110; -204.801
620.496;  -65.990;  -47.121;  -96.782
620.770;  -75.066; -187.122;  -93.781
621.044;   -2.347;  323.895;  346.190
621.318; -124.615; -653.120; -614.783
621.592;  -80.015; -430.121; -409.783
621.866; -114.205; -476.112; -572.799
622.140;  -60.985; -207.116; -356.791
622.413;  -23.454;  138.889;  112.200
622.687; -107.093; -746.101; -492.817
622.961;  -67.101; -130.108; -143.805
623.235; -125.529; -633.111; -661.800
623.509; -149.321; -816.105; -848.811
623.783;  -22.525;  -12.107;   48.193
624.056;  -71.190; -254.120; -280.783
624.330;  -16.405;   63.888;   -3.797
624.604;  -73.760; -271.116; -355.790
624.877;  -34.828;  180.890;   26.198
625.151;  -85.108; -249.114; -238.794
625.425;  -64.370; -150.103; -283.814
625.698;  -98.763; -367.119; -374.785
625.972; -133.652; -799.110; -765.802
626.245;   15.315;  685.884;  484.210
626.519;  -84.739; -426.120; -340.784
626.792;  -86.199; -192.107; -380.807
627.066; -110.667; -485.122; -662.779
627.339; -150.028; -736.110; -663.802
627.613;    1.636;  351.880;  148.216
627.886;  -31.952;  187.891; -612.803
628.160;  -64.190;  312.880; -161.783
628.433; -136.970; -695.125; -703.775
628.706; -115.414; -517.120; -615.784
628.979;  -36.994;  296.876;  117.223
629.253; -150.338; -785.119; -833.786
629.526;  -82.997; -334.126; -253.772
629.799; -106.343; -641.123; -479.778
630.072; -104.024; -497.128; -516.769
630.346; -173.385;-1115.116;-1080.790
630.619; -112.274; -467.107; -545.808
630.892;   27.896;  709.889;  593.200
631.165;   37.855;  790.896;  679.187
631.438; -169.830;-1092.112;-1055.798
631.711;  -10.692;  453.877;  257.221
631.984;  -92.761; -523.117; -624.789
632.257; -124.811; -636.117; -681.789
632.530;  -80.588; -412.119; -433.785
632.803;  -27.108; -109.115;    7.207
633.076;  -90.793; -360.123; -422.777
633.349;  -39.223;  173.872;  121.231
633.622;  -68.113; -187.119; -240.785
633.895; -168.915; -903.120; -823.783
634.167;  -90.171; -496.126; -525.773
634.440;  -48.209;  -19.116; -137.792
634.713;  -30.863;  -22.119; -120.786
634.986;   11.975;  593.871;  453.233
635.258; -114.433; -507.115; -597.793
635.531;   28.563;  742.882; -343.788
635.804;  -91.511; -303.117; -318.789
636.077; -145.735; -830.116; -852.791
636.349; -117.808; -586.115; -474.793
636.622;  170.278; 1695.874; 1392.228
636.894;  -98.214; -474.120; -909.784
637.167; -148.248; -836.127; -789.771
637.439;  -61.223; -278.128; -213.770
637.712;  -79.447; -312.126; -293.772
637.984; -125.460; -635.116; -707.791
638.257;   23.207;  515.877;  488.222
638.529; -139.669; -881.125; -924.776
638.802;  -99.974; -508.128; -449.769
639.074; -164.741; -927.122; -952.781
639.346; -165.256; -942.135; -930.757
639.619;  -45.540;  -79.142; -319.744
639.891;  -61.842;  -83.122; -168.779
640.163; -124.117; -689.122; -756.780
640.435;  -42.917;  273.878;  103.220
640.708;  -49.016;  -72.122; -132.780
640.980;  -97.316; -366.122; -362.781
641.252;  -47.041;  -25.121;  -71.781
641.524;   21.859;  580.879;  573.219
641.796; -147.665;-1094.121; -907.782
642.068;  -87.215; -191.121; -300.782
642.340; -107.690; -486.121; -566.783
642.613;  -10.465;  294.880;  323.217
642.885; -147.989; -787.120; -878.783
643.157; -139.539; -810.120; -658.784
643.428;   -8.714;  170.880;  218.216
643.700; -107.139; -498.120; -425.784
643.972;  -71.339;  -16.119; -133.785
644.244; -127.088; -474.119; -559.785
644.516;  -78.288; -250.119; -114.786
644.788;   21.137;  662.881;  548.214
645.060;  -43.963;  -12.119; -124.786
645.332; -109.737; -525.118; -535.787
645.603;   14.088;  479.882;  342.213
645.875;  -99.612; -334.118; -369.787
646.147;  116.013; 1487.882; 1242.212
646.418; -161.961; -931.117; -918.788
646.690; -131.036; -714.117; -715.789
646.962; -101.861; -413.117; -451.789
647.233;  -31.336;   15.883;   11.211
647.505; -115.185; -595.117; -475.790
647.776;    1.040;  328.884;  229.210
648.048;  -83.935; -248.116; -418.790
648.320; -130.060; -752.116; -679.791
648.591; -163.409;-1055.116; -958.791
648.862;  -91.734; -505.116; -577.792
649.134;  -17.109;  115.885;  198.208
649.405; -119.159; -661.115; -618.792
649.677; -121.358; -475.115; -598.793
649.948;  -79.808; -181.115; -296.793
650.219;  -46.733;  -37.115; -147.793
650.491;  -86.058; -431.114; -520.794
650.762; -136.032; -705.114; -731.794
651.033;  -97.082; -437.114; -424.795
651.304; -147.657; -743.114; -728.795
651.576; -126.107; -680.114; -645.795
651.847;  -70.707; -250.113; -140.796
652.118;  -51.356;  -32.113; -189.796
652.389; -127.506; -639.113; -722.796
652.660;  -52.481; -147.113;  -89.797
652.931; -158.981; -897.112; -871.797
653.202; -104.780; -382.112; -541.798
653.473; -128.855; -633.112; -533.798
653.744; -111.105; -595.112; -590.798
654.015; -104.905; -356.112; -303.799
654.286; -123.429; -642.111; -663.799
654.557; -108.554; -586.111; -521.799
654.828; -180.054;-1114.111;-1088.800
655.099;  -83.004; -404.111; -291.800
655.370;  -94.753; -427.111; -543.801
655.641; -137.728; -656.110; -714.801
655.911; -107.253; -618.110; -638.801
656.182;   -4.028;  437.890;  387.198
656.453;   41.098;  830.890;  746.198
656.724; -103.527; -466.110; -426.802
656.994; -108.052; -553.109; -568.803
657.265; -145.002; -862.109; -873.803
657.536; -111.476; -500.109; -377.804
657.806; -132.126; -561.109; -593.804
658.077; -123.851; -866.109; -950.804
658.347; -110.201; -523.108; -598.805
658.618; -120.075; -646.108; -694.805
658.888;  -42.975;  -41.108;  112.195
659.159; -100.525; -432.108; -548.806
659.429;  -87.225; -292.108; -349.806
659.700;  -89.725; -435.107; -390.807
659.970; -103.274; -370.107; -359.807
660.241; -149.524; -754.107; -921.807
660.511;  -61.399; -147.107; -174.808
660.781; -108.749; -793.106; -748.808
661.052;  -79.923; -222.106; -381.808
661.322;  -49.348;   21.894;   -9.809
661.592;  -16.073;  257.894;  148.191
661.862;  -94.848; -369.106; -382.810
662.133; -121.522; -551.105; -502.810
662.403; -126.422; -770.105; -676.810
662.673;  -84.022; -256.105; -213.811
662.943; -117.672; -612.105; -551.811
663.213;  -70.846;  -85.105;  -81.811
663.483; -108.846; -593.104; -568.812
663.753;  -76.671; -194.104; -152.812
664.023;  -37.496;   68.896;  -32.813
664.293;  -84.720; -319.104; -126.813
664.563; -118.645; -694.104; -648.813
664.833; -137.320; -743.103; -608.814
665.103; -151.320; -730.103; -793.814
665.373; -143.894; -766.103; -806.814
665.643; -156.344; -863.103; -918.815
665.913; -115.844; -534.103; -714.815
666.182; -123.944; -685.102; -719.816
666.452;  -72.918;  -22.102;  -89.816
666.722; -138.268; -724.102; -784.816
666.992; -174.893; -948.102; -921.817
667.261; -144.993; -824.102; -808.817
667.531;  -44.168;  134.899;   45.183
667.801;  -89.967; -440.101; -412.818
668.070;   51.633;  714.899;  697.182
668.340; -150.892; -883.101; -840.819
668.609;    5.183;  588.900;  301.181
668.879; -130.741; -490.100; -558.819
669.149; -113.766; -539.100; -516.820
669.418; -120.566; -698.100; -726.820
669.688; -129.991; -482.100; -666.820
669.957; -102.840; -423.099; -546.821
670.226;  -84.365; -268.099; -331.821
670.496; -117.365; -431.099; -635.822
670.765; -100.115; -418.099; -501.822
671.034; -151.339; -872.099; -828.822
671.304;  -54.039;   55.902; -111.823
671.573; -176.414;-1085.098; -957.823
671.842; -100.564; -380.098; -294.823
672.112; -115.938; -692.098; -586.824
672.381;  -79.963; -239.098; -214.824
672.650; -158.313;-1005.097;-1021.825
672.919; -126.738; -631.097; -507.825
673.188; -114.712; -681.097; -878.825
673.457; -197.237;-1101.097;-1143.826
673.726; -117.312; -579.096; -646.826
673.995; -108.362; -533.096; -479.826
674.265;  -87.411; -263.096; -333.827
674.534;  -67.686; -183.096; -235.827
674.802; -104.311; -618.096; -703.828
675.071; -149.311; -886.095; -801.828
675.340; -105.236; -464.095; -339.828
675.609;  -50.485;  103.905;   82.171
675.878; -149.560; -949.095; -893.829
676.147;  -66.385;  -26.095;   -8.829
676.416;  -76.110; -210.094; -294.830
676.685;   66.891; 1000.906; -622.830
676.953; -100.609; -603.094; -452.831
677.222;  -84.009; -193.094; -273.831
677.491;  -49.934;  -24.094; -127.831
677.759;  -58.458;   11.907;  172.168
678.028;  -76.233; -279.093; -222.832
678.297;  -51.983;   71.907;  197.168
678.565; -153.533; -898.093; -944.833
678.834;  -97.982; -311.093; -268.833
679.102; -101.282; -411.092; -391.834
679.371; -160.157; -898.092; -727.834
679.639; -144.057; -797.092; -786.834
679.908; -144.631; -794.092; -724.835
680.176; -153.356; -895.091; -941.835
680.445; -106.956; -346.091; -352.835
680.713;  -38.731;  -58.091;  -23.836
680.982; -108.930; -523.091; -525.836
681.250; -116.880; -578.091; -507.837
681.518; -113.305; -534.090; -751.837
681.787;  -69.380; -204.090; -167.837
682.055; -106.479; -490.090; -422.838
682.323; -153.754; -993.090; -992.838
682.591;  -82.129; -216.090; -538.838
682.859;  -45.554;    9.911;  -35.839
683.128;  -36.279;  232.911;  497.161
683.396; -177.603;-1102.089;-1122.840
683.664;  -66.178; -241.089;   21.160
683.932;  -35.253;  144.911;  -76.840
684.200; -111.728; -576.088; -320.841
684.468;  -50.902;  -73.088; -124.841
684.736;  -68.077; -214.088; -175.841
685.004; -165.827;-1024.088; -982.842
685.272; -143.502; -880.088; -774.842
685.540; -118.451; -499.087; -557.843
685.808; -144.826; -651.087; -682.843
686.076; -158.126; -894.087; -969.843
686.343; -122.426; -601.087; -815.844
686.611;  -60.675; -195.087; -224.844
686.879; -108.100; -530.086; -553.844
687.147; -102.900; -483.086; -480.845
687.414;  -77.750;  -12.086; -169.845
687.682; -131.324; -658.086; -757.846
687.950;  -20.574;  259.915;  263.154
688.217; -134.624; -792.085; -760.846
688.485; -127.374; -632.085; -636.847
688.753;  -50.848;  -11.085; -102.847
689.020; -147.698; -820.085; -851.847
689.288; -139.848; -853.084; -787.848
689.555;  -67.648; -195.084; -148.848
689.823;  -83.047; -241.084; -345.849
690.090; -121.947; -546.084; -651.849
690.358; -170.097; -877.084; -897.849
690.625;  -33.997;  120.917;   45.150
690.892; -109.922; -403.083; -369.850
691.160;  -63.671;   72.917;  -35.850
691.427;  -27.346;  141.917;  130.149
691.694; -174.671; -855.083; -929.851
691.962; -169.446;-1177.082;-1060.852
692.229;  -59.395;  127.918;   56.148
692.496;  -38.070;  130.918;  -49.852
692.763;  -84.645; -164.082; -201.853
693.031; -130.895; -739.082; -716.853
693.298; -125.094; -509.081; -368.853
693.565;  -63.294; -155.081; -163.854
693.832;  -69.294;   -5.081;   -9.854
694.099; -135.994; -643.081; -642.855
694.366; -161.468; -882.081; -896.855
694.633; -158.293; -920.080; -633.855
694.900;  521.357; 4367.920; -114.856
695.167;  -58.693; -214.080; -380.856
695.434; -128.117; -646.080; -623.856
695.701;  -23.267;  121.921;  -61.857
695.968; -107.767; -365.079; -361.857
696.234; -119.717; -415.079; -646.858
696.501; -129.066; -776.079; -614.858
696.768; -122.191; -554.079; -617.858
697.035; -130.141; -632.078; -667.859
697.302; -116.566; -448.078; -552.859
697.568; -108.615; -458.078; -497.859
697.835; -133.340; -683.078; -624.860
698.102; -107.815; -498.078; -407.860
698.368;   -6.865;  384.923;  396.139
698.635;  -97.215;  -47.077; -424.861
698.901;  -73.114; -240.077; -348.861
699.168; -108.889; -534.077; -456.862
699.435;  -56.664;  -72.077;  -13.862
699.701; -146.714; -868.076; -764.862
699.968;  -35.413;  144.924; -441.863
700.234; -152.688; -783.076; -822.863
700.500; -102.663; -448.076; -539.864
700.767;  -55.863;   -1.075;   26.136
701.033; -162.137;-1015.075; -963.864
701.299; -119.487; -450.075; -483.865
701.566;   47.663;  950.925;  763.135
701.832;  -33.587;  -31.075;  -76.865
702.098; -158.361;-1054.074;-1034.866
702.365; -178.861;-1098.074;-1030.866
702.631; -170.436;-1038.074;-1063.867
702.897; -138.536; -765.074; -676.867
703.163;  -15.160;  348.926;  254.133
703.429;  -98.835; -256.073; -273.868
703.695; -111.110; -796.073; -792.868
703.961;  -81.310; -214.073; -210.868
704.227; -122.809; -630.073; -725.869
704.493;   26.416;  613.927;  510.131
704.759; -117.559; -565.072; -540.870
705.025;  -80.584; -203.072; -194.870
705.291; -125.358; -666.072; -562.870
705.557;   25.292;  719.928;   34.129
705.823; -116.733; -742.072; -694.871
706.089;  -96.383; -307.071; -326.871
706.355;  -78.158; -315.071; -244.872
706.620; -147.507; -776.071; -729.872
706.886;  -88.657; -309.071; -362.873
707.152; -165.532; -818.070; -973.873
707.418; -195.232;-1153.070;-1186.873
707.683; -112.056; -550.070; -530.874
707.949; -107.131; -547.070; -578.874
708.215;  -81.881; -129.070; -207.874
708.480;  -99.356; -520.069; -420.875
708.746;  -59.480;   68.931;   28.125
709.011; -117.605; -578.069; -612.876
709.277; -133.155; -538.069; -543.876
709.542;  -90.930; -428.069; -387.876
709.808;  -71.654;  -59.068;   89.123
710.073; -128.829; -577.068; -695.877
710.339;  -81.779; -242.068; -228.877
710.604; -149.054; -780.068; -845.878
710.869;  -90.428; -277.068; -366.878
711.135; -132.628; -715.067; -628.879
711.400; -124.553; -507.067; -608.879
711.665;  -89.403; -404.067; -479.879
711.931; -138.177; -661.067; -677.880
712.196; -160.802; -876.067; -954.880
712.461; -115.427; -402.066; -490.880
712.726; -137.327; -727.066; -771.881
712.991; -132.226; -647.066; -664.881
713.256;  -75.476; -350.066; -332.882
713.521; -116.401; -417.065; -381.882
713.787; -123.001; -454.065; -472.882
714.052;  -81.001; -214.065; -400.883
714.317; -172.450;-1045.065; -981.883
714.581; -110.900; -374.065; -268.883
714.846; -156.375; -822.064; -888.884
715.111;   -8.550;  261.936;  257.116
715.376;  -81.299;  -86.064; -223.885
715.641; -104.399; -365.064; -367.885
715.906; -101.124;   15.936; -551.885
716.171;  -39.399;  221.937;  209.114
716.436;  -44.998;  -78.063; -104.886
716.700; -147.248; -818.063; -692.886
716.965; -145.448; -794.063; -807.887
717.230; -110.198; -339.063; -392.887
717.494;  -56.822;  -40.062; -134.888
717.759; -131.247; -784.062; -640.888
718.024;  -28.547;  269.938;  250.112
718.288;   26.628;  685.938;  395.111
718.553; -157.196; -803.062; -977.889
718.817; -168.321; -883.061; -899.889
719.082;  -50.046; -115.061; -125.890
719.346; -165.421;-1000.061; -947.890
719.611;  -73.070; -300.061; -255.891
719.875; -138.870; -568.060; -537.891
720.140; -112.595; -453.060; -603.891
720.404;  -91.595; -136.060; -249.892
720.668;  -90.670; -475.060; -411.892
720.933;  -44.444;  146.940;  137.108
721.197; -135.094; -667.059; -600.893
721.461; -159.419; -851.059; -826.893
721.725;  -42.969;  -21.059; -250.894
721.990;  -85.493; -284.059; -204.894
722.254;  -49.843;  -26.059; -108.894
722.518; -105.168; -286.058; -442.895
722.782; -136.043; -743.058; -594.895
723.046;   12.608;  614.942;  570.105
723.310;   -6.667;  374.942;  210.104
723.574; -126.592; -654.058; -614.896
723.838; -110.592; -576.057; -642.897
724.102;  -84.291; -226.057; -239.897
724.366; -168.841;-1032.057; -978.897
724.630; -122.916; -749.057; -571.898
724.894; -111.466; -722.057; -514.898
725.158;  -58.415;   38.944; -295.898
725.422;  -84.940; -394.056; -327.899
725.685; -107.215; -441.056; -349.899
725.949; -130.765; -566.056; -519.900
726.213; -147.614; -732.056; -811.900
726.477; -166.089;-1020.055; -933.900
726.740;  -67.789; -274.055; -104.901
727.004; -113.139; -384.055; -510.901
727.268; -113.888; -442.055; -400.901
727.531; -153.213; -961.055; -775.902
727.795; -127.088; -713.054; -673.902
728.059; -127.913; -552.054; -557.903
728.322; -146.538; -841.054; -669.903
728.586; -116.937; -692.054; -701.903
728.849; -146.087; -695.053; -756.904
729.112; -143.337; -812.053; -912.904
729.376; -161.637; -959.053; -905.904
729.639; -109.336; -536.053; -536.905
729.903; -155.261; -733.053; -699.905
730.166;  -81.886; -437.052; -399.906
730.429;  -91.111; -317.052; -468.906
730.693; -117.560; -355.052; -894.906
730.956;   35.890;  810.948;  651.093
731.219;  -78.210; -310.052; -103.907
731.482; -169.685;-1003.051; -894.907
731.745; -173.534; -794.051; -935.908
732.009;  -56.059;  -30.051;   50.092
732.272; -143.109; -904.051; -771.909
732.535; -103.009; -300.051; -310.909
732.798; -193.008;-1083.050;-1166.909
733.061; -125.183; -430.050; -456.910
733.324;  -47.708;   31.950; -180.910
733.587;  -15.233;  290.950;  365.090
733.850; -129.457; -973.049;-1050.911
734.113;  -40.907;   33.951;   32.089
734.376;  -97.232; -328.049; -447.912
734.639;   67.343; 1188.951; 1011.088
734.901;  -89.631; -180.049; -402.912
735.164; -152.931; -883.048; -837.913
735.427;  -69.681; -166.048; -355.913
735.690;  -91.556; -205.048; -234.913
735.952; -169.281; -923.048; -925.914
736.215; -192.905;-1113.048;-1009.914
736.478; -152.580; -771.047; -774.915
736.740;  -70.255;   33.953;  129.085
737.003; -137.430; -658.047; -672.915
737.266;   42.996;  -94.047;   46.084
737.528; -136.204; -682.047; -660.916
737.791;  -92.979; -316.046; -327.916
738.053;  -17.404;  465.954;  649.083
738.316;  -99.053; -162.046; -136.917
738.578; -153.778; -770.046; -736.918
738.841; -106.803; -382.046; -446.918
739.103; -142.628; -875.045; -777.918
739.365;  -53.552;   79.955;  -69.919
739.628; -142.952; -884.045; -805.919
739.890; -137.377; -758.045; -710.919
740.152; -137.877; -692.044; -754.920
740.414; -123.326; -408.044; -359.920
740.677; -115.901; -785.044; -634.921
740.939; -142.476; -587.044; -487.921
741.201; -109.251; -432.044; -572.921
741.463; -134.300; -689.043; -745.922
741.725;  -70.475;  -21.043; -199.922
741.987;  -37.800;  220.957;  116.078
742.249; -147.900; -751.043; -859.923
742.511; -150.549; -703.043; -794.923
742.773; -110.099; -546.042; -546.924
743.035;   21.351;  796.958;  533.076
743.297; -181.724; -963.042;-1013.924
743.559;  -65.124; -278.042; -262.925
743.821; -150.073; -735.042; -744.925
744.083;  -73.273;  -44.041; -149.925
744.345; -163.323; -869.041; -892.926
744.607;  -54.673;   75.959;  122.074
744.868; -120.997; -490.041; -554.927
745.130; -202.847; -994.041;-1008.927
745.392;  -38.972;   -1.040;  -44.927
745.653; -114.072; -411.040; -378.928
745.915;   49.704;  896.960;  631.072
746.177;  -76.596;   35.960;  -43.928
746.438; -122.896; -428.040; -543.929
746.700; -175.271; -947.039; -988.929
746.961; -142.595; -659.039; -740.930
747.223;  -80.620; -190.039;  -74.930
747.484; -112.620; -391.039; -471.930
747.746;  -73.620;  -23.038; -106.931
748.007; -131.419; -647.038; -689.931
748.269; -111.344; -468.038; -440.931
748.530; -127.669; -852.038; -638.932
748.791; -127.869; -354.038; -420.932
749.053;  -13.393;  286.963;  163.067
749.314;  -91.443; -236.037; -169.933
749.575; -155.643; -945.037; -905.933
749.836;  -75.568; -217.037;   86.066
750.098;  -69.817;  -60.037;  -21.934
750.359;   -1.217;  414.964;  555.066
750.620;  -61.692; -121.036; -220.935
750.881; -135.542; -585.036; -513.935
751.142; -165.167; -950.036; -938.936
751.403; -135.241; -789.036; -705.936
751.664; -178.766;-1034.035; -999.936
751.925;  -86.791; -175.035; -262.937
752.186;  -87.541; -298.035; -278.937
752.447; -122.890; -590.035; -445.937
752.708; -125.565; -532.035; -648.938
752.969; -141.940; -566.034; -576.938
753.230; -142.665; -777.034; -672.939
753.491; -136.689; -650.034; -631.939
753.751;  -38.764;  109.966;   19.061
754.012;  -34.289;  258.967;  181.060
754.273;  -75.964; -174.033;  -71.940
754.534; -133.463; -487.033; -580.940
754.794; -155.613; -926.033; -911.941
755.055;   46.412; 1051.967;  881.059
755.316; -136.488; -700.032; -566.942
755.576; -129.337; -606.032; -576.942
755.837; -123.337; -527.032; -695.942
756.097; -129.587; -530.032; -564.943
756.358; -159.337; -725.032; -770.943
756.618; -135.086; -705.031; -641.943
756.879;  -85.261; -254.031; -349.944
757.139; -198.211;-1098.031;-1116.944
757.400; -141.486; -538.031; -553.945
757.660; -106.185; -365.031; -401.945
757.920;  -85.160; -266.030; -228.945
758.181; -108.135; -468.030; -351.946
758.441; -159.935; -870.030; -809.946
758.701; -107.860; -308.030; -215.946
758.961;  -89.634; -220.030; -278.947
759.222; -118.484; -574.029; -502.947
759.482; -143.684; -683.029; -723.948
759.742; -153.984; -706.029; -547.948
760.002;  -71.833;  -83.029; -143.948
760.262;  -64.708;   50.972;  182.051
760.522; -119.883; -498.028; -574.949
760.782; -139.733; -738.028; -612.949
761.042; -134.282; -618.028; -573.950
761.302;  -65.432;   55.972;  -18.950
761.562;  -74.607; -164.027; -154.951
761.822; -143.907; -710.027; -551.951
762.082; -191.606;-1104.027;-1093.951
762.342; -113.256; -328.027; -403.952
762.601; -129.731; -567.027; -506.952
762.861;  -90.931; -281.026; -207.952
763.121;  -97.005; -406.026; -411.953
763.381; -124.730; -499.026; -485.953
763.640;  -69.905; -139.026; -307.954
763.900;  -89.155; -242.026; -203.954
764.160; -101.404; -458.025; -491.954
764.419; -149.104; -726.025; -782.955
764.679; -144.604; -795.025; -726.955
764.939;  -81.004; -124.025; -210.955
765.198; -129.178; -608.025; -563.956
765.458; -137.353; -710.024; -612.956
765.717; -128.203; -454.024; -590.957
765.976; -107.228; -428.024; -411.957
766.236; -120.853; -475.024; -610.957
766.495;  -39.802;  260.977;   73.042
766.755; -171.527;-1090.023; -987.958
767.014; -133.902; -594.023; -665.958
767.273; -109.877; -373.023; -397.959
767.533; -107.076; -228.023; -307.959
767.792;  -75.026; -151.022; -188.960
768.051; -104.001; -228.022; -276.960
768.310; -118.326; -546.022; -650.960
768.569;  -80.525; -161.022;    4.039
768.828;  -86.550; -285.022; -363.961
769.088; -186.350;-1050.021; -942.961
769.347; -156.675; -755.021; -599.962
769.606; -167.099; -876.021; -857.962
769.865; -191.224;-1016.021;-1033.963
770.124;  -88.649; -411.021; -336.963
770.383; -164.649; -778.020; -910.963
770.641; -136.248; -398.020; -400.964
770.900; -164.223; -953.020; -846.964
771.159; -163.098; -851.020; -951.964
771.418; -163.398; -917.020; -779.965
771.677;  -72.047; -224.019; -293.965
771.936; -154.547; -794.019; -865.966
772.194; -162.847; -465.019; -437.966
772.453;  -84.047; -213.019; -391.966
772.712;  -28.296;  416.982;  329.033
772.970;  -53.471;   32.982;   63.033
773.229;  -67.646;  -22.018;  102.033
773.488; -160.171; -814.018; -770.968
773.746;  -18.621;  296.982;  335.032
774.005;  -63.345;  190.983;  -22.969
774.263;  -42.295;  243.983;  177.031
774.522;  -76.095; -422.017; -548.969
774.780; -130.870; -484.017; -417.970
775.039; -104.394; -551.017; -531.970
775.297;  -68.344; -135.016; -351.970
775.555; -128.719; -489.016; -612.971
775.814; -140.819; -618.016; -570.971
776.072; -149.843; -749.016; -740.971
776.330; -133.518; -630.016; -520.972
776.589; -143.968; -703.015; -721.972
776.847; -154.543; -645.015; -624.973
777.105; -185.692;-1016.015;-1032.973
777.363; -103.467; -459.015; -454.973
777.621; -158.592; -660.015; -717.974
777.879;  -59.242;  -42.014;   32.026
778.138; -117.541; -554.014; -717.974
778.396; -133.191; -585.014; -526.975
778.654; -185.816;-1015.014; -970.975
778.912; -105.391; -269.014; -371.976
779.170; -150.665; -880.013; -803.976
779.427; -187.040; -922.013; -897.976
779.685; -161.690; -880.013; -832.977
779.943; -153.615; -654.013; -593.977
780.201; -165.864; -964.012; -883.978
780.459; -149.864; -651.012; -610.978
780.717; -105.939; -440.012; -390.978
780.974; -127.289; -449.012; -490.979
781.232; -102.439; -358.012; -338.979
781.490; -146.463; -551.011; -472.979
781.747; -122.338; -555.011; -476.980
782.005;  -24.388;  462.989;  254.020
782.263; -172.188; -542.011;-1004.981
782.520; -119.287; -326.011; -501.981
782.778; -172.612;-1013.010;-1051.981
783.035; -189.887; -962.010; -938.982
783.293;  -84.387; -248.010; -206.982
783.550;  -96.536; -134.010; -198.982
783.808; -142.761; -764.010; -776.983
784.065; -177.036; -745.009; -874.983
784.322;  -69.911;   25.991;  -86.984
784.580; -161.535; -915.009; -771.984
784.837; -118.910; -392.009; -466.984
785.094; -164.410; -783.009; -762.985
785.352; -110.335; -304.008; -404.985
785.609; -174.584; -934.008; -839.985
785.866; -112.159; -345.008; -401.986
786.123; -160.459; -639.008; -583.986
786.380; -136.509; -665.008; -604.987
786.637; -104.858; -225.007; -380.987
786.895; -138.758; -456.007; -543.987
787.152;  -91.308; -135.007; -267.988
787.409;  -63.733; -123.007; -225.988
787.666; -123.282; -299.006; -378.988
787.923; -122.657; -616.006; -695.989
788.179; -132.132; -551.006; -584.989
788.436; -120.757; -585.006; -585.990
788.693;  -83.532;  -92.006;  -87.990
788.950;  -73.231; -125.005; -112.990
789.207; -113.756; -381.005; -372.991
789.464;  -91.756; -161.005; -301.991
789.720;  -50.381;  150.995;  110.009
789.977; -195.555;-1003.005; -671.992
790.234;  -66.805;   44.996;  -66.992
790.490; -175.405; -884.004;-1031.993
790.747;  -80.380;  -85.004;   22.007
791.004;  -96.729; -426.004; -348.993
791.260; -122.954; -430.004; -560.994
791.517; -156.429; -843.003; -788.994
791.773; -110.304; -379.003; -342.994
792.030; -140.203; -596.003; -660.995
792.286; -152.278; -686.003; -636.995
792.543;  -67.828;  -74.002; -159.995
792.799; -121.328; -584.002; -382.996
793.055; -210.502;-1179.002;-1210.996
793.312; -176.702; -827.002; -816.997
793.568; -147.727; -746.002; -599.997
793.824; -109.327; -226.001; -284.997
794.081; -121.251; -447.001; -508.998
794.337; -133.601; -664.001; -561.998
794.593; -102.676; -319.001; -271.999
794.849; -166.476; -746.001; -772.999
795.105; -107.200; -270.000; -261.999
795.361; -117.625; -490.000; -457.000
795.617; -167.925; -875.000; -945.000
795.873; -124.925; -360.000; -407.000
796.129;  -94.150; -368.000; -306.000
796.385;  -92.950; -124.000; -156.000
796.641;  -13.350;  412.000;  550.000
796.897; -139.825; -666.000; -635.000
797.153;    3.175;  453.000;  357.000
797.409; -173.700; -785.000; -868.000
797.665; -141.525; -625.000; -732.000
797.921; -160.825; -775.000; -762.000
798.176; -156.350; -744.000; -747.000
798.432; -162.350; -824.000; -596.000
798.688; -190.000;-1174.000;-1078.000
798.943;  -94.200; -165.000; -147.000
799.199; -171.575;-1005.000; -959.000
799.455;  -25.950;  369.000;  316.000
799.710; -156.025; -813.000; -380.000
799.966;  -91.450; -162.000; -160.000
800.221; -144.275; -638.000; -721.000
800.477; -162.800; -743.000; -710.000
800.732; -163.625; -773.000; -800.000
800.988;  -42.475;  205.000;  -19.000
801.243; -103.575; -454.000; -344.000
801.498; -165.700; -814.000; -739.000
801.754;  -82.250; -289.000; -163.000
802.009; -106.400; -257.000; -335.000
802.264; -181.100; -967.000;-1033.000
802.520;  -62.350;  222.000;   -3.000
802.775; -126.900; -524.000; -359.000
803.030;  -32.125;  395.000;  356.000
803.285; -179.825; -840.000; -903.000
803.540; -148.775; -686.000; -699.000
803.795; -135.725; -648.000; -583.000
804.051; -105.550; -279.000; -346.000
804.306;  -44.050;  168.000;  128.000
804.561;  -24.075;  451.000;  362.000
804.816;   20.700;  714.000;  861.000
805.071; -100.425; -185.000; -280.000
805.325; -116.150; -257.000; -427.000
805.580; -190.500; -841.000; -877.000
805.835;  -94.250; -204.000; -297.000
806.090; -153.500; -760.000; -676.000
806.345; -107.450; -344.000; -264.000
806.600; -145.775; -549.000; -632.000
806.854; -142.100; -408.000; -538.000
807.109; -127.000; -493.000; -577.000
807.364; -103.450; -407.000; -328.000
807.618; -121.000; -415.000; -381.000
807.873; -138.525; -470.000; -494.000
808.128; -110.675; -257.000; -518.000
808.382;  -83.425; -224.000; -332.000
808.637; -124.500; -440.000; -511.000
808.891;  -77.900; -257.000; -180.000
809.146; -177.400; -902.000; -794.000
809.400; -164.175; -848.000; -923.000
809.654; -151.400; -779.000; -551.000
809.909; -177.750; -841.000; -927.000
810.163; -167.075; -813.000; -651.000
810.418; -178.825; -940.000; -861.000
810.672; -153.150; -685.000; -690.000
810.926; -187.050; -993.000; -973.000
811.180; -127.525; -439.000; -372.000
811.434;  -53.300;  240.000;  135.000
811.689; -119.875; -231.000; -365.000
811.943; -176.675; -936.000; -953.000
812.197; -162.050; -893.000; -671.000
812.451; -115.375; -379.000; -514.000
812.705; -188.575; -809.000; -619.000
812.959; -113.450; -263.000; -388.000
813.213;  -98.125; -283.000; -209.000
813.467;  -11.550;  470.000;  253.000
813.721; -160.850; -764.000; -792.000
813.975; -166.700; -826.000; -877.000
814.229;  -42.100;  430.000;  353.000
814.482; -130.700; -517.000; -566.000
814.736; -176.200; -766.000; -744.000
814.990; -166.700; -779.000; -872.000
815.244; -117.175; -228.000; -285.000
815.497; -123.025; -636.000; -601.000
815.751;  -60.475; -141.000;   82.000
816.005; -137.200; -470.000; -586.000
816.258; -120.475; -510.000; -363.000
816.512; -162.050; -693.000; -610.000
816.766;  -65.875;  121.000;  157.000
817.019;  -46.225;  148.000;  149.000
817.273; -197.150;-1000.000; -802.000
817.526;  -92.125; -206.000; -173.000
817.779; -211.675;-1049.000; -960.000
818.033; -157.125; -693.000; -807.000
818.286; -166.275; -725.000; -792.000
818.540; -121.575; -403.000; -403.000
818.793; -125.925; -402.000; -489.000
819.046; -145.750; -582.000; -520.000
819.299;  -87.925; -157.000; -166.000
819.553; -141.400; -552.000; -592.000
819.806; -185.875;-1016.000; -838.000
820.059;  -89.025; -334.000; -354.000
820.312;  -58.975;  152.000;  185.000
820.565;  -72.125;  110.000;  -27.000
820.818;  -95.650;  -59.000; -173.000
821.071; -190.650;-1041.000; -957.000
821.324; -143.400; -536.000; -540.000
821.577; -131.850; -457.000; -483.000
821.830; -115.175; -270.000; -172.000
822.083; -163.100; -733.000; -288.000
822.336; -100.800; -261.000; -167.000
822.589; -147.725; -805.000; -688.000
822.842; -177.475; -875.000; -770.000
823.094; -199.325;-1076.000;-1114.000
823.347; -166.375; -925.000; -729.000
823.600;  -38.600;  402.000;  187.000
823.853; -101.075; -311.000; -267.000
824.105; -124.675; -331.000; -575.000
824.358; -158.025; -617.000; -716.000
824.611;  -41.150;  234.000;   40.000
824.863; -148.175; -612.000; -591.000
825.116;  -59.700;  -33.000;   27.000
825.368; -137.900; -366.000; -372.000
825.621;  -91.775; -186.000; -240.000
825.873; -152.650; -704.000; -737.000
826.126; -141.775; -669.000; -641.000
826.378; -127.700; -389.000; -505.000
826.630; -176.500; -890.000; -898.000
826.883; -165.400; -754.000; -693.000
827.135; -109.825; -279.000; -270.000
827.387; -171.550; -893.000; -839.000
827.639;  -73.825;  -86.000;   32.000
827.892; -155.875; -742.000; -582.000
828.144; -165.325; -848.000; -804.000
828.396;  -74.150;  104.000;  -80.000
828.648; -115.800; -440.000; -333.000
828.900; -173.525; -702.000; -795.000
829.152; -136.000; -684.000; -683.000
829.404; -101.425; -215.000; -267.000
829.656;  -39.875;  321.000;  214.000
829.908;  -55.150;  393.000;  229.000
830.160; -182.400;-1064.000;-1047.000
830.412; -144.375; -481.000; -430.000
830.664; -153.650; -557.000; -665.000
830.916; -120.325; -268.000; -206.000
831.167; -191.425;-1073.000; -951.000
831.419; -149.925; -623.000; -566.000
831.671; -166.900; -764.000; -809.000
831.923; -116.700; -311.000; -447.000
832.174;  -92.175; -273.000; -331.000
832.426; -148.150; -493.000; -582.000
832.678; -194.900;-1043.000;-1091.000
832.929; -200.275; -947.000; -935.000
833.181; -141.950; -575.000; -677.000
833.432;  -97.175;  -59.000; -186.000
833.684;  -54.000;  112.000;  -27.000
833.935; -144.600; -610.000; -566.000
834.187; -142.000; -829.000; -823.000
834.438;  -78.725;  -58.000;  -25.000
834.689;  -87.425; -255.000; -123.000
834.941;  -99.650; -343.000; -244.000
835.192; -147.175; -590.000; -533.000
835.443; -151.725; -419.000; -506.000
835.695;  -63.500;  138.000;  -16.000
835.946; -138.125; -608.000; -378.000
836.197; -139.575; -599.000; -622.000
836.448; -136.850; -528.000; -395.000
836.699; -103.675; -253.000; -341.000
836.950;  -61.400;   72.000;    7.000
837.201; -191.600;-1003.000; -987.000
837.452; -112.500; -356.000; -170.000
837.703; -162.575; -791.000; -737.000
837.954; -121.075; -205.000; -365.000
838.205; -186.875;-1029.000;-1008.000
838.456; -112.075; -196.000; -282.000
838.707; -126.925; -423.000; -519.000
838.958; -162.800; -634.000; -647.000
839.209;  -49.650;   18.000;   40.000
839.460; -114.425; -439.000; -201.000
839.710; -101.300; -135.000; -297.000
839.961;   -9.100;  730.000;  612.000
840.212; -131.000; -382.000; -497.000
840.462; -112.725; -328.000; -277.000
840.713; -133.925; -571.000; -536.000
840.964;  -99.825;  -62.000; -143.000
841.214; -144.075; -384.000; -624.000
841.465; -101.775; -214.000; -141.000
841.715; -109.675; -417.000; -380.000
841.966; -167.675; -746.000; -685.000
842.216; -133.825; -330.000; -431.000
842.466; -112.350; -169.000; -313.000
842.717; -189.225; -964.000; -952.000
842.967; -153.800; -635.000; -641.000
843.217;  -73.950;   20.000;   28.000
843.468;  -92.900; -104.000; -132.000
843.718; -165.850; -718.000; -726.000
843.968; -166.675; -837.000; -765.000
844.218;  -99.175; -315.000; -262.000
844.469; -138.050; -577.000; -561.000
844.719; -150.350; -537.000; -682.000
844.969; -132.875; -550.000; -580.000
845.219; -182.125; -814.000; -862.000
845.469; -115.625; -392.000; -342.000
845.719; -168.850; -792.000; -884.000
845.969;  -61.900;  119.000;  174.000
846.219; -130.200; -738.000; -720.000
846.469;  -40.950;  464.000;  432.000
846.718;  -94.125; -115.000;   31.000
846.968; -179.875; -827.000; -827.000
847.218;  -85.825; -224.000; -371.000
847.468;  -57.025; -586.000; -555.000
847.718; -167.675; -827.000; -798.000
847.967; -184.000; -826.000; -915.000
848.217; -120.025; -449.000; -569.000
848.467; -113.950; -405.000; -376.000
848.716; -162.825; -708.000; -725.000
848.966; -129.950; -372.000; -358.000
849.215; -127.125; -428.000; -419.000
849.465; -164.350; -785.000; -615.000
849.714; -196.750;-1132.000;-1150.000
849.964; -145.775; -551.000; -613.000
850.213; -119.400; -393.000; -355.000
850.463;  -51.525;  137.000;  340.000
850.712; -141.050; -542.000; -567.000
850.961; -163.400; -739.000; -678.000
851.211; -135.500; -513.000; -504.000
851.460; -162.000; -635.000; -650.000
851.709;  -76.350;  -25.000;   18.000
851.958; -166.225; -912.000; -750.000
852.208; -188.150; -859.000; -879.000
852.457; -106.000; -181.000;  -13.000
852.706; -172.600; -791.000; -823.000
852.955; -139.225; -507.000; -528.000
853.204; -130.375; -521.000; -461.000
853.453; -133.200; -418.000; -458.000
853.702; -171.275; -660.000; -750.000
853.951; -143.000; -532.000; -520.000
854.200; -153.150; -613.000; -562.000
854.449; -168.250; -695.000; -661.000
854.698; -115.100; -340.000; -279.000
854.946;  -93.900; -181.000; -284.000
855.195; -159.025; -843.000; -868.000
855.444; -129.925; -395.000; -420.000
855.693; -132.975; -345.000; -432.000
855.941; -150.000; -387.000; -516.000
856.190;  -95.250; -256.000; -382.000
856.439; -155.525; -652.000; -703.000
856.687;  -70.450;  -99.000;  -72.000
856.936; -132.725; -621.000; -323.000
857.184; -189.275;-1067.000;-1020.000
857.433; -128.950; -423.000; -512.000
857.681; -192.275; -989.000; -953.000
857.930;  -99.475; -282.000; -433.000
858.178; -176.950; -856.000; -929.000
858.427; -175.950; -802.000; -781.000
858.675; -150.350; -377.000; -544.000
858.923; -149.525; -527.000; -819.000
859.172; -183.725;-1094.000;-1070.000
859.420; -122.950; -339.000; -239.000
859.668; -150.575; -624.000; -628.000
859.916;  -75.150;  109.000;  115.000
860.164; -144.175; -699.000; -603.000
860.413; -171.475; -878.000; -696.000
860.661; -159.150; -709.000; -577.000
860.909; -122.000; -339.000; -325.000
861.157; -117.000; -277.000; -444.000
861.405; -167.850; -534.000; -670.000
861.653;  -28.900;  310.000;  310.000
861.901; -145.275; -543.000; -613.000
862.149; -173.125; -801.000; -824.000
862.396; -110.250; -297.000; -187.000
862.644; -114.975; -368.000; -347.000
862.892;  -73.675;   98.000;  138.000
863.140; -141.475; -549.000; -530.000
863.388; -185.225; -815.000; -759.000
863.635; -140.525; -642.000; -601.000
863.883;  -59.000;  231.000;  190.000
864.131; -106.500; -288.000; -357.000
864.378; -163.400; -675.000; -540.000
864.626; -122.650; -347.000; -415.000
864.873; -144.075; -556.000; -505.000
865.121; -165.725; -714.000; -799.000
865.368;  -95.450; -173.000;   75.000
865.616;  -88.700;  -33.000;  -40.000
865.863; -149.475; -462.000; -506.000
866.111; -182.525; -795.000; -824.000
866.358; -124.650; -426.000; -420.000
866.605;  -80.050;  -64.000; -804.000
866.853; -148.075; -621.000; -537.000
867.100; -162.725; -728.000; -775.000
867.347; -172.150; -672.000; -611.000
867.594; -153.350; -740.000; -714.000
867.841;  -68.725;   97.000;   17.000
868.089; -175.725; -746.000; -698.000
868.336; -143.025; -477.000; -420.000
868.583; -164.350; -637.000; -741.000
868.830;  -86.475; -131.000; -170.000
869.077; -181.275; -859.000; -787.000
869.324; -152.200; -502.000; -458.000
869.571; -139.350; -398.000; -430.000
869.818; -140.500; -485.000; -439.000
870.065; -130.175; -439.000; -513.000
870.311; -148.150; -456.000; -542.000
870.558; -118.050; -332.000; -311.000
870.805;  -99.825; -320.000; -384.000
871.052; -110.700; -494.000; -369.000
871.298; -106.775; -204.000; -131.000
871.545;  -96.000; -151.000; -185.000
871.792; -116.975; -173.000; -222.000
872.038;  -79.300;   43.000; -126.000
872.285; -145.875; -496.000; -387.000
872.532; -117.900; -357.000; -387.000
872.778;  -25.275;  556.000;  403.000
873.025; -111.600; -384.000; -359.000
873.271;  -12.975;  501.000;  578.000
873.517;  -93.450; -133.000; -209.000
873.764;  -87.200; -193.000;  -80.000
874.010; -104.250; -143.000; -230.000
874.257;  -75.875;  123.000;   90.000
874.503; -147.825; -579.000; -479.000
874.749;  -96.825;   31.000;  275.000
874.995;  -92.000;  -80.000;  -20.000
875.242; -148.650; -540.000; -478.000
875.488; -143.050; -414.000; -439.000
875.734; -116.875; -106.000; -234.000
875.980; -196.225; -872.000;-1032.000
876.226; -112.675; -157.000; -255.000
876.472;  -36.075;  343.000;  237.000
876.718;  -89.050;  184.000;  158.000
876.964;  -65.450;   56.000;   55.000
877.210; -170.700; -547.000; -677.000
877.456; -141.650; -630.000; -557.000
877.702; -198.550; -821.000; -832.000
877.948; -133.350; -377.000; -497.000
878.193;  -28.850;  361.000;  255.000
878.439; -143.600; -487.000; -472.000
878.685; -118.600; -272.000; -343.000
878.931; -145.350; -618.000; -676.000
879.176; -109.125; -201.000; -201.000
879.422; -189.900; -933.000; -820.000
879.668;  -69.800;   10.000;   79.000
879.913;  -66.050;   53.000;  137.000
880.159; -116.050; -112.000;  -17.000
880.404; -100.100; -152.000; -162.000
880.650;  -70.400;   91.000;  141.000
880.895; -173.650; -670.000; -710.000
881.141; -158.050; -454.000; -428.000
881.386; -153.000; -503.000; -658.000
881.631; -119.700; -311.000; -166.000
881.877;  -67.725;  112.000;  -13.000
882.122; -144.800; -684.000; -600.000
882.367; -105.400; -136.000; -186.000
882.612;  -88.900;  -80.000; -176.000
882.858; -184.625; -877.000; -823.000
883.103; -120.875; -297.000; -267.000
883.348; -152.225; -759.000; -852.000
883.593; -173.825; -677.000; -602.000
883.838; -110.375; -311.000;  -24.000
884.083;  -65.525;  353.000;  288.000
884.328; -121.975; -564.000; -545.000
884.573; -110.400; -196.000; -143.000
884.818; -139.875; -694.000; -531.000
885.063; -130.875; -348.000; -315.000
885.308; -134.000; -475.000; -398.000
885.553;  -45.575;  245.000;  325.000
885.797; -141.325; -545.000; -615.000
886.042;  -74.225;    8.000;   58.000
886.287; -106.675; -253.000; -211.000
886.532;  -71.325;   26.000;  204.000
886.776; -121.325; -407.000; -525.000
887.021; -166.725; -621.000; -574.000
887.265; -167.000; -685.000; -689.000
887.510; -160.525; -557.000; -496.000
887.755;  -97.575; -194.000; -164.000
887.999; -151.750; -552.000; -575.000
888.244;  -78.000;  -58.000;  161.000
888.488;  -32.900;  371.000;  393.000
888.732; -128.750; -368.000; -520.000
888.977; -167.775; -622.000; -567.000
889.221; -165.025; -683.000; -659.000
889.465; -153.725; -422.000; -566.000
889.710; -101.475;  -56.000; -299.000
889.954;  -38.850;  579.000;  467.000
890.198; -153.725; -584.000; -707.000
890.442; -170.125; -716.000; -712.000
890.687; -168.425; -800.000; -753.000
890.931; -118.375; -273.000; -210.000
891.175; -141.325; -502.000; -500.000
891.419; -100.900; -105.000; -110.000
891.663;  -97.775; -239.000; -112.000
891.907; -180.625; -801.000; -545.000
892.151; -190.175; -920.000; -815.000
892.395; -125.325; -274.000; -387.000
892.638;  -47.900;  408.000;  291.000
892.882; -183.275; -780.000; -867.000
893.126;   -7.475;  758.000;  558.000
893.370; -117.175; -167.000; -168.000
893.614; -137.400; -714.000; -715.000
893.857; -121.150; -183.000; -197.000
894.101; -137.175; -527.000; -631.000
894.345;  -90.450;  300.000;  150.000
894.588;  -13.750;  569.000;  380.000
894.832; -106.900; -178.000;  -84.000
895.075;  -78.775;   15.000;  -92.000
895.319; -149.650; -552.000; -420.000
895.563; -128.075; -413.000; -353.000
895.806; -172.875; -628.000; -741.000
896.049; -128.900; -576.000; -368.000
896.293;  -55.175;  527.000;  405.000
896.536; -144.775; -465.000; -468.000
896.779; -106.450; -149.000;   -1.000
897.023; -167.875; -751.000; -714.000
897.266;  -67.225;  325.000;  269.000
897.509; -189.250; -900.000; -901.000
897.752;  -64.125;  149.000;  171.000
897.996; -197.000; -972.000; -864.000
898.239;  -90.575;  168.000;  102.000
898.482; -135.675; -431.000; -453.000
898.725;  -85.750;  101.000;   53.000
898.968; -167.950; -609.000; -744.000
899.211; -154.750; -513.000; -361.000
899.454; -146.075; -633.000; -539.000
899.697;  -93.025;   90.000;  -43.000
899.940; -160.125; -761.000; -757.000
900.182; -129.000; -335.000; -405.000
900.425;  -98.750; -150.000; -298.000
900.668;  -50.025;  491.000;  350.000
900.911; -124.400; -292.000; -345.000
901.154;  -70.975;  141.000;   -3.000
901.396; -148.275; -407.000; -412.000
901.639; -157.675; -430.000; -496.000
901.882; -185.025; -790.000; -809.000
902.124; -116.675;  -29.000; -143.000
902.367; -129.975; -315.000; -361.000
902.609; -145.725; -476.000; -453.000
902.852;  -93.725; -108.000; -260.000
903.094; -151.975; -458.000; -337.000
903.337;  -69.000;  -26.000;   53.000
903.579; -140.800; -228.000; -441.000
903.821; -158.025; -597.000; -744.000
904.064; -102.775;   85.000;  127.000
904.306; -100.650; -126.000; -166.000
904.548; -128.500; -152.000; -366.000
904.790; -120.050; -195.000; -340.000
905.033; -158.050; -625.000; -577.000
905.275; -141.750; -513.000; -524.000
905.517;  -54.750;  468.000;  256.000
905.759; -175.100; -667.000; -761.000
906.001; -142.175; -322.000; -369.000
906.243; -112.475; -162.000; -224.000
906.485; -133.200; -265.000; -207.000
906.727; -145.125; -499.000; -542.000
906.969; -111.400;  -30.000; -135.000
907.211; -133.275; -316.000; -382.000
907.453; -111.775; -188.000; -237.000
907.695; -104.325; -158.000; -385.000
907.936;   -9.725;  818.000;  706.000
908.178;  -90.975;   92.000; -135.000
908.420; -111.025; -111.000; -162.000
908.662; -162.200; -633.000; -682.000
908.903; -125.550; -208.000; -123.000
909.145; -105.825; -240.000; -305.000
909.386;  -58.100;  315.000;  280.000
909.628;  -33.975;  363.000;  397.000
909.870;  -74.850;   29.000;  264.000
910.111; -187.400; -809.000; -949.000
910.353; -116.725; -123.000; -161.000
910.594; -157.025; -574.000; -606.000
910.835; -135.475; -265.000; -326.000
911.077; -160.775; -503.000; -604.000
911.318; -158.750; -505.000; -471.000
911.559; -182.850; -577.000; -880.000
911.801; -132.975; -284.000; -280.000
912.042;  -90.075;  -50.000; -159.000
912.283;  -57.450;  404.000;  371.000
912.524; -130.550; -396.000; -457.000
912.765; -111.625; -193.000;   79.000
913.006; -122.300; -307.000; -338.000
913.247; -153.025; -270.000; -290.000
913.488;  -96.125;  -43.000;   30.000
913.729; -145.625; -373.000; -373.000
913.970; -124.200;  -96.000; -292.000
914.211; -103.850; -160.000; -198.000
914.452; -109.925; -118.000;  -11.000
914.693;  -33.525;  510.000;  592.000
914.934;  -14.750;  510.000;  440.000
915.175;  -96.650;   53.000;  -95.000
915.415;  -92.325; -137.000;   27.000
915.656; -104.175;  -28.000;  192.000
915.897; -115.900; -252.000;  -82.000
916.137; -105.100;   74.000;   -9.000
916.378; -149.825; -573.000; -517.000
916.619; -116.800; -159.000;  -63.000
916.859;  -59.300;  303.000;  330.000
917.100;   72.725; 1655.000; 1070.000
917.340;    6.950;  930.000;  728.000
917.581;  -14.275;  965.000;  789.000
917.821; -126.400; -171.000;  143.000
918.061; -129.075; -199.000;  -72.000
918.302; -100.225; -152.000; -211.000
918.542; -103.300;  -22.000;    3.000
918.782;  -56.125;  369.000;  377.000
919.023;  -51.000;  360.000;  427.000
919.263;  435.850; 8131.000;  202.000
919.503; -121.700; -137.000;  -54.000
919.743;  -44.875;  390.000;  266.000
919.983; -101.250; -134.000;  -26.000
920.223;  -77.775;  135.000;   14.000
920.463;  -44.100;  631.000;  554.000
920.703;  -69.175;   84.000;   39.000
920.943;  -97.750; -110.000;   90.000
921.183; -135.675; -414.000; -405.000
921.423;  -43.650;  307.000;  546.000
921.663; -110.075; -174.000; -257.000
921.903;  -86.525;  237.000;  173.000
922.143;  -62.775;  372.000;  389.000
922.383;  -90.575;  158.000;  115.000
922.622;  -94.625; -120.000;  -15.000
922.862;   -9.650;  796.000;  785.000
923.102;  -90.350;  -51.000;   33.000
923.341; -102.850;   59.000;   74.000
923.581;  -30.175;  450.000;  360.000
923.821;  -67.875;  301.000;  398.000
924.060;  -53.675;  351.000;  193.000
924.300; -118.500;  -16.000; -128.000
924.539;  -51.475;  584.000;  473.000
924.779;  -31.600;  812.000;  597.000
925.018;  -49.700;  247.000;  353.000
925.257;  -30.025;  595.000;  666.000
925.497;  -57.300;  447.000;  412.000
925.736;  -86.600;  -35.000;  102.000
925.975;  -25.950;  687.000;  669.000
926.214;   -8.200;  907.000;  850.000
926.454;   -3.650;  706.000;  757.000
926.693;  -57.050;  419.000;  543.000
926.932;   25.050; 1021.000;  825.000
927.171;   31.225; 1107.000; 1044.000
927.410;   36.750; 1144.000;  967.000
927.649;  -17.525;  924.000;  742.000
927.888;  -29.075;  590.000;  564.000
928.127;  -37.000;  680.000;  678.000
928.366;   -7.000;  842.000;  826.000
928.605;  -11.250;  831.000;  737.000
928.844;   53.950; 1451.000; 1393.000
929.083;  -43.550;  770.000;  613.000
929.321;   62.650; 1335.000; 1359.000
929.560;   32.300; 1158.000; 1122.000
929.799;  -39.675;  574.000;  475.000
930.038;   54.050; 1025.000; 1394.000
930.276;  -42.675;  334.000;  397.000
930.515;  -32.675;  827.000;  681.000
930.753;  -36.125;  614.000;  589.000
930.992;  -39.925;  664.000;  717.000
931.230;  -15.450;  847.000;  847.000
931.469;  143.975; 2162.000;  892.000
931.707;   50.225;  840.000;  751.000
931.946;   29.875; 1278.000; 1344.000
932.184;   33.975; 1437.000; 1175.000
932.423;   19.700; 1265.000;  963.000
932.661;   50.375; 1296.000; 1428.000
932.899;  -19.650;  987.000;  821.000
933.137;  -14.225;  754.000;  564.000
933.376;   46.975; 1664.000; 1335.000
933.614;   84.200; 1759.000; 1196.000
933.852;    8.950; 1357.000; 1171.000
934.090;   90.325; 1722.000; 1747.000
934.328;   45.625; 1252.000; 1457.000
934.566;   34.275; 1431.000; 1110.000
934.804;   25.625; 1263.000; 1309.000
935.042;   65.200; 1861.000; 1850.000
935.280;  124.775; 2088.000; 2063.000
935.518;  125.500; 2113.000; 2007.000
935.756;  142.925; 2481.000; 2316.000
935.994;   73.300; 1808.000; 1751.000
936.231;  219.825; 2890.000; 2950.000
936.469;  140.950; 2367.000; 2378.000
936.707;  118.725; 2220.000; 2167.000
936.945;  191.725; 2825.000; 2882.000
937.182;  183.400; 2679.000; 2741.000
937.420;  238.025; 3602.000; 3031.000
937.657;  285.100; 3365.000; 3478.000
937.895;  279.225; 3331.000; 3488.000
938.133;  278.200; 3540.000; 3528.000
938.370;  311.550; 3896.000; 4191.000
938.607;  365.725; 4488.000; 4205.000
938.845;  516.775; 5587.000; 5549.000
939.082;  450.700; 5387.000; 5177.000
939.320;  517.475; 5799.000; 5728.000
939.557;  598.050; 6549.000; 6491.000
939.794;  659.250; 7285.000; 7097.000
940.031;  779.625; 8421.000; 8368.000
940.269;  888.850; 9552.000; 9107.000
940.506; 1027.475;10901.000;10507.000

