
Integration time [ms]: 100.000
Averaging Nr. [scans]: 40
Smoothing Nr. [pixels]: 0
Data measured with spectrometer [name]: 2101013U2
Wave   ;Sample   ;Dark     ;Reference
[nm]   ;[counts] ;[counts] ;[counts] 

394.013;   72.321; -450.257; -315.536
394.305;  248.494; -461.258; -419.536
394.596; 1104.890; -676.269; -527.514
394.887; 2645.132; -796.268; -654.518
395.178; 1009.088;  145.736;   11.476
395.470;  100.749; -210.263; -356.526
395.761;  240.422;  305.734;  394.479
396.052;  390.363; -545.284; -306.489
396.343;  394.459; -557.276; -454.503
396.634;  146.852; -200.279; -290.497
396.926;  149.229; -618.268; -565.517
397.217;  142.039;   11.725;  -17.504
397.508;   62.905; -366.273; -154.507
397.799;   66.177; -555.279; -571.497
398.090;   19.872; -973.280; -902.495
398.381;  147.638;   11.708;  -11.473
398.672;   14.864; -585.292; -742.473
398.963;   77.134; -348.279; -373.498
399.254;  127.898;   54.709; -209.475
399.545;   -2.632;-1017.266; -883.520
399.836;   85.323; -407.277; -343.501
400.127;   71.339; -205.295; -209.468
400.418;   84.074; -423.274; -392.506
400.709;   77.184; -359.281; -333.493
401.000;   60.402; -268.291; -309.476
401.290;  127.724;  225.698;  115.545
401.581;   66.796; -166.286; -228.485
401.872;   42.460; -542.298; -486.462
402.163;   74.581; -313.296; -252.467
402.454;   97.874; -123.291; -163.475
402.744;  112.222; -844.297; -813.465
403.035;  496.754; -226.293;  -86.471
403.326;  652.317; -366.292; -384.474
403.617;  416.380;  204.701;  165.539
403.907;  259.419; -593.283; -679.490
404.198; 2350.878; -545.307; -599.446
404.489; 6157.099; -618.283; -588.491
404.779; 2112.178; -618.302; -660.456
405.070;  242.181;  -67.304; -174.451
405.360;  346.856; -259.293; -238.472
405.651;  368.464;  125.699;   98.542
405.942;  210.891;  209.714;  127.516
406.232;  317.581; -432.285; -413.487
406.523;  549.473;  641.706;  758.530
406.813;  121.318; -579.286; -644.484
407.104;  401.061;  261.708;  144.527
407.394;  226.956; -604.299; -591.462
407.685;  159.080;  336.715;  222.513
407.975;   80.273; -400.283; -382.490
408.265;  128.113; -134.289; -190.478
408.556;   82.045; -472.291; -459.475
408.846;  165.224;  474.706;  429.530
409.137;   91.672;   -1.288; -216.480
409.427;   51.131; -193.285; -271.487
409.717;   37.708; -776.273; -692.508
410.007;  154.699;    4.715; -170.486
410.298;  121.641; -360.295; -342.469
410.588;   79.878; -495.285; -510.486
410.878;   41.208; -792.287; -873.482
411.168;  151.538; -481.298; -478.463
411.459;  132.142; -295.283; -242.489
411.749;   81.319; -609.292; -507.474
412.039;   79.245; -755.289; -386.480
412.329;  227.141;   40.722;  132.501
412.619;  215.094;  -62.286; -148.485
412.909;  378.341;  639.711;  594.521
413.199;  366.672; -130.280; -251.495
413.490;  443.181;  521.710;  352.523
413.780;  169.776;-1013.279; -913.496
414.070;  337.310;  -46.276;  235.497
414.360;  415.987; -729.278; -666.498
414.650;  437.929; -726.288; -688.482
414.940;  550.975; -538.280; -441.496
415.230;  923.001;   50.712;   74.519
415.520; 6037.289;  155.730;   66.486
415.809;23772.433; -305.281; -125.493
416.099;18111.075; -388.277; -229.501
416.389; 5013.072;  435.726;  236.494
416.679; 2924.453;   91.738;   85.473
416.969;  521.587; -527.287; -503.483
417.259;  495.528;  341.721;  171.503
417.549;  707.532;  522.718;  318.508
417.838; 1604.156; -205.268; -147.518
418.128; 5389.387;  650.710;  492.522
418.418; 4422.039; -491.272; -579.509
418.708; 3029.972;    9.726;  -48.506
418.997;11298.068; -474.275; -480.505
419.287;11577.879; -733.273; -790.507
419.577;10843.267; -160.283; -123.489
419.866;36365.173; -588.277; -498.501
420.156;37571.285; -242.270;  -55.513
420.446; 6742.020; -112.263;  -26.526
420.735;  922.979; -376.271; -446.512
421.025;  864.311; 1830.722;  315.502
421.314;  755.527; -203.271; -226.512
421.604; 1693.524;   89.732;  233.484
421.893;  955.023; -705.271; -602.511
422.183;  243.295; -487.263; -461.526
422.472;  393.650;  -36.271; -107.511
422.762;  471.624; -416.266; -379.521
423.051;  285.535; -916.276; -916.503
423.341;  321.731; -491.273; -439.507
423.630;  431.780; -121.265;   15.477
423.919;  394.567;   58.725;   49.495
424.209;  353.901;  -31.263;   56.473
424.498;  513.679;   68.732;  161.483
424.787; 1095.335; -535.267; -601.518
425.077; 3382.529;   34.735;   29.478
425.366; 4928.906; -734.262; -744.528
425.655; 9607.131;  639.727;  259.493
425.945;20193.462; -313.247; -268.554
426.234;11128.729;  117.741;  300.467
426.523; 4998.710;  -86.259; -350.534
426.812; 6818.970;  107.734;  159.480
427.101; 9942.045; -127.269; -323.515
427.390;12754.514;  -55.270;  -86.514
427.680; 3124.079; -624.257; -411.538
427.969;  529.465; -330.255; -301.540
428.258;  342.296; -385.257; -477.536
428.547;  586.243;  449.728;  397.490
428.836; 1414.432; -421.253; -398.543
429.125; 2022.811; -199.259;  -72.534
429.414;  887.105; -330.251; -294.548
429.703; 3109.780; -231.251; -213.548
429.992; 9155.658; -938.250; -828.549
430.281; 5922.988; -397.264; -331.524
430.570;  626.770;  -21.252;   32.454
430.859;  639.784;  279.741;  352.466
431.148;  479.133;  636.752;  631.446
431.437;  316.719;  391.748;  367.454
431.725;  174.372; -544.257; -481.536
432.014;  149.114; -845.253; -756.545
432.303;  411.434; -149.239; -105.569
432.592;  708.570; -460.263; -178.525
432.881; 1045.884; -601.248; -437.554
433.169; 5963.116; -343.255;  -61.540
433.458;12115.843;  445.765;  540.424
433.747; 5067.987; -397.261; -289.529
434.036;  971.310; -275.242; -280.564
434.324; 2080.946; -395.249; -379.551
434.613; 3559.703;   40.757;  159.437
434.902; 1211.424;  333.760;  439.433
435.190;  664.358;   75.761;  295.431
435.479;  402.160;  -52.245;   83.441
435.767;  129.543; -411.244; -427.561
436.056;  229.330; -340.242; -294.563
436.345;  387.826; -372.240; -223.568
436.633;  418.441;   60.750;  383.450
436.922;  294.304;  208.760;  414.432
437.210;  730.108; -194.236;    1.426
437.499; 2376.641; -583.235; -432.576
437.787; 2613.658; -339.236;  -10.574
438.075;  645.438;   56.761;  162.430
438.364;  859.616;  -44.238;  250.429
438.652;  533.622; -286.226; -138.592
438.941;  175.160;    3.770;  269.415
439.229;   30.867; -665.252; -466.545
439.517;   50.050; -160.234;  -85.577
439.806;    9.013; -501.225; -290.595
440.094;  203.207;  377.766;  650.421
440.382;  224.486; -653.233; -302.580
440.670;  247.441; -361.235; -285.576
440.959;   46.805; -347.223; -170.599
441.247;   97.422; -151.229; -109.587
441.535;  141.173; -266.235;   31.423
441.823;   61.455; -497.234; -305.578
442.111;  199.801;  173.771;  327.412
442.400;  624.434; -628.245; -335.559
442.688; 1688.832; -111.234; -620.579
442.976; 1232.319; -786.213; -450.617
443.264;  125.894; -324.224; -364.597
443.552;  125.248; -258.226;   51.408
443.840;  181.372;  602.765;  876.423
444.128;  119.110;  265.767;  269.420
444.416;   15.404; -694.228; -312.588
444.704;   40.610; -465.219;  -92.605
444.992;   89.001;   -0.226;  240.407
445.280;   71.761; -517.230;  -94.585
445.568;   65.822; -694.212; -396.618
445.856;  400.044; -174.221;  357.398
446.143;  865.131;  -54.220;   -7.604
446.431;  739.707;  -25.228;  625.411
446.719;  262.379;  489.783;  675.391
447.007;  199.880;  481.769;  705.416
447.295;  167.752;  597.777;  871.402
447.583;  104.020; -464.229;  -34.587
447.870;  176.741; -434.221; -202.601
448.158;  458.760; -104.230;  129.415
448.446;  373.257; -800.219; -338.604
448.733;  183.471;   13.776;  269.403
449.021;  271.922;   60.788;  341.382
449.309;  195.062; -296.210;  208.379
449.596;  225.876;  128.783;   59.392
449.884;  157.884; -571.222; -325.600
450.172;  158.163; -756.227; -406.590
450.459;  426.602;  645.786;  780.387
450.747; 2272.824; -411.218; -147.608
451.034; 7240.784;  493.772;  889.411
451.322; 5865.505; -413.214; -170.614
451.609;  515.997;  292.777;  508.403
451.897;  575.976; -550.203; -183.634
452.184; 1763.077; -622.223; -400.598
452.472; 1643.359;   97.792;  269.375
452.759;  348.583;  512.781;  864.395
453.047;  125.344; -407.212; -125.617
453.334;   94.266; -732.219; -216.606
453.621;   96.782; -438.214; -161.615
453.909;  122.742;   13.796;  384.368
454.196;  126.888; -299.199; -123.641
454.483;  225.689;  317.798;  540.364
454.771;  147.937; -215.208;  196.374
455.058;   45.665; -316.207;  102.374
455.345;  108.769;   71.807;  344.347
455.632;   92.943; -128.207;  235.373
455.919;   42.136;  -82.196;  182.354
456.207;  -45.807; -774.198; -450.642
456.494;   -3.599; -475.200;  -66.639
456.781;   13.509; -399.202; -198.635
457.068;   60.500; -253.206;  -29.628
457.355;    2.901; -698.206; -401.629
457.642;   13.357; -552.205; -290.630
457.929;   16.660; -778.194; -417.651
458.216;   57.320; -575.212; -354.617
458.503;  222.540; -173.193;  -19.652
458.790;  221.009; -864.208; -630.625
459.077;  281.864;  -77.202;  110.364
459.364;  763.678; -350.195; -210.649
459.651; 1651.323;  -46.206;  220.372
459.938;  752.275; -864.209; -665.623
460.225;  170.093;  132.799;  276.363
460.512;  -22.517; -836.197; -688.645
460.799;  108.673;  -32.218;  320.392
461.086;   83.280; -370.200; -251.640
461.372;   49.743; -509.198; -279.642
461.659;  126.687; -165.196;  108.354
461.946;   73.688; -445.193;  -54.651
462.233;  251.428;  842.800;  888.361
462.519;  345.900; -814.201; -464.639
462.806; 1003.334; -768.197; -497.645
463.093;  853.184; -445.191;  -66.656
463.380;  -11.949; -920.186; -824.664
463.666;   57.660; -259.197;  -18.646
463.953;   95.473; -406.195; -243.648
464.239;  190.423; -173.195;  -77.648
464.526;  407.433;  413.806;  743.350
464.813;  360.996; -565.190; -304.658
465.099;  381.639;  606.807;  607.348
465.386;  354.643;  903.807;  921.348
465.672;   50.484; -694.197; -522.645
465.959;   44.089; -598.188; -520.662
466.245;   29.943; -468.193; -359.652
466.532;  106.945; -109.195;   63.352
466.818;   86.900; -357.186; -216.664
467.104;   15.266; -488.182; -415.672
467.391;   -9.427; -628.189; -459.658
467.677;   46.229; -289.186;    9.335
467.964;    2.629; -682.189; -471.660
468.250;   78.107; -331.186; -160.665
468.536;   73.199;   90.811;  180.341
468.822;  -20.681; -821.184; -574.668
469.109;  139.772;  351.827;  471.311
469.395;  187.528;  729.808;  787.346
469.681;  190.677;   46.811;  156.341
469.967; 1193.107; -699.188; -382.660
470.254; 2607.390; -494.188; -306.662
470.540; 1654.411; -601.196; -476.646
470.826;  250.177; -488.181; -397.675
471.112;  297.347;  288.816;  113.331
471.398;  102.552; -253.183;  -58.670
471.684;   53.181; -626.177; -447.680
471.970;    4.681; -918.180; -981.675
472.256;   34.502; -521.192; -441.654
472.542;   13.258; -499.171; -434.691
472.828;   25.487; -743.182; -607.672
473.114;   39.102; -380.166; -283.700
473.400;   25.322; -504.175; -293.684
473.686;   46.234; -452.166; -400.701
473.972;   54.637; -230.174; -131.687
474.258;  -29.878; -925.173; -843.689
474.544;  192.372; -183.178;   -2.679
474.830;  281.974;  -65.175;   45.316
475.116;  448.772; -123.190; -196.658
475.401;  584.783; -558.180; -467.676
475.687;  202.957; -725.180; -718.676
475.973;   17.870; -673.181; -770.673
476.259;  264.876;  736.825;  764.315
476.544;  361.139; -539.176; -437.682
476.830;  796.929; -398.172; -322.690
477.116;  655.662; -430.177; -336.682
477.401;  134.883;  346.820;  358.324
477.687;  -11.052; -289.175; -405.684
477.973;   45.073;   21.819;   28.326
478.258;    0.429; -448.163; -348.706
478.544;   61.287;   21.815;   61.334
478.829;  -34.111; -818.171; -738.692
479.115;  -25.396; -749.172; -651.690
479.401;    0.458; -444.174; -449.686
479.686;   33.657; -253.180;  -74.676
479.972;  -36.497; -886.178; -776.680
480.257;   29.829; -258.166;  -65.700
480.542;    8.343; -614.170; -469.693
480.828;  231.096; 1288.824; 1392.317
481.113;  -20.231; -464.176; -426.683
481.399;   -3.272; -236.161; -202.711
481.684;  -52.272; -620.166; -462.700
481.969;   15.717; -158.159;  -73.713
482.255;    1.604; -439.169; -285.695
482.540;   -2.072; -569.178; -441.680
482.825;   13.671; -395.187; -404.663
483.110;   81.182;  -85.169; -105.696
483.396;  174.389; -840.157; -652.718
483.681;  455.337;  543.826;  730.313
483.966;  143.011; -696.160; -700.712
484.251;    5.311; -404.174; -310.687
484.536;   -5.736; -356.165; -378.703
484.822;    5.339; -205.173; -218.687
485.107;  -14.698; -599.152; -502.726
485.392;  118.895;  662.836;  541.296
485.677;   67.367;  354.832;  163.302
485.962;  107.461;  160.843;  270.283
486.247;  106.487;  -14.162;   -8.707
486.532;   39.230; -178.166; -325.701
486.817;  166.548;  381.839;  431.291
487.102;  135.260; -453.154; -514.722
487.387;  628.066; -637.156; -652.718
487.672; 1098.700; -154.164;  -38.705
487.957;  678.905; -394.160; -286.711
488.241;  189.669; -290.150; -314.729
488.526;  696.829; -280.152; -148.726
488.811; 1106.630; -881.177; -818.680
489.096;  824.663; -666.154; -702.723
489.381;  478.875;    3.847;  162.275
489.666;  342.228; -428.161; -510.710
489.950;  163.391;  558.846;  627.277
490.235;  -19.061; -480.151; -458.728
490.520;  -35.498; -756.161; -723.710
490.804;  -53.557; -827.156; -736.719
491.089;   10.235; -469.149; -299.732
491.374;   34.774; -132.164;  -75.704
491.658;   -3.529; -817.147; -717.735
491.943;  190.858; -657.152; -609.727
492.227;  285.831; -178.155;  -38.721
492.512;   60.311; -294.157; -341.717
492.797;  -55.171; -713.149; -716.731
493.081;  -45.301; -588.147; -598.735
493.366;  -32.621; -751.161; -635.711
493.650;  207.428;  831.859;  917.254
493.935;   35.421; -648.147; -447.734
494.219;  -40.235; -778.142; -687.743
494.503;  -43.776; -585.150; -487.730
494.788;   63.152;   46.842;   74.285
495.072;  102.595;  184.850;  434.271
495.356;  162.038; -463.148; -343.733
495.641;  467.306; -812.146; -736.736
495.925;  479.848; -976.156; -903.719
496.209;   44.559; -599.149; -451.732
496.494;  -29.884; -763.142; -544.744
496.778;   12.810; -364.154; -360.722
497.062;  -52.378; -819.156; -627.719
497.346;  -23.743; -869.160; -640.711
497.631;  127.567;  580.852;  560.266
497.915;   78.366;  -64.145;  175.261
498.199;   57.089; -341.157; -277.718
498.483;   46.927; -562.152; -508.725
498.767;  175.271;  301.850;  300.271
499.051;  199.832; -126.149; -100.732
499.335;   21.755; -693.149; -739.731
499.619;  -30.945; -381.129; -423.767
499.903;   32.629; -272.155;  -65.721
500.187;   46.817; -588.153; -316.724
500.471;   21.857; -796.152; -595.727
500.755;  133.702;   62.839;  -96.710
501.039;   40.030; -270.155; -357.721
501.323;   98.205;  -21.141;  264.254
501.607;   45.530; -447.163; -503.706
501.891;    8.065; -607.156; -512.718
502.174;  -21.147; -726.144; -585.741
502.458;   79.736;   89.849;  370.273
502.742;   46.129; -180.138; -191.751
503.026;   88.895; -412.147; -254.734
503.310;  146.491; -437.159; -375.713
503.593;  108.447; -464.147; -325.735
503.877;  124.794; -232.133; -156.760
504.161;  187.095;    2.847;  -50.724
504.444;  144.430; -841.158; -710.716
504.728;  437.048; -487.164; -522.704
505.012;  673.943; -257.150;  -76.729
505.295;  514.903; -417.161; -212.711
505.579;  505.397; -256.156; -496.719
505.862;  689.463; -555.145; -333.738
506.146;  676.868; -681.159; -758.714
506.429;  368.294;  568.841;  461.286
506.713;   75.990; -732.151; -667.728
506.996;  291.660;   90.846;  295.278
507.280;  317.693; -633.165; -474.703
507.563;  228.228; -469.155; -261.721
507.847;   84.418; -423.153; -112.724
508.130;   75.379; -665.161; -456.711
508.413;  106.074; -758.167; -577.700
508.697;  237.925; -151.167;   12.300
508.980;  137.670; -422.153; -312.724
509.263;   -8.001; -466.155; -450.720
509.547;   37.518; -124.150;   82.271
509.830;   41.931; -172.160;  140.289
510.113;   87.472;  128.844;  298.281
510.396;   43.050; -530.152; -300.725
510.680;  192.714; -818.145; -812.738
510.963;  767.664;  184.846;  180.277
511.246;  671.676; -493.150; -357.730
511.529;  278.419; -482.145;  -83.739
511.812;  357.066; -250.134;   10.241
512.095;  234.688; -740.151; -396.728
512.378;   75.876; -317.147; -245.736
512.661;   38.111; -703.137; -623.753
512.944;   19.192; -750.142; -637.744
513.227;   65.884; -170.137; -171.752
513.510;   38.053; -479.144; -671.741
513.793;   29.934; -485.140; -435.747
514.076;  132.451;  -43.127;  -39.771
514.359;  103.385; -294.149; -135.732
514.642;   85.170; -442.142; -567.744
514.925;  694.382;  581.860;  561.253
515.208;  934.162; -498.134; -443.758
515.491;  612.751; -276.133; -182.761
515.773;  354.056; -410.143; -337.742
516.056; 1943.018;  249.864;  409.246
516.339; 2680.997; -754.136; -652.755
516.622; 1987.423; -518.150; -488.730
516.904; 1463.863;  882.857;  975.257
517.187;  682.757; -730.138; -523.752
517.470;  414.312; -568.143; -510.743
517.752;  413.150; -624.136; -470.756
518.035;  328.070; -708.139; -725.749
518.318;  326.622; -799.136; -744.755
518.600; 2212.330; -300.132; -325.762
518.883; 3070.369;  310.858;   88.256
519.165; 1463.725; -585.138; -426.751
519.448;  421.754;  -61.132;  -19.762
519.730;  215.708; -573.126; -415.773
520.013;  334.497;  588.867;  664.240
520.295; 1006.667;  -94.134;  -15.759
520.578; 2229.967; -335.131; -305.764
520.860; 2471.954; -254.132;   56.238
521.143; 1275.202; -763.135; -584.756
521.425;  473.121; -251.125; -279.775
521.707;  649.576; -622.127; -380.771
521.990; 1641.352; -199.127;  167.229
522.272; 1869.586; -116.140;   -4.748
522.554;  907.182; -237.143; -157.742
522.836;  400.390;  -24.134;   99.241
523.119;  252.269; -496.148; -189.734
523.401;  177.124; -448.130; -314.766
523.683;   96.137; -865.137; -693.753
523.965;  252.605;  408.862;  260.248
524.247;  265.768;   54.878;  170.220
524.529;  201.667; -451.134; -367.759
524.812;  343.376;   -3.130;  191.234
525.094;  797.454; -773.138; -631.751
525.376; 1287.455; -143.124;   78.223
525.658;  778.269; -441.136; -339.754
525.940;   32.214; -805.131; -671.764
526.222;   54.173; -188.136;  -88.755
526.504;  141.487; -190.131;   32.237
526.786;  239.070; -960.133; -647.760
527.068;  363.636; -124.123;  -67.778
527.349;  184.941; -865.137; -774.754
527.631;  137.854; -137.132;   22.238
527.913;  120.650; -664.127; -450.771
528.195;  149.989; -761.125; -639.774
528.477;  218.612;  -93.134;  -30.758
528.759;  128.076; -648.130; -522.766
529.040;   58.910; -569.123; -293.778
529.322;   67.867; -235.125;  -10.774
529.604;  151.878;  -47.130;   93.233
529.886;  152.883; -546.126; -302.773
530.167;  136.445;  232.870;  192.235
530.449;   44.301;    1.853;   63.265
530.731;   18.567; -572.122; -459.779
531.012;   54.013; -513.120; -216.784
531.294;   47.152; -118.116;  -43.792
531.575;  142.271;  290.875;  538.225
531.857;   46.557; -548.135; -266.757
532.138;   97.478; -113.141;   40.254
532.420;  188.128;  294.865;  403.244
532.701;  263.372; -722.133; -751.760
532.983;  396.100;  232.867;  182.239
533.264;  145.806; -243.126;  175.228
533.546;  -12.853; -491.136; -508.755
533.827;   57.819;  173.867;   -1.759
534.109;   51.857; -352.135;  -80.757
534.390;  101.558; -725.132; -582.762
534.671;  256.978; -270.135;  -82.756
534.953;  151.688; -751.123; -611.779
535.234;   24.712; -426.117; -255.789
535.515;  -75.504; -891.119; -735.785
535.796;  -18.579; -431.128; -193.770
536.078; -105.270;-1050.124; -904.777
536.359;    6.238;  -22.123;    3.221
536.640;   -6.059; -480.125; -197.774
536.921;  157.109;  225.871;  143.232
537.202;  355.376;  -87.138;  -16.751
537.483;  438.067;  251.869;  377.236
537.764;  185.595;   17.870;   98.235
538.045;  -26.314; -543.134; -371.758
538.326;  -32.815; -596.129; -447.768
538.607;    9.477; -686.127; -476.771
538.888;  159.204;   98.879;    5.218
539.169;  178.023; -704.122; -535.781
539.450;  335.133;  236.871;   16.233
539.731;  216.033; -361.121; -182.783
540.012;  135.838;  199.880;  412.216
540.293;  103.625;   82.876;  158.224
540.574;   33.498; -895.113; -717.796
540.855;  471.206;  435.879;  377.218
541.136;  521.321;   47.878;  139.220
541.416;  264.577; -161.130; -220.766
541.697;  186.137; -274.131; -170.763
541.978;  988.580; -270.135; -315.757
542.259; 1235.577; -211.127; -236.771
542.539;  563.146; -191.116; -186.790
542.820;  205.321;  461.875;  480.225
543.101;  147.441;  -52.145;  -77.738
543.381;   42.077; -638.127; -591.771
543.662;  246.899;  159.873; -254.771
543.942;  540.297; -751.127; -830.770
544.223;  989.597;  193.878;  161.219
544.504;  651.280; -275.124; -182.777
544.784;  547.033; -592.126; -408.773
545.065; 1577.700;  104.884; -254.791
545.345; 1863.821;  227.881;   14.215
545.626; 1182.947;  -14.113; -108.796
545.906;  814.320;   77.869;   98.235
546.186;  320.163;   92.874;  -95.773
546.467;  184.757;   99.877;  -95.778
546.747;  306.196;  264.884;  327.210
547.027;  367.328;   91.876;  111.223
547.308;  302.972; -376.127; -530.770
547.588;  379.986;  299.871;  371.232
547.868;  192.096;  458.870;  588.235
548.149;  185.557;  609.885;  593.207
548.429;  125.975; -347.127; -299.771
548.709;  172.412; -645.120; -461.784
548.989;  440.781;   84.882;   88.213
549.269; 1926.553;   10.868;  139.239
549.550; 4458.962;  215.877;  117.222
549.830; 4004.315; -758.111; -556.799
550.110;  785.448; -468.110; -320.801
550.390;  780.442; -128.122;  -56.779
550.670; 1097.868; -868.114; -783.795
550.950;  754.906; -509.121; -471.782
551.230;  184.352;  549.879;  460.218
551.510;    1.030; -381.121; -326.782
551.790;   24.656; -173.109; -127.803
552.070;  241.607;  940.877; 1181.223
552.350;  380.575; -492.119; -377.786
552.630;  550.625;   -2.121;   77.219
552.909;  330.150;  181.884;   73.209
553.189;  216.334;  -49.132;   33.237
553.469;  165.675; -703.119; -514.786
553.749;  168.328; -469.127; -357.772
554.029;  146.866;   33.883;  -24.790
554.308;  124.811; -154.115;  -37.794
554.588;   63.470; -196.128; -204.770
554.868;   61.057; -366.121;  -47.782
555.147;  125.759; -114.115;  -46.793
555.427;  546.303; -260.116; -250.792
555.707; 3610.581; -284.115; -200.793
555.986; 4368.744; -719.111; -538.800
556.266; 2243.044;   23.884;   72.210
556.546;  115.905; -888.121; -675.782
556.825;  224.991; -657.114; -556.794
557.105; 1661.368; -125.128;   17.230
557.384; 1917.249;  122.884;  187.209
557.664;  746.552; -717.116; -508.792
557.943;  100.606; -557.121; -411.782
558.222;  165.434; -345.118; -344.788
558.502;  247.685; -116.115;  -76.793
558.781;  459.405;  194.885;  499.208
559.061;  391.559; -232.118; -227.788
559.340;  280.389;  302.883;  353.211
559.619;  650.069;   93.884;  148.210
559.899;  943.941; -239.117; -266.789
560.178;  865.759; -778.115; -593.793
560.457; 2899.717; -623.117; -562.790
560.736; 4053.195; -472.111; -482.800
561.015; 2674.641; -500.128; -502.769
561.295;  363.976;  180.893;  215.193
561.574;  318.957;  119.885;  116.207
561.853;  484.785;  274.891;  303.197
562.132;  446.587;  -45.114;  182.206
562.411;  413.450;  396.879;  553.219
562.690;  124.455; -592.115; -458.792
562.969;  126.704;  472.888;  630.203
563.248;  486.948; 2966.878; 2487.219
563.527;  228.194; -290.111; -408.800
563.806;  346.350; -650.127; -521.771
564.085;  387.116; -297.105; -206.810
564.364;  197.569; -594.117; -405.790
564.643;  436.626; -276.121; -223.781
564.922; 1716.129;  221.890;  397.198
565.201; 1739.033; -640.109; -700.803
565.479;  728.804; -297.115; -219.792
565.758;  307.318; -810.128; -712.770
566.037;  454.809; -155.109; -100.803
566.316;  210.199; -286.116;  -28.791
566.595;   50.032;  -17.115;  -12.793
566.873;   80.046; -166.111;  -79.801
567.152;  -53.596; -490.113; -590.797
567.431;   15.720; -113.116;    6.210
567.709;    4.251; -344.107; -212.807
567.988;  249.141; -810.114; -769.794
568.266;  490.957; -160.115;  -68.793
568.545;  357.388; -644.100; -514.819
568.824;  540.953;  160.885;  356.208
569.102;  490.965; -351.114; -235.794
569.381;  187.077; -492.116; -407.792
569.659;  -44.775; -553.113; -553.796
569.938;   22.946; -743.122; -465.780
570.216;  100.036; -225.109; -225.804
570.494;  -14.681; -632.114; -572.795
570.773;   32.479;  202.879;  114.218
571.051;    7.810; -373.123; -357.778
571.330;   64.523; -221.113; -174.796
571.608;   46.556; -181.098; -173.823
571.886;  -63.712; -671.111; -581.799
572.164;  -62.393; -739.121; -621.782
572.443;  -49.605; -562.105; -512.811
572.721;  -32.883; -399.117; -289.790
572.999;  -25.864; -280.117; -168.788
573.277;   91.738;  379.894;  620.191
573.555;  264.940;   94.894;   37.190
573.834; 1241.386;  -86.117; -114.788
574.112; 1423.678;  880.893;  811.193
574.390;  430.645; -143.111;  -96.801
574.668;    4.505;  -91.112;  -61.797
574.946;   -5.659; -165.106; -187.810
575.224;    6.407;   71.891;  -16.803
575.502;   -1.553; -200.116; -204.791
575.780;  -79.119; -767.112; -829.798
576.058;  225.469; 1589.889; 1004.200
576.336;  -30.100; -210.110; -129.801
576.614;  -55.694; -511.112; -340.798
576.891;   38.436; -711.115; -823.794
577.169;  449.544; -158.108; -285.805
577.447;  541.978;  169.893;  202.193
577.725;  239.136;  629.888;  854.201
578.003;    7.209;  -71.112; -371.798
578.280;   74.229; -208.104; -242.812
578.558;   77.910; -450.115; -422.793
578.836;  143.018; -210.114; -145.795
579.114;   45.830; -630.112; -670.797
579.391;   70.112;   -6.117;  -18.789
579.669;  -80.913; -595.114; -704.794
579.947;  140.600; -326.107; -127.806
580.224;  302.574; -692.107; -524.806
580.502;  298.304;  127.893;   76.193
580.779;   23.218;  -42.117;   75.210
581.057;  -69.813; -584.109; -470.804
581.334;  -94.931; -726.102; -695.815
581.612;   38.241;   54.895;  511.190
581.889;  -32.518;  -83.101; -129.818
582.167;  -34.304; -298.099; -190.821
582.444; -101.023; -845.102; -814.817
582.721;  107.677;  657.899;  715.183
582.999;   27.794; -326.100; -167.821
583.276;  470.590; -812.123; -713.779
583.553;  651.697; -364.102; -294.816
583.831;  193.450; -607.104; -631.812
584.108;   55.517;  349.892;  174.195
584.385;   12.568; -122.102;  -98.815
584.662;  -67.803; -651.111; -828.801
584.940;   30.196;  204.889;  204.199
585.217;  -27.450;  -73.113; -303.796
585.494;   29.505;   71.890;  118.198
585.771;  193.287; -250.109; -354.804
586.048;  462.925; -196.113;  -76.796
586.325;  293.274; -721.110; -773.801
586.602;   86.279;  230.896;  213.188
586.879;  -26.460; -499.100; -580.820
587.156;   34.092; -156.105; -331.810
587.433;  -35.650; -701.102; -667.817
587.710;   68.532;  152.888;  234.202
587.987;  274.072; -264.105; -236.811
588.264;  740.859;  315.888;  387.202
588.541; 1274.157;  -61.104;   26.187
588.818; 2507.840;   72.892;  171.196
589.095; 2194.852; -163.104; -174.812
589.371;  349.685; -459.109; -414.804
589.648;   17.253; -581.107; -437.807
589.925;   22.244; -517.114; -621.795
590.202;    3.182; -741.112; -607.798
590.478;   78.199; -166.105;  -73.811
590.755;  240.621; -241.108; -132.806
591.032; 2266.776; -741.110; -699.802
591.308; 3182.372; -732.094; -790.831
591.585; 1629.476; -573.110; -560.802
591.862;  124.251;-1056.102; -950.817
592.138;   50.918; -475.108; -474.805
592.415;  118.280; -486.104; -495.813
592.691; 1366.728;  460.896;  518.188
592.968; 1800.558; -208.098; -123.824
593.244;  832.446; -695.116; -595.790
593.521;   51.176; -105.102;  -42.817
593.797;   -9.982; -810.122; -720.780
594.074;  306.746; -611.096; -588.826
594.350;  629.307;  828.905;  729.172
594.626;  279.797; -303.111; -283.801
594.903;  102.502; -643.101; -645.817
595.179;  186.434;  243.896;  418.187
595.455;    1.380; -136.107; -150.807
595.731;    2.560;  -19.103;  -38.814
596.008;  -40.409; -464.111; -434.800
596.284;   14.018; -187.100; -242.820
596.560;   58.053; -501.093; -493.833
596.836;  190.669; -173.105;  -70.810
597.112;  307.419; -582.108; -437.805
597.388;  267.944;  -49.097;  -48.826
597.665;  102.277;  437.887;  530.203
597.941;  -57.767; -572.089; -658.839
598.217;   -3.646; -323.110; -293.802
598.493;  246.814;   61.891; -204.804
598.769;  462.962; -175.100;  -50.819
599.045;  281.172; -490.108; -562.806
599.321;   58.142; -193.100; -261.820
599.597;  115.138; -355.109; -476.804
599.872;  442.457;  409.896;  429.187
600.148;  335.695;  -61.097; -172.826
600.424;  269.127;   91.893;  202.193
600.700;  219.354; -170.107; -280.807
600.976;  109.690; -442.097; -464.825
601.252;  214.610; -226.109; -272.803
601.527;  183.033; -833.104; -840.813
601.803;  141.075; -453.105; -404.812
602.079;  176.187; -124.100; -118.819
602.354;  502.688; -620.092; -531.835
602.630;  773.450; -140.113; -482.796
602.906; 2085.307; -910.101; -863.818
603.181; 6196.625; -627.119; -534.786
603.457; 5241.443;   98.903; -278.826
603.733;  765.609; -605.120; -626.783
604.008;  887.491; -245.106; -164.810
604.284; 2882.828; -636.101; -580.817
604.559; 2490.436;   -3.112;  -42.799
604.835;  455.844; -163.105; -225.810
605.110;  382.297; -732.099; -892.821
605.385;  656.781;  224.907;  267.167
605.661;  576.335; -625.095; -729.829
605.936; 1072.947; -664.108; -737.806
606.211;  890.942;  -17.103; -170.815
606.487;  175.614; -329.114; -376.794
606.762;   11.750; -791.119; -745.786
607.037;  -26.881; -501.105; -433.810
607.313;  -41.072; -589.096; -574.828
607.588;   -7.934; -375.106; -137.810
607.863;   42.932;  -28.101; -143.818
608.138;  169.028;  513.890;  516.198
608.413;   27.151; -576.099; -592.822
608.688;   26.244; -203.108; -267.805
608.964;  174.860; -509.106; -218.809
609.239;  233.891; -107.105; -212.810
609.514;  211.399;  281.895;  240.188
609.789;  597.754; -187.104; -716.812
610.064;  816.577; -435.096; -609.827
610.339;  795.360; -855.109; -799.804
610.614; 1086.092; -131.100; -315.820
610.889;  612.225;  215.895;  107.188
611.163;   24.450; -407.104; -591.812
611.438;   72.465;   81.886; -167.794
611.713;   -6.222; -467.101; -499.817
611.988;   42.131; -144.101; -328.818
612.263;  -20.031; -771.102; -717.815
612.538;  209.099;  385.887;  251.204
612.812;  171.393; -832.100; -911.820
613.087;  117.131; -358.098; -338.823
613.362;  -51.721; -497.107; -557.807
613.637;   32.538;  261.897;  138.186
613.911;  -27.911; -256.092; -345.835
614.186;   92.778; -249.107; -292.807
614.460;  612.033; -842.081; -758.854
614.735;  714.656;  -55.087;  -17.843
615.010;  135.346;   43.912;  -82.841
615.284;  224.643;  360.892;  246.195
615.559;  355.387; -792.092; -955.835
615.833;  253.449;  -76.099;  -87.822
616.108;    2.774; -225.090; -390.837
616.382;  130.883;  274.913;  402.156
616.656;  135.225; -241.090; -232.837
616.931;  458.099; -785.099; -700.822
617.205; 1016.558; -973.104; -979.813
617.480;  893.944;  -91.125;    6.225
617.754;  136.442; -396.125; -128.774
618.028;   13.362; -369.129; -382.768
618.302;   54.817;   73.892;  -25.805
618.577;  -66.836; -371.103; -518.815
618.851;  -47.843; -399.109; -600.803
619.125;  -50.658; -335.134; -378.759
619.399;  -44.567; -244.104; -374.813
619.673;  -50.897; -330.115; -515.792
619.947;  -43.482; -333.114; -448.795
620.222;  -18.277; -198.110; -204.801
620.496;    3.156;  -47.121;  -96.782
620.770;    5.598; -187.122;  -93.781
621.044;  190.642;  323.895;  346.190
621.318;  659.034; -653.120; -614.783
621.592;  600.332; -430.121; -409.783
621.866;  318.412; -476.112; -572.799
622.140;   20.422; -207.116; -356.791
622.413;   55.416;  138.889;  112.200
622.687;  -50.871; -746.101; -492.817
622.961;   17.392; -130.108; -143.805
623.235;  -74.383; -633.111; -661.800
623.509;  -84.551; -816.105; -848.811
623.783;   -8.400;  -12.107;   48.193
624.056;  -26.040; -254.120; -280.783
624.330;   41.355;   63.888;   -3.797
624.604;   25.094; -271.116; -355.790
624.877;   64.127;  180.890;   26.198
625.151;   31.688; -249.114; -238.794
625.425;  -36.465; -150.103; -283.814
625.698;  -51.505; -367.119; -374.785
625.972;  -82.595; -799.110; -765.802
626.245;   64.621;  685.884;  484.210
626.519;  -40.136; -426.120; -340.784
626.792;  -46.646; -192.107; -380.807
627.066;  -92.084; -485.122; -662.779
627.339; -100.200; -736.110; -663.802
627.613;   28.488;  351.880;  148.216
627.886;   53.806;  187.891; -612.803
628.160;   -6.691;  312.880; -161.783
628.433;  -87.753; -695.125; -703.775
628.706;  -81.511; -517.120; -615.784
628.979;   25.903;  296.876;  117.223
629.253;  -81.976; -785.119; -833.786
629.526;  332.131; -334.126; -253.772
629.799;  307.186; -641.123; -479.778
630.072;  128.538; -497.128; -516.769
630.346;  -76.829;-1115.116;-1080.790
630.619;  396.180; -467.107; -545.808
630.892;  576.417;  709.889;  593.200
631.165;  302.433;  790.896;  679.187
631.438;  -83.591;-1092.112;-1055.798
631.711;   54.014;  453.877;  257.221
631.984;  -51.434; -523.117; -624.789
632.257;  -70.888; -636.117; -681.789
632.530;  -48.355; -412.119; -433.785
632.803;   20.711; -109.115;    7.207
633.076;  -62.018; -360.123; -422.777
633.349;   15.018;  173.872;  121.231
633.622;  -44.781; -187.119; -240.785
633.895; -139.090; -903.120; -823.783
634.167;  -60.392; -496.126; -525.773
634.440;  -16.173;  -19.116; -137.792
634.713;   -3.002;  -22.119; -120.786
634.986;   82.382;  593.871;  453.233
635.258;  -74.616; -507.115; -597.793
635.531;   77.708;  742.882; -343.788
635.804;  -30.585; -303.117; -318.789
636.077;  -91.027; -830.116; -852.791
636.349;  -16.443; -586.115; -474.793
636.622;  375.131; 1695.874; 1392.228
636.894;  218.340; -474.120; -909.784
637.167;  133.275; -836.127; -789.771
637.439;   23.771; -278.128; -213.770
637.712;  -41.068; -312.126; -293.772
637.984;  -85.001; -635.116; -707.791
638.257;  356.458;  515.877;  488.222
638.529;  533.273; -881.125; -924.776
638.802;  234.038; -508.128; -449.769
639.074; -109.978; -927.122; -952.781
639.346; -118.641; -942.135; -930.757
639.619;    8.618;  -79.142; -319.744
639.891;   -5.084;  -83.122; -168.779
640.163;  -72.682; -689.122; -756.780
640.435;   30.395;  273.878;  103.220
640.708;    0.971;  -72.122; -132.780
640.980;  -38.227; -366.122; -362.781
641.252;  180.150;  -25.121;  -71.781
641.524; 1715.677;  580.879;  573.219
641.796; 1762.679;-1094.121; -907.782
642.068;  317.931; -191.121; -300.782
642.340;  -54.968; -486.121; -566.783
642.613;   41.234;  294.880;  323.217
642.885;  -91.389; -787.120; -878.783
643.157;  -39.487; -810.120; -658.784
643.428;   44.765;  170.880;  218.216
643.700;  -72.608; -498.120; -425.784
643.972;  -38.007;  -16.119; -133.785
644.244;  -93.905; -474.119; -559.785
644.516;  -53.703; -250.119; -114.786
644.788;   59.849;  662.881;  548.214
645.060;  -28.724;  -12.119; -124.786
645.332;  -87.622; -525.118; -535.787
645.603;   28.979;  479.882;  342.213
645.875;  -74.494; -334.118; -369.787
646.147;  166.433; 1487.882; 1242.212
646.418;  -87.440; -931.117; -918.788
646.690;  122.937; -714.117; -715.789
646.962;   16.164; -413.117; -451.789
647.233;  -14.059;   15.883;   11.211
647.505; -101.983; -595.117; -475.790
647.776;   24.444;  328.884;  229.210
648.048;   -9.904; -248.116; -418.790
648.320;  -70.052; -752.116; -679.791
648.591; -137.375;-1055.116; -958.791
648.862;  -94.173; -505.116; -577.792
649.134;   -0.247;  115.885;  198.208
649.405;  -48.720; -661.115; -618.792
649.677;  -58.843; -475.115; -598.793
649.948;  -10.066; -181.115; -296.793
650.219;   -3.389;  -37.115; -147.793
650.491;  -71.087; -431.114; -520.794
650.762; -115.211; -705.114; -731.794
651.033;  -81.659; -437.114; -424.795
651.304;  -95.932; -743.114; -728.795
651.576;  -72.905; -680.114; -645.795
651.847;  -36.328; -250.113; -140.796
652.118;  -26.626;  -32.113; -189.796
652.389; -111.825; -639.113; -722.796
652.660;  -34.698; -147.113;  -89.797
652.931; -135.721; -897.112; -871.797
653.202; -104.544; -382.112; -541.798
653.473;  -62.517; -633.112; -533.798
653.744;  133.560; -595.112; -590.798
654.015;  122.712; -356.112; -303.799
654.286;  -66.487; -642.111; -663.799
654.557;  -55.160; -586.111; -521.799
654.828; -155.883;-1114.111;-1088.800
655.099;  -61.981; -404.111; -291.800
655.370;  -93.004; -427.111; -543.801
655.641; -112.052; -656.110; -714.801
655.911;  -97.276; -618.110; -638.801
656.182;   50.001;  437.890;  387.198
656.453;  102.653;  830.890;  746.198
656.724;  -70.970; -466.110; -426.802
656.994;  -84.918; -553.109; -568.803
657.265; -109.966; -862.109; -873.803
657.536;  -76.190; -500.109; -377.804
657.806; -103.388; -561.109; -593.804
658.077; -136.736; -866.109; -950.804
658.347;  -87.734; -523.108; -598.805
658.618; -116.107; -646.108; -694.805
658.888;  -23.155;  -41.108;  112.195
659.159;  -79.703; -432.108; -548.806
659.429;  -11.877; -292.108; -349.806
659.700;    2.600; -435.107; -390.807
659.970;  -19.498; -370.107; -359.807
660.241;   -5.946; -754.107; -921.807
660.511;  468.031; -147.107; -174.808
660.781;   78.533; -793.106; -748.808
661.052;  -27.241; -222.106; -381.808
661.322;  -14.714;   21.894;   -9.809
661.592;   13.638;  257.894;  148.191
661.862;  -76.660; -369.106; -382.810
662.133; -103.683; -551.105; -502.810
662.403; -129.006; -770.105; -676.810
662.673;  -65.380; -256.105; -213.811
662.943; -106.878; -612.105; -551.811
663.213;  -11.351;  -85.105;  -81.811
663.483;  -87.874; -593.104; -568.812
663.753;  -38.397; -194.104; -152.812
664.023;   -9.170;   68.896;  -32.813
664.293;  -55.619; -319.104; -126.813
664.563; -108.367; -694.104; -648.813
664.833; -114.390; -743.103; -608.814
665.103; -114.563; -730.103; -793.814
665.373; -110.736; -766.103; -806.814
665.643;  -76.334; -863.103; -918.815
665.913;   18.043; -534.103; -714.815
666.182;  120.644; -685.102; -719.816
666.452;  260.621;  -22.102;  -89.816
666.722;  -27.002; -724.102; -784.816
666.992; -122.900; -948.102; -921.817
667.261;  -94.573; -824.102; -808.817
667.531;  197.054;  134.899;   45.183
667.801;  552.255; -440.101; -412.818
668.070;  236.582;  714.899;  697.182
668.340; -103.066; -883.101; -840.819
668.609;   93.636;  588.900;  301.181
668.879;  -87.662; -490.100; -558.819
669.149;  -79.635; -539.100; -516.820
669.418;  -98.309; -698.100; -726.820
669.688;  -35.407; -482.100; -666.820
669.957;   62.620; -423.099; -546.821
670.226;  -34.028; -268.099; -331.821
670.496;  -90.626; -431.099; -635.822
670.765;  -75.599; -418.099; -501.822
671.034; -122.997; -872.099; -828.822
671.304;   -7.196;   55.902; -111.823
671.573; -146.444;-1085.098; -957.823
671.842;   53.783; -380.098; -294.823
672.112;    7.385; -692.098; -586.824
672.381;   14.487; -239.098; -214.824
672.650; -134.536;-1005.097;-1021.825
672.919;  -87.060; -631.097; -507.825
673.188;  -98.533; -681.097; -878.825
673.457; -153.456;-1101.097;-1143.826
673.726;  -72.629; -579.096; -646.826
673.995;  -47.202; -533.096; -479.826
674.265;  -25.750; -263.096; -333.827
674.534;    3.876; -183.096; -235.827
674.802;    5.428; -618.096; -703.828
675.071;  878.780; -886.095; -801.828
675.340; 3591.682; -464.095; -339.828
675.609; 1212.859;  103.905;   82.171
675.878;   54.486; -949.095; -893.829
676.147;   33.887;  -26.095;   -8.829
676.416;   88.964; -210.094; -294.830
676.685;  678.991; 1000.906; -622.830
676.953;   91.368; -603.094; -452.831
677.222;  -31.405; -193.094; -273.831
677.491;  -18.203;  -24.094; -127.831
677.759;  -17.251;   11.907;  172.168
678.028;  -14.375; -279.093; -222.832
678.297;   11.602;   71.907;  197.168
678.565; -151.871; -898.093; -944.833
678.834;  -60.519; -311.093; -268.833
679.102;  -70.017; -411.092; -391.834
679.371; -127.940; -898.092; -727.834
679.639; -132.364; -797.092; -786.834
679.908; -127.337; -794.092; -724.835
680.176; -156.785; -895.091; -941.835
680.445;  -78.558; -346.091; -352.835
680.713;  -21.256;  -58.091;  -23.836
680.982;  -94.829; -523.091; -525.836
681.250; -109.378; -578.091; -507.837
681.518;  -98.026; -534.090; -751.837
681.787;  -19.674; -204.090; -167.837
682.055;  -74.147; -490.090; -422.838
682.323; -149.370; -993.090; -992.838
682.591;   23.207; -216.090; -538.838
682.859;   83.108;    9.911;  -35.839
683.128;    0.735;  232.911;  497.161
683.396; -162.313;-1102.089;-1122.840
683.664;  -34.961; -241.089;   21.160
683.932;    1.866;  144.911;  -76.840
684.200;  -84.082; -576.088; -320.841
684.468;  -31.030;  -73.088; -124.841
684.736;  -32.979; -214.088; -175.841
685.004; -131.877;-1024.088; -982.842
685.272;  -50.550; -880.088; -774.842
685.540;  -71.498; -499.087; -557.843
685.808;  -87.496; -651.087; -682.843
686.076; -112.944; -894.087; -969.843
686.343;  -61.318; -601.087; -815.844
686.611;   23.584; -195.087; -224.844
686.879;  404.036; -530.086; -553.844
687.147; 3053.888; -483.086; -480.845
687.414;  888.365;  -12.086; -169.845
687.682;  -10.683; -658.086; -757.846
687.950;  301.818;  259.915;  263.154
688.217;    4.070; -792.085; -760.846
688.485;   -7.678; -632.085; -636.847
688.753;  477.824;  -11.085; -102.847
689.020;  141.501; -820.085; -851.847
689.288;  -98.997; -853.084; -787.848
689.555;  -35.370; -195.084; -148.848
689.823;  -35.294; -241.084; -345.849
690.090;  -93.467; -546.084; -651.849
690.358; -149.040; -877.084; -897.849
690.625;   12.062;  120.917;   45.150
690.892;  -58.411; -403.083; -369.850
691.160;  -10.659;   72.917;  -35.850
691.427;    6.567;  141.917;  130.149
691.694; -124.006; -855.083; -929.851
691.962; -142.104;-1177.082;-1060.852
692.229;   12.148;  127.918;   56.148
692.496;   73.575;  130.918;  -49.852
692.763;   13.902; -164.082; -201.853
693.031;  -72.547; -739.082; -716.853
693.298;  -40.595; -509.081; -368.853
693.565;  282.232; -155.081; -163.854
693.832; 1177.959;   -5.081;   -9.854
694.099;  130.161; -643.081; -642.855
694.366;  -54.112; -882.081; -896.855
694.633;  -52.236; -920.080; -633.855
694.900;  729.266; 4367.920; -114.856
695.167;  395.693; -214.080; -380.856
695.434;   97.645; -646.080; -623.856
695.701;  210.072;  121.921;  -61.857
695.968;  446.924; -365.079; -361.857
696.234;  940.951; -415.079; -646.858
696.501;10412.052; -776.079; -614.858
696.768; 5536.279; -554.079; -617.858
697.035;  330.681; -632.078; -667.859
697.302;   32.033; -448.078; -552.859
697.568;    4.410; -458.078; -497.859
697.835;  -32.613; -683.078; -624.860
698.102;  -34.762; -498.078; -407.860
698.368;   68.665;  384.923;  396.139
698.635;  -38.633;  -47.077; -424.861
698.901;  -15.706; -240.077; -348.861
699.168;   67.146; -534.077; -456.862
699.435;   58.673;  -72.077;  -13.862
699.701; -102.826; -868.076; -764.862
699.968;    1.651;  144.924; -441.863
700.234;  -93.072; -783.076; -822.863
700.500;  -42.895; -448.076; -539.864
700.767;    4.382;   -1.075;   26.136
701.033; -125.641;-1015.075; -963.864
701.299;  -49.739; -450.075; -483.865
701.566;  120.462;  950.925;  763.135
701.832;   32.314;  -31.075;  -76.865
702.098;  -96.434;-1054.074;-1034.866
702.365;  -77.732;-1098.074;-1030.866
702.631;  -19.030;-1038.074;-1063.867
702.897; 1268.572; -765.074; -676.867
703.163; 2197.648;  348.926;  254.133
703.429;  153.575; -256.073; -273.868
703.695;  -27.023; -796.073; -792.868
703.961;   26.904; -214.073; -210.868
704.227;  -46.219; -630.073; -725.869
704.493;  114.633;  613.927;  510.131
704.759;  -19.416; -565.072; -540.870
705.025;   21.986; -203.072; -194.870
705.291;   -2.962; -666.072; -562.870
705.557;  192.590;  719.928;   34.129
705.823;   38.592; -742.072; -694.871
706.089;  155.969; -307.071; -326.871
706.355;  371.920; -315.071; -244.872
706.620; 5718.647; -776.071; -729.872
706.886; 8260.274; -309.071; -362.873
707.152;  762.676; -818.070; -973.873
707.418;    1.878;-1153.070;-1186.873
707.683;   15.830; -550.070; -530.874
707.949;  -52.243; -547.070; -578.874
708.215;    3.033; -129.070; -207.874
708.480;  -11.940; -520.069; -420.875
708.746;   92.937;   68.931;   28.125
709.011;  -64.111; -578.069; -612.876
709.277;  -80.259; -538.069; -543.876
709.542;  -54.682; -428.069; -387.876
709.808;    0.444;  -59.068;   89.123
710.073;  -89.029; -577.068; -695.877
710.339;  -27.552; -242.068; -228.877
710.604;   65.650; -780.068; -845.878
710.869;  319.502; -277.068; -366.878
711.135;  -72.121; -715.067; -628.879
711.400;  -73.945; -507.067; -608.879
711.665;  -66.418; -404.067; -479.879
711.931;  -83.966; -661.067; -677.880
712.196; -114.339; -876.067; -954.880
712.461;   80.563; -402.066; -490.880
712.726;  120.790; -727.066; -771.881
712.991;  -77.384; -647.066; -664.881
713.256;  -43.882; -350.066; -332.882
713.521;  -66.980; -417.065; -381.882
713.787;  -64.878; -454.065; -472.882
714.052;  -19.676; -214.065; -400.883
714.317;  -86.974;-1045.065; -981.883
714.581; 1033.603; -374.065; -268.883
714.846; 1526.604; -822.064; -888.884
715.111;  140.356;  261.936;  257.116
715.376;  -24.017;  -86.064; -223.885
715.641;  -21.615; -365.064; -367.885
715.906;  270.337;   15.936; -551.885
716.171;  127.864;  221.937;  209.114
716.436;   38.415;  -78.063; -104.886
716.700; -106.933; -818.063; -692.886
716.965; -126.356; -794.063; -807.887
717.230;  -70.554; -339.063; -392.887
717.494;  -27.302;  -40.062; -134.888
717.759;  -94.750; -784.062; -640.888
718.024;    1.876;  269.938;  250.112
718.288;   79.078;  685.938;  395.111
718.553; -140.570; -803.062; -977.889
718.817; -146.093; -883.061; -899.889
719.082;  -34.316; -115.061; -125.890
719.346; -143.464;-1000.061; -947.890
719.611;  -50.912; -300.061; -255.891
719.875;  -92.586; -568.060; -537.891
720.140;  -60.909; -453.060; -603.891
720.404;   40.793; -136.060; -249.892
720.668;  766.920; -475.060; -411.892
720.933;  299.297;  146.940;  137.108
721.197;  -91.576; -667.059; -600.893
721.461; -133.650; -851.059; -826.893
721.725;  -30.873;  -21.059; -250.894
721.990;  -62.146; -284.059; -204.894
722.254;  -24.619;  -26.059; -108.894
722.518;  -67.592; -286.058; -442.895
722.782;  -92.015; -743.058; -594.895
723.046;  122.011;  614.942;  570.105
723.310;   26.738;  374.942;  210.104
723.574; -102.960; -654.058; -614.896
723.838;  -99.758; -576.057; -642.897
724.102;  -34.931; -226.057; -239.897
724.366; -136.654;-1032.057; -978.897
724.630; -108.378; -749.057; -571.898
724.894;  -83.676; -722.057; -514.898
725.158;  -23.349;   38.944; -295.898
725.422;  -55.297; -394.056; -327.899
725.685;  -65.870; -441.056; -349.899
725.949;  -88.968; -566.056; -519.900
726.213;  -69.341; -732.056; -811.900
726.477;  129.635;-1020.055; -933.900
726.740;  142.862; -274.055; -104.901
727.004;  307.414; -384.055; -510.901
727.268; 3383.891; -442.055; -400.901
727.531; 1000.168; -961.055; -775.902
727.795;  -40.655; -713.054; -673.902
728.059;  -58.679; -552.054; -557.903
728.322;  -77.552; -841.054; -669.903
728.586;    7.625; -692.054; -701.903
728.849;  -81.248; -695.053; -756.904
729.112; -114.271; -812.053; -912.904
729.376; -115.369; -959.053; -905.904
729.639;  -67.218; -536.053; -536.905
729.903; -104.191; -733.053; -699.905
730.166;  -40.539; -437.052; -399.906
730.429;  -32.937; -317.052; -468.906
730.693;  -62.985; -355.052; -894.906
730.956;  196.092;  810.948;  651.093
731.219;  668.044; -310.052; -103.907
731.482;   93.745;-1003.051; -894.907
731.745;   84.197; -794.051; -935.908
732.009;   17.899;  -30.051;   50.092
732.272;  -96.024; -904.051; -771.909
732.535;  -39.922; -300.051; -310.909
732.798; -151.020;-1083.050;-1166.909
733.061;  -47.644; -430.050; -456.910
733.324;   18.933;   31.950; -180.910
733.587;   59.585;  290.950;  365.090
733.850;  -67.088; -973.049;-1050.911
734.113;   33.789;   33.951;   32.089
734.376;   -1.734; -328.049; -447.912
734.639;  213.142; 1188.951; 1011.088
734.901;   60.169; -180.049; -402.912
735.164;  434.271; -883.048; -837.913
735.427; 1242.673; -166.048; -355.913
735.690;  114.750; -205.048; -234.913
735.952;  -34.023; -923.048; -925.914
736.215;  -24.547;-1113.048;-1009.914
736.478;   29.355; -771.047; -774.915
736.740;  193.807;   33.953;  129.085
737.003;  591.084; -658.047; -672.915
737.266; 3832.361;  -94.047;   46.084
737.528;  452.313; -682.047; -660.916
737.791;  307.290; -316.046; -327.916
738.053;  778.191;  465.954;  649.083
738.316;10596.768; -162.046; -136.917
738.578; 8114.345; -770.046; -736.918
738.841;  464.072; -382.046; -446.918
739.103;  181.124; -875.045; -777.918
739.365;  496.901;   79.955;  -69.919
739.628;    5.227; -884.045; -805.919
739.890;  -24.196; -758.045; -710.919
740.152;  -45.244; -692.044; -754.920
740.414;   -1.367; -408.044; -359.920
740.677;  -42.640; -785.044; -634.921
740.939;  -34.288; -587.044; -487.921
741.201;  226.763; -432.044; -572.921
741.463;   34.290; -689.043; -745.922
741.725;    6.392;  -21.043; -199.922
741.987;   53.444;  220.957;  116.078
742.249;   -0.704; -751.043; -859.923
742.511;  198.098; -703.043; -794.923
742.773;   14.274; -546.042; -546.924
743.035;  120.826;  796.958;  533.076
743.297;  -40.847; -963.042;-1013.924
743.559;  706.580; -278.042; -262.925
743.821;   64.832; -735.042; -744.925
744.083;   16.234;  -44.041; -149.925
744.345;  -89.939; -869.041; -892.926
744.607;   32.812;   75.959;  122.074
744.868;  -54.986; -490.041; -554.927
745.130; -103.959; -994.041;-1008.927
745.392;   34.418;   -1.040;  -44.927
745.653;  -16.130; -411.040; -378.928
745.915;  137.522;  896.960;  631.072
746.177;   64.598;   35.960;  -43.928
746.438;  -10.825; -428.040; -543.929
746.700;  -46.198; -947.039; -988.929
746.961;    9.504; -659.039; -740.930
747.223;  131.831; -190.039;  -74.930
747.484;   86.608; -391.039; -471.930
747.746;  148.584;  -23.038; -106.931
748.007;  104.936; -647.038; -689.931
748.269;  279.263; -468.038; -440.931
748.530;  462.015; -852.038; -638.932
748.791;  240.142; -354.038; -420.932
749.053;  433.894;  286.963;  163.067
749.314;  437.221; -236.037; -169.933
749.575;  509.997; -945.037; -905.933
749.836;  812.949; -217.037;   86.066
750.098; 2240.126;  -60.037;  -21.934
750.359;34881.753;  414.964;  555.066
750.620; 9660.380; -121.036; -220.935
750.881; 1007.007; -585.036; -513.935
751.142; 1277.558; -950.036; -938.936
751.403;16049.535; -789.036; -705.936
751.664; 7773.087;-1034.035; -999.936
751.925;  492.064; -175.035; -262.937
752.186;  258.466; -298.035; -278.937
752.447;  135.868; -590.035; -445.937
752.708;   36.119; -532.035; -648.938
752.969;    1.096; -566.034; -576.938
753.230;    1.873; -777.034; -672.939
753.491;   -2.525; -650.034; -631.939
753.751;   69.827;  109.966;   19.061
754.012;   89.104;  258.967;  181.060
754.273;   48.505; -174.033;  -71.940
754.534;   12.607; -487.033; -580.940
754.794;  -81.741; -926.033; -911.941
755.055;  148.611; 1051.967;  881.059
755.316;  -48.212; -700.032; -566.942
755.576;  -26.185; -606.032; -576.942
755.837;  -55.358; -527.032; -695.942
756.097;  -43.982; -530.032; -564.943
756.358;  -73.080; -725.032; -770.943
756.618;  -48.203; -705.031; -641.943
756.879;   11.799; -254.031; -349.944
757.139; -114.224;-1098.031;-1116.944
757.400;  -56.022; -538.031; -553.945
757.660;  -20.121; -365.031; -401.945
757.920;    3.831; -266.030; -228.945
758.181;  -14.692; -468.030; -351.946
758.441; -102.090; -870.030; -809.946
758.701;  -24.388; -308.030; -215.946
758.961;  -20.636; -220.030; -278.947
759.222;  -56.060; -574.029; -502.947
759.482;  -84.158; -683.029; -723.948
759.742;  -79.331; -706.029; -547.948
760.002;   20.996;  -83.029; -143.948
760.262;   21.223;   50.972;  182.051
760.522;  -38.925; -498.028; -574.949
760.782;  -39.448; -738.028; -612.949
761.042;  -26.447; -618.028; -573.950
761.302;   50.855;   55.972;  -18.950
761.562;   53.957; -164.027; -154.951
761.822;   77.284; -710.027; -551.951
762.082;  -27.264;-1104.027;-1093.951
762.342;   74.963; -328.027; -403.952
762.601;   72.814; -567.027; -506.952
762.861;  349.566; -281.026; -207.952
763.121;  400.768; -406.026; -411.953
763.381; 7201.145; -499.026; -485.953
763.640; 8673.297; -139.026; -307.954
763.900;  376.999; -242.026; -203.954
764.160;   83.025; -458.025; -491.954
764.419;   -3.448; -726.025; -782.955
764.679;  -73.046; -795.025; -726.955
764.939;   -5.194; -124.025; -210.955
765.198;  -79.567; -608.025; -563.956
765.458;  -76.365; -710.024; -612.956
765.717;  -82.989; -454.024; -590.957
765.976;  -63.187; -428.024; -411.957
766.236;  -76.485; -475.024; -610.957
766.495;   13.692;  260.977;   73.042
766.755;  -98.406;-1090.023; -987.958
767.014;    5.471; -594.023; -665.958
767.273;  -62.777; -373.023; -397.959
767.533;  -39.176; -228.023; -307.959
767.792;  -43.799; -151.022; -188.960
768.051;  -47.147; -228.022; -276.960
768.310;  -79.195; -546.022; -650.960
768.569;   -0.218; -161.022;    4.039
768.828;  -47.566; -285.022; -363.961
769.088; -134.115;-1050.021; -942.961
769.347;  -71.888; -755.021; -599.962
769.606;  -94.661; -876.021; -857.962
769.865; -121.334;-1016.021;-1033.963
770.124;    2.718; -411.021; -336.963
770.383;  -52.055; -778.020; -910.963
770.641;    5.096; -398.020; -400.964
770.900;  -53.027; -953.020; -846.964
771.159;  -30.300; -851.020; -951.964
771.418;  -17.348; -917.020; -779.965
771.677;  137.304; -224.019; -293.965
771.936;  136.281; -794.019; -865.966
772.194; 2075.457; -465.019; -437.966
772.453;11705.084; -213.019; -391.966
772.712;  841.986;  416.982;  329.033
772.970;  121.338;   32.982;   63.033
773.229;  100.315;  -22.018;  102.033
773.488;  -83.258; -814.018; -770.968
773.746;   49.019;  296.982;  335.032
774.005;   15.745;  190.983;  -22.969
774.263;   20.072;  243.983;  177.031
774.522;  -29.651; -422.017; -548.969
774.780;  -70.024; -484.017; -417.970
775.039;  -88.397; -551.017; -531.970
775.297;  -34.045; -135.016; -351.970
775.555; -102.894; -489.016; -612.971
775.814; -121.492; -618.016; -570.971
776.072; -118.965; -749.016; -740.971
776.330; -102.863; -630.016; -520.972
776.589; -115.561; -703.015; -721.972
776.847; -122.334; -645.015; -624.973
777.105; -159.758;-1016.015;-1032.973
777.363;  -85.806; -459.015; -454.973
777.621; -133.979; -660.015; -717.974
777.879;  -24.927;  -42.014;   32.026
778.138;  -96.275; -554.014; -717.974
778.396; -105.323; -585.014; -526.975
778.654; -156.971;-1015.014; -970.975
778.912;  -55.195; -269.014; -371.976
779.170; -128.243; -880.013; -803.976
779.427; -142.741; -922.013; -897.976
779.685; -133.464; -880.013; -832.977
779.943;  -83.387; -654.013; -593.977
780.201; -161.060; -964.012; -883.978
780.459; -115.934; -651.012; -610.978
780.717;  -88.057; -440.012; -390.978
780.974; -103.755; -449.012; -490.979
781.232;  -67.403; -358.012; -338.979
781.490;  -86.301; -551.011; -472.979
781.747;  -81.299; -555.011; -476.980
782.005;   22.627;  462.989;  254.020
782.263; -162.996; -542.011;-1004.981
782.520;  -85.169; -326.011; -501.981
782.778; -162.567;-1013.010;-1051.981
783.035; -156.640; -962.010; -938.982
783.293;  -70.763; -248.010; -206.982
783.550;  -46.712; -134.010; -198.982
783.808; -122.385; -764.010; -776.983
784.065; -156.633; -745.009; -874.983
784.322;  -56.506;   25.991;  -86.984
784.580; -144.104; -915.009; -771.984
784.837;  -87.527; -392.009; -466.984
785.094; -144.200; -783.009; -762.985
785.352;  -77.424; -304.008; -404.985
785.609; -105.222; -934.008; -839.985
785.866;  -69.270; -345.008; -401.986
786.123;  -77.693; -639.008; -583.986
786.380;  -92.416; -665.008; -604.987
786.637;  -47.314; -225.007; -380.987
786.895;  -24.263; -456.007; -543.987
787.152;  -53.261; -135.007; -267.988
787.409;  -45.284; -123.007; -225.988
787.666;  -87.332; -299.006; -378.988
787.923; -103.730; -616.006; -695.989
788.179; -111.778; -551.006; -584.989
788.436; -107.577; -585.006; -585.990
788.693;  -26.600;  -92.006;  -87.990
788.950;  122.577; -125.005; -112.990
789.207;  203.304; -381.005; -372.991
789.464;  -47.069; -161.005; -301.991
789.720;   -6.917;  150.995;  110.009
789.977; -159.515;-1003.005; -671.992
790.234;  -34.964;   44.996;  -66.992
790.490; -145.312; -884.004;-1031.993
790.747;   -9.485;  -85.004;   22.007
791.004;  -41.933; -426.004; -348.993
791.260;  -70.881; -430.004; -560.994
791.517; -107.729; -843.003; -788.994
791.773;  -62.453; -379.003; -342.994
792.030;  -98.751; -596.003; -660.995
792.286;  -94.774; -686.003; -636.995
792.543;  -17.572;  -74.002; -159.995
792.799;  -53.820; -584.002; -382.996
793.055; -162.318;-1179.002;-1210.996
793.312; -104.842; -827.002; -816.997
793.568;  -70.265; -746.002; -599.997
793.824;   11.037; -226.001; -284.997
794.081;   26.164; -447.001; -508.998
794.337;   66.216; -664.001; -561.998
794.593; 1167.518; -319.001; -271.999
794.849; 6682.669; -746.001; -772.999
795.105;  371.196; -270.000; -261.999
795.361;   11.748; -490.000; -457.000
795.617;  -53.500; -875.000; -945.000
795.873;  -55.550; -360.000; -407.000
796.129;  -21.525; -368.000; -306.000
796.385;  -22.175; -124.000; -156.000
796.641;   56.450;  412.000;  550.000
796.897;  -91.625; -666.000; -635.000
797.153;   50.075;  453.000;  357.000
797.409;  -99.925; -785.000; -868.000
797.665;  -79.150; -625.000; -732.000
797.921;  -73.150; -775.000; -762.000
798.176;  -61.650; -744.000; -747.000
798.432;  -47.375; -824.000; -596.000
798.688;  -58.625;-1174.000;-1078.000
798.943;   82.175; -165.000; -147.000
799.199;   13.825;-1005.000; -959.000
799.455;  232.400;  369.000;  316.000
799.710;  132.275; -813.000; -380.000
799.966;  318.025; -162.000; -160.000
800.221;  492.650; -638.000; -721.000
800.477; 9938.400; -743.000; -710.000
800.732;10084.750; -773.000; -800.000
800.988;  663.075;  205.000;  -19.000
801.243; 1738.450; -454.000; -344.000
801.498; 8671.850; -814.000; -739.000
801.754;  527.450; -289.000; -163.000
802.009;  104.425; -257.000; -335.000
802.264;  -39.025; -967.000;-1033.000
802.520;   34.350;  222.000;   -3.000
802.775;  -49.225; -524.000; -359.000
803.030;   60.925;  395.000;  356.000
803.285; -113.900; -840.000; -903.000
803.540;  -68.175; -686.000; -699.000
803.795;  -38.100; -648.000; -583.000
804.051;  -46.325; -279.000; -346.000
804.306;   10.600;  168.000;  128.000
804.561;  122.625;  451.000;  362.000
804.816;  135.775;  714.000;  861.000
805.071;    3.425; -185.000; -280.000
805.325;  194.325; -257.000; -427.000
805.580;  -95.100; -841.000; -877.000
805.835;  -14.325; -204.000; -297.000
806.090;  -71.525; -760.000; -676.000
806.345;  -26.400; -344.000; -264.000
806.600;  -31.525; -549.000; -632.000
806.854;   -6.325; -408.000; -538.000
807.109;  -10.800; -493.000; -577.000
807.364;  -10.350; -407.000; -328.000
807.618;    9.175; -415.000; -381.000
807.873;   47.300; -470.000; -494.000
808.128;   97.300; -257.000; -518.000
808.382;   99.175; -224.000; -332.000
808.637;   84.600; -440.000; -511.000
808.891;  180.025; -257.000; -180.000
809.146;  111.200; -902.000; -794.000
809.400;  256.250; -848.000; -923.000
809.654;  319.125; -779.000; -551.000
809.909;  479.450; -841.000; -927.000
810.163; 5797.275; -813.000; -651.000
810.418;17095.775; -940.000; -861.000
810.672; 1097.725; -685.000; -690.000
810.926;  741.775; -993.000; -973.000
811.180; 1380.625; -439.000; -372.000
811.434;31572.475;  240.000;  135.000
811.689;14673.350; -231.000; -365.000
811.943;  709.825; -936.000; -953.000
812.197;  357.450; -893.000; -671.000
812.451;  147.625; -379.000; -514.000
812.705;    0.200; -809.000; -619.000
812.959;    4.850; -263.000; -388.000
813.213;   10.000; -283.000; -209.000
813.467;   55.225;  470.000;  253.000
813.721;  -89.550; -764.000; -792.000
813.975; -111.825; -826.000; -877.000
814.229;   45.550;  430.000;  353.000
814.482;  -81.450; -517.000; -566.000
814.736; -113.625; -766.000; -744.000
814.990; -131.925; -779.000; -872.000
815.244;  -41.250; -228.000; -285.000
815.497;  -78.625; -636.000; -601.000
815.751;  -17.125; -141.000;   82.000
816.005;  -80.475; -470.000; -586.000
816.258;  -64.275; -510.000; -363.000
816.512; -101.725; -693.000; -610.000
816.766;    5.000;  121.000;  157.000
817.019;   18.825;  148.000;  149.000
817.273; -113.375;-1000.000; -802.000
817.526;  -32.525; -206.000; -173.000
817.779;  -46.175;-1049.000; -960.000
818.033;  -72.900; -693.000; -807.000
818.286; -123.925; -725.000; -792.000
818.540;  -80.975; -403.000; -403.000
818.793;  -80.525; -402.000; -489.000
819.046; -101.050; -582.000; -520.000
819.299;  -37.700; -157.000; -166.000
819.553; -114.550; -552.000; -592.000
819.806; -150.625;-1016.000; -838.000
820.059;  -65.575; -334.000; -354.000
820.312;   15.200;  152.000;  185.000
820.565;  -17.200;  110.000;  -27.000
820.818;  -66.000;  -59.000; -173.000
821.071; -155.575;-1041.000; -957.000
821.324; -104.050; -536.000; -540.000
821.577; -107.350; -457.000; -483.000
821.830;  -69.750; -270.000; -172.000
822.083; -123.325; -733.000; -288.000
822.336;  -41.325; -261.000; -167.000
822.589; -128.675; -805.000; -688.000
822.842; -135.200; -875.000; -770.000
823.094; -178.450;-1076.000;-1114.000
823.347; -134.700; -925.000; -729.000
823.600;   18.950;  402.000;  187.000
823.853;  -54.350; -311.000; -267.000
824.105;  -71.775; -331.000; -575.000
824.358; -105.275; -617.000; -716.000
824.611;    8.250;  234.000;   40.000
824.863;  -47.625; -612.000; -591.000
825.116;   53.650;  -33.000;   27.000
825.368;   69.425; -366.000; -372.000
825.621;  160.000; -186.000; -240.000
825.873;   89.950; -704.000; -737.000
826.126;  519.950; -669.000; -641.000
826.378;11239.275; -389.000; -505.000
826.630; 3248.700; -890.000; -898.000
826.883;   42.000; -754.000; -693.000
827.135;   44.225; -279.000; -270.000
827.387;  -91.975; -893.000; -839.000
827.639;  -18.650;  -86.000;   32.000
827.892; -127.575; -742.000; -582.000
828.144; -145.400; -848.000; -804.000
828.396;  -47.675;  104.000;  -80.000
828.648;  -94.650; -440.000; -333.000
828.900; -139.425; -702.000; -795.000
829.152; -118.675; -684.000; -683.000
829.404;  -74.700; -215.000; -267.000
829.656;  -18.450;  321.000;  214.000
829.908;  -24.625;  393.000;  229.000
830.160; -160.525;-1064.000;-1047.000
830.412;  -94.000; -481.000; -430.000
830.664; -117.900; -557.000; -665.000
830.916;  -81.025; -268.000; -206.000
831.167; -179.550;-1073.000; -951.000
831.419; -104.850; -623.000; -566.000
831.671; -147.800; -764.000; -809.000
831.923;  -87.775; -311.000; -447.000
832.174;  -77.775; -273.000; -331.000
832.426; -126.600; -493.000; -582.000
832.678; -179.875;-1043.000;-1091.000
832.929; -159.525; -947.000; -935.000
833.181;  -72.275; -575.000; -677.000
833.432;  -48.000;  -59.000; -186.000
833.684;  -29.600;  112.000;  -27.000
833.935; -118.875; -610.000; -566.000
834.187; -131.650; -829.000; -823.000
834.438;  -34.525;  -58.000;  -25.000
834.689;  -65.725; -255.000; -123.000
834.941;  -48.950; -343.000; -244.000
835.192; -105.150; -590.000; -533.000
835.443; -104.700; -419.000; -506.000
835.695;  -21.400;  138.000;  -16.000
835.946;  -93.900; -608.000; -378.000
836.197; -114.800; -599.000; -622.000
836.448;  -83.000; -528.000; -395.000
836.699;  -61.025; -253.000; -341.000
836.950;   -8.250;   72.000;    7.000
837.201; -139.800;-1003.000; -987.000
837.452;  -47.975; -356.000; -170.000
837.703; -116.550; -791.000; -737.000
837.954;  -42.350; -205.000; -365.000
838.205;  -85.925;-1029.000;-1008.000
838.456;  160.600; -196.000; -282.000
838.707;   10.150; -423.000; -519.000
838.958;    2.975; -634.000; -647.000
839.209;  252.200;   18.000;   40.000
839.460;  125.900; -439.000; -201.000
839.710;  163.625; -135.000; -297.000
839.961;  418.725;  730.000;  612.000
840.212;  340.925; -382.000; -497.000
840.462; 1047.250; -328.000; -277.000
840.713;17171.250; -571.000; -536.000
840.964; 8027.475;  -62.000; -143.000
841.214;  507.125; -384.000; -624.000
841.465;  556.450; -214.000; -141.000
841.715;  473.625; -417.000; -380.000
841.966;  625.050; -746.000; -685.000
842.216; 7667.700; -330.000; -431.000
842.466;33539.850; -169.000; -313.000
842.717; 2204.475; -964.000; -952.000
842.967;  289.450; -635.000; -641.000
843.217;  264.325;   20.000;   28.000
843.468;   84.400; -104.000; -132.000
843.718;  -34.925; -718.000; -726.000
843.968;  -90.700; -837.000; -765.000
844.218;    7.225; -315.000; -262.000
844.469;  -49.350; -577.000; -561.000
844.719; -111.675; -537.000; -682.000
844.969;  -84.600; -550.000; -580.000
845.219; -142.725; -814.000; -862.000
845.469;  -80.775; -392.000; -342.000
845.719; -137.750; -792.000; -884.000
845.969;  -18.475;  119.000;  174.000
846.219; -108.000; -738.000; -720.000
846.469;   11.650;  464.000;  432.000
846.718;  -49.850; -115.000;   31.000
846.968; -141.950; -827.000; -827.000
847.218;  -58.375; -224.000; -371.000
847.468; -113.625; -586.000; -555.000
847.718; -141.325; -827.000; -798.000
847.967; -132.925; -826.000; -915.000
848.217;  -92.400; -449.000; -569.000
848.467;  -69.750; -405.000; -376.000
848.716; -120.550; -708.000; -725.000
848.966;   -8.625; -372.000; -358.000
849.215;  -57.300; -428.000; -419.000
849.465;  -94.975; -785.000; -615.000
849.714; -142.800;-1132.000;-1150.000
849.964;  -63.625; -551.000; -613.000
850.213;  -32.450; -393.000; -355.000
850.463;   77.725;  137.000;  340.000
850.712;   -4.250; -542.000; -567.000
850.961;   20.950; -739.000; -678.000
851.211;   93.625; -513.000; -504.000
851.460;  168.550; -635.000; -650.000
851.709;  545.500;  -25.000;   18.000
851.958; 9634.750; -912.000; -750.000
852.208;13727.500; -859.000; -879.000
852.457;  515.100; -181.000;  -13.000
852.706;   64.050; -791.000; -823.000
852.955;   25.225; -507.000; -528.000
853.204;  -73.700; -521.000; -461.000
853.453;  -91.400; -418.000; -458.000
853.702; -131.000; -660.000; -750.000
853.951; -100.675; -532.000; -520.000
854.200; -110.850; -613.000; -562.000
854.449; -131.575; -695.000; -661.000
854.698; -104.325; -340.000; -279.000
854.946;  -74.325; -181.000; -284.000
855.195; -162.850; -843.000; -868.000
855.444; -100.625; -395.000; -420.000
855.693; -126.600; -345.000; -432.000
855.941; -110.075; -387.000; -516.000
856.190;  -58.050; -256.000; -382.000
856.439; -122.500; -652.000; -703.000
856.687;  -61.275;  -99.000;  -72.000
856.936; -123.800; -621.000; -323.000
857.184; -177.075;-1067.000;-1020.000
857.433;  -91.625; -423.000; -512.000
857.681; -175.625; -989.000; -953.000
857.930;  -82.400; -282.000; -433.000
858.178; -162.575; -856.000; -929.000
858.427; -152.175; -802.000; -781.000
858.675; -121.725; -377.000; -544.000
858.923; -106.500; -527.000; -819.000
859.172; -171.000;-1094.000;-1070.000
859.420;  -70.475; -339.000; -239.000
859.668; -126.875; -624.000; -628.000
859.916;  -27.225;  109.000;  115.000
860.164; -116.675; -699.000; -603.000
860.413;  209.025; -878.000; -696.000
860.661;  225.050; -709.000; -577.000
860.909;  -91.100; -339.000; -325.000
861.157;  -95.300; -277.000; -444.000
861.405; -130.025; -534.000; -670.000
861.653;    4.050;  310.000;  310.000
861.901;  138.550; -543.000; -613.000
862.149;    8.275; -801.000; -824.000
862.396;  -80.150; -297.000; -187.000
862.644; -106.750; -368.000; -347.000
862.892;  -32.350;   98.000;  138.000
863.140; -120.400; -549.000; -530.000
863.388; -167.725; -815.000; -759.000
863.635; -120.775; -642.000; -601.000
863.883;  -22.200;  231.000;  190.000
864.131;  -99.400; -288.000; -357.000
864.378; -126.775; -675.000; -540.000
864.626;  -98.950; -347.000; -415.000
864.873; -130.450; -556.000; -505.000
865.121; -140.600; -714.000; -799.000
865.368;  -54.275; -173.000;   75.000
865.616;  -44.625;  -33.000;  -40.000
865.863;  -91.700; -462.000; -506.000
866.111; -107.950; -795.000; -824.000
866.358;   47.075; -426.000; -420.000
866.605; 2279.550;  -64.000; -804.000
866.853; 2712.325; -621.000; -537.000
867.100;  -25.025; -728.000; -775.000
867.347;  -88.750; -672.000; -611.000
867.594;  -84.325; -740.000; -714.000
867.841;   68.700;   97.000;   17.000
868.089; -141.075; -746.000; -698.000
868.336; -126.275; -477.000; -420.000
868.583; -136.125; -637.000; -741.000
868.830;  -49.075; -131.000; -170.000
869.077; -169.200; -859.000; -787.000
869.324; -131.100; -502.000; -458.000
869.571; -128.200; -398.000; -430.000
869.818; -120.700; -485.000; -439.000
870.065;  -91.075; -439.000; -513.000
870.311; -120.500; -456.000; -542.000
870.558; -107.250; -332.000; -311.000
870.805;  -96.425; -320.000; -384.000
871.052; -109.900; -494.000; -369.000
871.298;  -65.500; -204.000; -131.000
871.545;  -65.950; -151.000; -185.000
871.792;  -98.850; -173.000; -222.000
872.038;  -75.025;   43.000; -126.000
872.285; -133.375; -496.000; -387.000
872.532;  -95.925; -357.000; -387.000
872.778;    9.850;  556.000;  403.000
873.025;  -96.975; -384.000; -359.000
873.271;   14.825;  501.000;  578.000
873.517;  -43.400; -133.000; -209.000
873.764;  -34.900; -193.000;  -80.000
874.010;  -79.600; -143.000; -230.000
874.257;  -54.450;  123.000;   90.000
874.503; -127.000; -579.000; -479.000
874.749;  -72.325;   31.000;  275.000
874.995;  -72.450;  -80.000;  -20.000
875.242; -123.050; -540.000; -478.000
875.488; -121.100; -414.000; -439.000
875.734;  -47.250; -106.000; -234.000
875.980;  140.575; -872.000;-1032.000
876.226;  345.800; -157.000; -255.000
876.472;  -17.525;  343.000;  237.000
876.718;  -50.650;  184.000;  158.000
876.964;  -30.900;   56.000;   55.000
877.210; -145.700; -547.000; -677.000
877.456; -137.900; -630.000; -557.000
877.702; -175.125; -821.000; -832.000
877.948; -109.900; -377.000; -497.000
878.193;    1.225;  361.000;  255.000
878.439;  -91.575; -487.000; -472.000
878.685; -105.300; -272.000; -343.000
878.931; -135.775; -618.000; -676.000
879.176;  -84.775; -201.000; -201.000
879.422; -173.000; -933.000; -820.000
879.668;   46.350;   10.000;   79.000
879.913;  131.975;   53.000;  137.000
880.159;  -68.075; -112.000;  -17.000
880.404;  -74.525; -152.000; -162.000
880.650;  -34.550;   91.000;  141.000
880.895; -162.800; -670.000; -710.000
881.141; -113.850; -454.000; -428.000
881.386; -147.200; -503.000; -658.000
881.631;  -79.350; -311.000; -166.000
881.877;  -47.200;  112.000;  -13.000
882.122; -132.875; -684.000; -600.000
882.367;  -85.925; -136.000; -186.000
882.612;  -77.125;  -80.000; -176.000
882.858; -168.825; -877.000; -823.000
883.103; -102.725; -297.000; -267.000
883.348; -144.975; -759.000; -852.000
883.593; -143.025; -677.000; -602.000
883.838;  -66.875; -311.000;  -24.000
884.083;   20.900;  353.000;  288.000
884.328;  -97.375; -564.000; -545.000
884.573;  -62.100; -196.000; -143.000
884.818;  149.875; -694.000; -531.000
885.063;  187.325; -348.000; -315.000
885.308; -106.825; -475.000; -398.000
885.553;  -15.625;  245.000;  325.000
885.797; -123.700; -545.000; -615.000
886.042;  -49.075;    8.000;   58.000
886.287;  -88.850; -253.000; -211.000
886.532;  -62.525;   26.000;  204.000
886.776; -106.175; -407.000; -525.000
887.021; -140.100; -621.000; -574.000
887.265; -152.625; -685.000; -689.000
887.510; -128.775; -557.000; -496.000
887.755; -100.900; -194.000; -164.000
887.999; -154.025; -552.000; -575.000
888.244;  -59.925;  -58.000;  161.000
888.488;   -7.800;  371.000;  393.000
888.732; -129.375; -368.000; -520.000
888.977; -130.600; -622.000; -567.000
889.221; -156.925; -683.000; -659.000
889.465; -128.425; -422.000; -566.000
889.710;  -80.975;  -56.000; -299.000
889.954;  -22.925;  579.000;  467.000
890.198; -138.650; -584.000; -707.000
890.442; -153.100; -716.000; -712.000
890.687; -170.050; -800.000; -753.000
890.931;  -98.300; -273.000; -210.000
891.175; -132.550; -502.000; -500.000
891.419;  -72.400; -105.000; -110.000
891.663;  -94.950; -239.000; -112.000
891.907; -161.575; -801.000; -545.000
892.151; -179.125; -920.000; -815.000
892.395; -115.900; -274.000; -387.000
892.638;  -18.525;  408.000;  291.000
892.882; -174.850; -780.000; -867.000
893.126;    2.025;  758.000;  558.000
893.370;  -91.250; -167.000; -168.000
893.614; -149.125; -714.000; -715.000
893.857; -106.150; -183.000; -197.000
894.101; -148.775; -527.000; -631.000
894.345;  -64.075;  300.000;  150.000
894.588;    4.400;  569.000;  380.000
894.832;  -83.300; -178.000;  -84.000
895.075;  -89.600;   15.000;  -92.000
895.319; -127.650; -552.000; -420.000
895.563; -112.950; -413.000; -353.000
895.806; -161.525; -628.000; -741.000
896.049;  -85.050; -576.000; -368.000
896.293;   73.100;  527.000;  405.000
896.536;  -88.025; -465.000; -468.000
896.779;  -59.750; -149.000;   -1.000
897.023; -128.925; -751.000; -714.000
897.266;  -43.125;  325.000;  269.000
897.509; -184.550; -900.000; -901.000
897.752;  -59.250;  149.000;  171.000
897.996; -187.725; -972.000; -864.000
898.239;  -67.725;  168.000;  102.000
898.482; -131.250; -431.000; -453.000
898.725;  -36.875;  101.000;   53.000
898.968; -166.300; -609.000; -744.000
899.211; -118.575; -513.000; -361.000
899.454; -129.650; -633.000; -539.000
899.697;  -73.450;   90.000;  -43.000
899.940; -184.375; -761.000; -757.000
900.182; -123.975; -335.000; -405.000
900.425;  -91.300; -150.000; -298.000
900.668;  -33.750;  491.000;  350.000
900.911; -101.225; -292.000; -345.000
901.154;  -63.525;  141.000;   -3.000
901.396; -143.725; -407.000; -412.000
901.639; -137.550; -430.000; -496.000
901.882; -180.725; -790.000; -809.000
902.124;  -83.800;  -29.000; -143.000
902.367; -114.850; -315.000; -361.000
902.609; -132.550; -476.000; -453.000
902.852;  -98.125; -108.000; -260.000
903.094; -135.475; -458.000; -337.000
903.337;  -65.675;  -26.000;   53.000
903.579; -101.675; -228.000; -441.000
903.821; -151.975; -597.000; -744.000
904.064;  -62.600;   85.000;  127.000
904.306;  -96.050; -126.000; -166.000
904.548;  -91.775; -152.000; -366.000
904.790; -110.300; -195.000; -340.000
905.033; -135.500; -625.000; -577.000
905.275; -142.225; -513.000; -524.000
905.517;   29.175;  468.000;  256.000
905.759;  -65.275; -667.000; -761.000
906.001; -111.125; -322.000; -369.000
906.243;  -71.475; -162.000; -224.000
906.485;   93.275; -265.000; -207.000
906.727;  100.650; -499.000; -542.000
906.969;  -38.875;  -30.000; -135.000
907.211;   89.175; -316.000; -382.000
907.453;  235.725; -188.000; -237.000
907.695;    3.325; -158.000; -385.000
907.936;   33.875;  818.000;  706.000
908.178;  -58.800;   92.000; -135.000
908.420;  -94.275; -111.000; -162.000
908.662; -138.200; -633.000; -682.000
908.903;  -73.000; -208.000; -123.000
909.145;  -63.425; -240.000; -305.000
909.386;   -1.925;  315.000;  280.000
909.628;   34.800;  363.000;  397.000
909.870;  -13.300;   29.000;  264.000
910.111;  -88.075; -809.000; -949.000
910.353;   28.650; -123.000; -161.000
910.594;   -6.825; -574.000; -606.000
910.835;   71.425; -265.000; -326.000
911.077;  154.450; -503.000; -604.000
911.318;  297.550; -505.000; -471.000
911.559;  453.525; -577.000; -880.000
911.801; 1332.750; -284.000; -280.000
912.042; 9782.700;  -50.000; -159.000
912.283;27792.100;  404.000;  371.000
912.524; 4854.125; -396.000; -457.000
912.765;  508.925; -193.000;   79.000
913.006;  249.325; -307.000; -338.000
913.247;   72.400; -270.000; -290.000
913.488;   -3.400;  -43.000;   30.000
913.729;  -94.200; -373.000; -373.000
913.970;  -52.100;  -96.000; -292.000
914.211;  -78.700; -160.000; -198.000
914.452;  -70.025; -118.000;  -11.000
914.693;    5.875;  510.000;  592.000
914.934;    6.675;  510.000;  440.000
915.175;  -61.925;   53.000;  -95.000
915.415;  -75.075; -137.000;   27.000
915.656;  -69.950;  -28.000;  192.000
915.897;  -96.150; -252.000;  -82.000
916.137;  -71.050;   74.000;   -9.000
916.378; -132.275; -573.000; -517.000
916.619;  -89.225; -159.000;  -63.000
916.859;  -37.225;  303.000;  330.000
917.100;  124.700; 1655.000; 1070.000
917.340;   51.775;  930.000;  728.000
917.581;   56.425;  965.000;  789.000
917.821;  -41.500; -171.000;  143.000
918.061;   17.875; -199.000;  -72.000
918.302;  -57.850; -152.000; -211.000
918.542;  -10.275;  -22.000;    3.000
918.782;   32.900;  369.000;  377.000
919.023;  136.125;  360.000;  427.000
919.263; 1242.225; 8131.000;  202.000
919.503; 1115.850; -137.000;  -54.000
919.743;  594.550;  390.000;  266.000
919.983;  262.725; -134.000;  -26.000
920.223;   72.850;  135.000;   14.000
920.463;  132.000;  631.000;  554.000
920.703;  143.925;   84.000;   39.000
920.943;  187.375; -110.000;   90.000
921.183;  231.250; -414.000; -405.000
921.423;  512.575;  307.000;  546.000
921.663;  727.400; -174.000; -257.000
921.903; 1581.875;  237.000;  173.000
922.143; 8453.500;  372.000;  389.000
922.383;34383.425;  158.000;  115.000
922.622;13213.575; -120.000;  -15.000
922.862; 1373.450;  796.000;  785.000
923.102;  515.775;  -51.000;   33.000
923.341;  206.950;   59.000;   74.000
923.581;   88.200;  450.000;  360.000
923.821;   30.625;  301.000;  398.000
924.060;   -1.500;  351.000;  193.000
924.300;  -54.075;  -16.000; -128.000
924.539;  -20.825;  584.000;  473.000
924.779;   14.700;  812.000;  597.000
925.018;  -44.550;  247.000;  353.000
925.257;   -1.100;  595.000;  666.000
925.497;  -41.975;  447.000;  412.000
925.736;  -85.950;  -35.000;  102.000
925.975;    2.275;  687.000;  669.000
926.214;   16.875;  907.000;  850.000
926.454;   17.875;  706.000;  757.000
926.693;  -34.000;  419.000;  543.000
926.932;   28.850; 1021.000;  825.000
927.171;   68.575; 1107.000; 1044.000
927.410;   50.350; 1144.000;  967.000
927.649;   22.125;  924.000;  742.000
927.888;  -11.575;  590.000;  564.000
928.127;   -4.450;  680.000;  678.000
928.366;   19.775;  842.000;  826.000
928.605;   43.075;  831.000;  737.000
928.844;  208.575; 1451.000; 1393.000
929.083;  579.200;  770.000;  613.000
929.321;  346.875; 1335.000; 1359.000
929.560;   77.725; 1158.000; 1122.000
929.799;  -36.225;  574.000;  475.000
930.038;   66.250; 1025.000; 1394.000
930.276;  -52.000;  334.000;  397.000
930.515;    0.775;  827.000;  681.000
930.753;  -26.500;  614.000;  589.000
930.992;  -28.100;  664.000;  717.000
931.230;    3.000;  847.000;  847.000
931.469;  167.350; 2162.000;  892.000
931.707;   60.700;  840.000;  751.000
931.946;   58.325; 1278.000; 1344.000
932.184;   56.400; 1437.000; 1175.000
932.423;   31.000; 1265.000;  963.000
932.661;   89.125; 1296.000; 1428.000
932.899;   24.675;  987.000;  821.000
933.137;    7.575;  754.000;  564.000
933.376;  139.500; 1664.000; 1335.000
933.614;  156.275; 1759.000; 1196.000
933.852;   58.000; 1357.000; 1171.000
934.090;  131.550; 1722.000; 1747.000
934.328;  121.025; 1252.000; 1457.000
934.566;  101.425; 1431.000; 1110.000
934.804;  153.100; 1263.000; 1309.000
935.042;  476.350; 1861.000; 1850.000
935.280; 1885.175; 2088.000; 2063.000
935.518; 1961.900; 2113.000; 2007.000
935.756;  412.450; 2481.000; 2316.000
935.994;  163.825; 1808.000; 1751.000
936.231;  329.300; 2890.000; 2950.000
936.469;  186.650; 2367.000; 2378.000
936.707;  167.650; 2220.000; 2167.000
936.945;  210.675; 2825.000; 2882.000
937.182;  201.025; 2679.000; 2741.000
937.420;  290.675; 3602.000; 3031.000
937.657;  403.850; 3365.000; 3478.000
937.895;  361.775; 3331.000; 3488.000
938.133;  304.575; 3540.000; 3528.000
938.370;  337.450; 3896.000; 4191.000
938.607;  386.875; 4488.000; 4205.000
938.845;  559.875; 5587.000; 5549.000
939.082;  491.375; 5387.000; 5177.000
939.320;  531.675; 5799.000; 5728.000
939.557;  640.750; 6549.000; 6491.000
939.794;  699.950; 7285.000; 7097.000
940.031;  885.200; 8421.000; 8368.000
940.269; 1093.000; 9552.000; 9107.000
940.506; 1131.400;10901.000;10507.000

