
Integration time [ms]: 100.000
Averaging Nr. [scans]: 40
Smoothing Nr. [pixels]: 0
Data measured with spectrometer [name]: 2101013U2
Wave   ;Sample   ;Dark     ;Reference
[nm]   ;[counts] ;[counts] ;[counts] 

394.013;   48.665; -450.257; -315.536
394.305;  212.388; -461.258; -419.536
394.596; 1122.235; -676.269; -527.514
394.887; 2772.552; -796.268; -654.518
395.178; 1057.007;  145.736;   11.476
395.470;   83.093; -210.263; -356.526
395.761;  205.091;  305.734;  394.479
396.052;  261.984; -545.284; -306.489
396.343;  271.954; -557.276; -454.503
396.634;  108.073; -200.279; -290.497
396.926;  103.974; -618.268; -565.517
397.217;   98.634;   11.725;  -17.504
397.508;   38.200; -366.273; -154.507
397.799;   43.198; -555.279; -571.497
398.090;    2.192; -973.280; -902.495
398.381;  100.109;   11.708;  -11.473
398.672;  -11.815; -585.292; -742.473
398.963;   47.354; -348.279; -373.498
399.254;   92.919;   54.709; -209.475
399.545;  -34.262;-1017.266; -883.520
399.836;   58.693; -407.277; -343.501
400.127;   44.185; -205.295; -209.468
400.418;   54.144; -423.274; -392.506
400.709;   48.054; -359.281; -333.493
401.000;   27.848; -268.291; -309.476
401.290;   96.097;  225.698;  115.545
401.581;   68.442; -166.286; -228.485
401.872;   20.807; -542.298; -486.462
402.163;   56.753; -313.296; -252.467
402.454;   97.320; -123.291; -163.475
402.744;   71.494; -844.297; -813.465
403.035;  409.600; -226.293;  -86.471
403.326;  530.913; -366.292; -384.474
403.617;  371.927;  204.701;  165.539
403.907;  263.065; -593.283; -679.490
404.198; 2435.801; -545.307; -599.446
404.489; 6332.145; -618.283; -588.491
404.779; 2072.300; -618.302; -660.456
405.070;  235.954;  -67.304; -174.451
405.360;  349.852; -259.293; -238.472
405.651;  363.987;  125.699;   98.542
405.942;  178.087;  209.714;  127.516
406.232;  244.552; -432.285; -413.487
406.523;  436.745;  641.706;  758.530
406.813;   92.290; -579.286; -644.484
407.104;  299.408;  261.708;  144.527
407.394;  153.328; -604.299; -591.462
407.685;  141.876;  336.715;  222.513
407.975;   61.919; -400.283; -382.490
408.265;  114.510; -134.289; -190.478
408.556;   52.267; -472.291; -459.475
408.846;  165.421;  474.706;  429.530
409.137;   90.918;   -1.288; -216.480
409.427;   52.752; -193.285; -271.487
409.717;   39.728; -776.273; -692.508
410.007;  133.270;    4.715; -170.486
410.298;   71.163; -360.295; -342.469
410.588;   79.149; -495.285; -510.486
410.878;   21.929; -792.287; -873.482
411.168;  122.260; -481.298; -478.463
411.459;  115.063; -295.283; -242.489
411.749;   49.266; -609.292; -507.474
412.039;   50.466; -755.289; -386.480
412.329;  194.511;   40.722;  132.501
412.619;  197.290;  -62.286; -148.485
412.909;  374.637;  639.711;  594.521
413.199;  343.168; -130.280; -251.495
413.490;  386.653;  521.710;  352.523
413.780;  140.097;-1013.279; -913.496
414.070;  321.380;  -46.276;  235.497
414.360;  357.307; -729.278; -666.498
414.650;  413.500; -726.288; -688.482
414.940;  532.521; -538.280; -441.496
415.230;  912.597;   50.712;   74.519
415.520; 6158.759;  155.730;   66.486
415.809;24240.879; -305.281; -125.493
416.099;18793.921; -388.277; -229.501
416.389; 5280.992;  435.726;  236.494
416.679; 3131.422;   91.738;   85.473
416.969;  535.784; -527.287; -503.483
417.259;  461.548;  341.721;  171.503
417.549;  680.828;  522.718;  318.508
417.838; 1666.926; -205.268; -147.518
418.128; 5559.358;  650.710;  492.522
418.418; 4689.059; -491.272; -579.509
418.708; 3149.867;    9.726;  -48.506
418.997;11912.238; -474.275; -480.505
419.287;12379.799; -733.273; -790.507
419.577;11772.613; -160.283; -123.489
419.866;38933.344; -588.277; -498.501
420.156;39640.530; -242.270;  -55.513
420.446; 7078.739; -112.263;  -26.526
420.735;  835.349; -376.271; -446.512
421.025;  808.557; 1830.722;  315.502
421.314;  648.672; -203.271; -226.512
421.604; 1255.544;   89.732;  233.484
421.893;  745.543; -705.271; -602.511
422.183;  224.290; -487.263; -461.526
422.472;  378.920;  -36.271; -107.511
422.762;  430.569; -416.266; -379.521
423.051;  231.381; -916.276; -916.503
423.341;  323.626; -491.273; -439.507
423.630;  430.250; -121.265;   15.477
423.919;  391.837;   58.725;   49.495
424.209;  375.695;  -31.263;   56.473
424.498;  499.323;   68.732;  161.483
424.787; 1095.580; -535.267; -601.518
425.077; 3414.599;   34.735;   29.478
425.366; 4638.026; -734.262; -744.528
425.655;10084.077;  639.727;  259.493
425.945;22468.380; -313.247; -268.554
426.234;12486.024;  117.741;  300.467
426.523; 5146.954;  -86.259; -350.534
426.812; 7047.590;  107.734;  159.480
427.101;10418.165; -127.269; -323.515
427.390;13056.309;  -55.270;  -86.514
427.680; 2835.973; -624.257; -411.538
427.969;  479.759; -330.255; -301.540
428.258;  310.340; -385.257; -477.536
428.547;  504.839;  449.728;  397.490
428.836; 1162.350; -421.253; -398.543
429.125; 1686.931; -199.259;  -72.534
429.414;  780.223; -330.251; -294.548
429.703; 3168.248; -231.251; -213.548
429.992; 9499.152; -938.250; -828.549
430.281; 6194.507; -397.264; -331.524
430.570;  563.389;  -21.252;   32.454
430.859;  532.753;  279.741;  352.466
431.148;  416.226;  636.752;  631.446
431.437;  286.988;  391.748;  367.454
431.725;  155.467; -544.257; -481.536
432.014;  134.808; -845.253; -756.545
432.303;  388.702; -149.239; -105.569
432.592;  584.389; -460.263; -178.525
432.881; 1060.302; -601.248; -437.554
433.169; 6393.260; -343.255;  -61.540
433.458;12856.286;  445.765;  540.424
433.747; 5323.231; -397.261; -289.529
434.036;  849.753; -275.242; -280.564
434.324; 2089.564; -395.249; -379.551
434.613; 3688.121;   40.757;  159.437
434.902; 1189.817;  333.760;  439.433
435.190;  507.450;   75.761;  295.431
435.479;  274.378;  -52.245;   83.441
435.767;   92.586; -411.244; -427.561
436.056;  207.223; -340.242; -294.563
436.345;  373.069; -372.240; -223.568
436.633;  387.234;   60.750;  383.450
436.922;  234.521;  208.760;  414.432
437.210;  510.225; -194.236;    1.426
437.499; 1638.334; -583.235; -432.576
437.787; 1799.650; -339.236;  -10.574
438.075;  465.931;   56.761;  162.430
438.364;  642.209;  -44.238;  250.429
438.652;  395.438; -286.226; -138.592
438.941;  124.827;    3.770;  269.415
439.229;    0.861; -665.252; -466.545
439.517;   33.467; -160.234;  -85.577
439.806;    1.754; -501.225; -290.595
440.094;  180.625;  377.766;  650.421
440.382;  162.553; -653.233; -302.580
440.670;  171.108; -361.235; -285.576
440.959;   27.747; -347.223; -170.599
441.247;   56.914; -151.229; -109.587
441.535;  103.315; -266.235;   31.423
441.823;   34.847; -497.234; -305.578
442.111;  175.818;  173.771;  327.412
442.400;  466.077; -628.245; -335.559
442.688; 1209.824; -111.234; -620.579
442.976;  852.659; -786.213; -450.617
443.264;   98.086; -324.224; -364.597
443.552;   89.915; -258.226;   51.408
443.840;  172.389;  602.765;  876.423
444.128;  103.828;  265.767;  269.420
444.416;   -7.104; -694.228; -312.588
444.704;   20.651; -465.219;  -92.605
444.992;   65.392;   -0.226;  240.407
445.280;   35.378; -517.230;  -94.585
445.568;   29.738; -694.212; -396.618
445.856;  308.085; -174.221;  357.398
446.143;  687.373;  -54.220;   -7.604
446.431;  557.824;  -25.228;  625.411
446.719;  233.696;  489.783;  675.391
447.007;  182.347;  481.769;  705.416
447.295;  181.094;  597.777;  871.402
447.583;   72.187; -464.229;  -34.587
447.870;  155.432; -434.221; -202.601
448.158;  367.452; -104.230;  129.415
448.446;  293.799; -800.219; -338.604
448.733;  174.912;   13.776;  269.403
449.021;  234.788;   60.788;  341.382
449.309;  188.978; -296.210;  208.379
449.596;  223.742;  128.783;   59.392
449.884;  156.451; -571.222; -325.600
450.172;  148.055; -756.227; -406.590
450.459;  441.368;  645.786;  780.387
450.747; 2452.565; -411.218; -147.608
451.034; 7824.251;  493.772;  889.411
451.322; 6512.296; -413.214; -170.614
451.609;  546.564;  292.777;  508.403
451.897;  614.916; -550.203; -183.634
452.184; 1854.119; -622.223; -400.598
452.472; 1709.549;   97.792;  269.375
452.759;  324.174;  512.781;  864.395
453.047;  103.935; -407.212; -125.617
453.334;   64.982; -732.219; -216.606
453.621;   56.773; -438.214; -161.615
453.909;  111.183;   13.796;  384.368
454.196;  104.578; -299.199; -123.641
454.483;  189.729;  317.798;  540.364
454.771;  148.627; -215.208;  196.374
455.058;   39.705; -316.207;  102.374
455.345;  131.458;   71.807;  344.347
455.632;   95.859; -128.207;  235.373
455.919;   52.526;  -82.196;  182.354
456.207;  -67.067; -774.198; -450.642
456.494;  -19.259; -475.200;  -66.639
456.781;   -1.151; -399.202; -198.635
457.068;   58.040; -253.206;  -29.628
457.355;  -12.584; -698.206; -401.629
457.642;   -8.953; -552.205; -290.630
457.929;    1.574; -778.194; -417.651
458.216;   72.560; -575.212; -354.617
458.503;  239.879; -173.193;  -19.652
458.790;  237.750; -864.208; -630.625
459.077;  272.354;  -77.202;  110.364
459.364;  825.342; -350.195; -210.649
459.651; 1718.838;  -46.206;  220.372
459.938;  789.140; -864.209; -665.623
460.225;  143.582;  132.799;  276.363
460.512;  -52.127; -836.197; -688.645
460.799;   95.414;  -32.218;  320.392
461.086;   69.345; -370.200; -251.640
461.372;   47.333; -509.198; -279.642
461.659;   98.502; -165.196;  108.354
461.946;   47.753; -445.193;  -54.651
462.233;  231.543;  842.800;  888.361
462.519;  365.640; -814.201; -464.639
462.806; 1026.723; -768.197; -497.645
463.093;  903.873; -445.191;  -66.656
463.380;  -25.285; -920.186; -824.664
463.666;   56.675; -259.197;  -18.646
463.953;   94.837; -406.195; -243.648
464.239;  197.737; -173.195;  -77.648
464.526;  389.823;  413.806;  743.350
464.813;  313.785; -565.190; -304.658
465.099;  331.979;  606.807;  607.348
465.386;  323.083;  903.807;  921.348
465.672;   19.173; -694.197; -522.645
465.959;   15.703; -598.188; -520.662
466.245;    7.233; -468.193; -359.652
466.532;   94.160; -109.195;   63.352
466.818;   58.439; -357.186; -216.664
467.104;    0.879; -488.182; -415.672
467.391;  -24.938; -628.189; -459.658
467.677;   29.618; -289.186;    9.335
467.964;    7.018; -682.189; -471.660
468.250;   42.746; -331.186; -160.665
468.536;   84.688;   90.811;  180.341
468.822;  -33.118; -821.184; -574.668
469.109;  131.960;  351.827;  471.311
469.395;  164.142;  729.808;  787.346
469.681;  189.466;   46.811;  156.341
469.967; 1254.271; -699.188; -382.660
470.254; 2757.879; -494.188; -306.662
470.540; 1768.200; -601.196; -476.646
470.826;  263.566; -488.181; -397.675
471.112;  312.611;  288.816;  113.331
471.398;   89.941; -253.183;  -58.670
471.684;   43.419; -626.177; -447.680
471.970;   -3.806; -918.180; -981.675
472.256;   17.666; -521.192; -441.654
472.542;    4.021; -499.171; -434.691
472.828;   13.850; -743.182; -607.672
473.114;   27.140; -380.166; -283.700
473.400;   12.635; -504.175; -293.684
473.686;   31.521; -452.166; -400.701
473.972;   50.325; -230.174; -131.687
474.258;  -42.040; -925.173; -843.689
474.544;  218.211; -183.178;   -2.679
474.830;  331.837;  -65.175;   45.316
475.116;  511.586; -123.190; -196.658
475.401;  693.797; -558.180; -467.676
475.687;  206.171; -725.180; -718.676
475.973;   -6.142; -673.181; -770.673
476.259;  235.989;  736.825;  764.315
476.544;  374.927; -539.176; -437.682
476.830;  850.317; -398.172; -322.690
477.116;  758.451; -430.177; -336.682
477.401;  144.546;  346.820;  358.324
477.687;   -5.039; -289.175; -405.684
477.973;   49.362;   21.819;   28.326
478.258;   -5.959; -448.163; -348.706
478.544;   44.351;   21.815;   61.334
478.829;  -52.523; -818.171; -738.692
479.115;  -42.008; -749.172; -651.690
479.401;   -1.704; -444.174; -449.686
479.686;   36.895; -253.180;  -74.676
479.972;  -29.559; -886.178; -776.680
480.257;   29.216; -258.166;  -65.700
480.542;    2.931; -614.170; -469.693
480.828;  224.834; 1288.824; 1392.317
481.113;  -30.893; -464.176; -426.683
481.399;   -6.910; -236.161; -202.711
481.684;  -51.484; -620.166; -462.700
481.969;   21.404; -158.159;  -73.713
482.255;   10.191; -439.169; -285.695
482.540;    8.766; -569.178; -441.680
482.825;    7.360; -395.187; -404.663
483.110;   78.770;  -85.169; -105.696
483.396;  207.825; -840.157; -652.718
483.681;  507.750;  543.826;  730.313
483.966;  158.248; -696.160; -700.712
484.251;   15.799; -404.174; -310.687
484.536;   -1.674; -356.165; -378.703
484.822;   17.077; -205.173; -218.687
485.107;  -14.187; -599.152; -502.726
485.392;  128.957;  662.836;  541.296
485.677;   77.604;  354.832;  163.302
485.962;  113.548;  160.843;  270.283
486.247;   88.799;  -14.162;   -8.707
486.532;   43.067; -178.166; -325.701
486.817;  165.510;  381.839;  431.291
487.102;  103.746; -453.154; -514.722
487.387;  685.327; -637.156; -652.718
487.672; 1232.362; -154.164;  -38.705
487.957;  794.517; -394.160; -286.711
488.241;  221.355; -290.150; -314.729
488.526;  772.165; -280.152; -148.726
488.811; 1253.368; -881.177; -818.680
489.096;  928.074; -666.154; -702.723
489.381;  507.411;    3.847;  162.275
489.666;  384.040; -428.161; -510.710
489.950;  202.202;  558.846;  627.277
490.235;  -22.800; -480.151; -458.728
490.520;  -40.261; -756.161; -723.710
490.804;  -54.046; -827.156; -736.719
491.089;    2.271; -469.149; -299.732
491.374;   34.811; -132.164;  -75.704
491.658;  -29.943; -817.147; -717.735
491.943;  156.219; -657.152; -609.727
492.227;  265.992; -178.155;  -38.721
492.512;   45.572; -294.157; -341.717
492.797;  -56.735; -713.149; -716.731
493.081;  -55.265; -588.147; -598.735
493.366;  -44.409; -751.161; -635.711
493.650;  216.113;  831.859;  917.254
493.935;   34.807; -648.147; -447.734
494.219;  -39.400; -778.142; -687.743
494.503;  -46.815; -585.150; -487.730
494.788;   48.789;   46.842;   74.285
495.072;  118.756;  184.850;  434.271
495.356;  175.324; -463.148; -343.733
495.641;  460.892; -812.146; -736.736
495.925;  439.534; -976.156; -903.719
496.209;   50.095; -599.149; -451.732
496.494;  -46.299; -763.142; -544.744
496.778;   10.172; -364.154; -360.722
497.062;  -48.016; -819.156; -627.719
497.346;  -29.181; -869.160; -640.711
497.631;  140.278;  580.852;  560.266
497.915;   76.027;  -64.145;  175.261
498.199;   57.825; -341.157; -277.718
498.483;   29.738; -562.152; -508.725
498.767;  209.808;  301.850;  300.271
499.051;  197.493; -126.149; -100.732
499.335;   40.041; -693.149; -739.731
499.619;  -46.511; -381.129; -423.767
499.903;   27.791; -272.155;  -65.721
500.187;   20.654; -588.153; -316.724
500.471;   16.643; -796.152; -595.727
500.755;  105.214;   62.839;  -96.710
501.039;   22.841; -270.155; -357.721
501.323;   88.265;  -21.141;  264.254
501.607;   32.817; -447.163; -503.706
501.891;    0.652; -607.156; -512.718
502.174;  -41.462; -726.144; -585.741
502.458;   66.272;   89.849;  370.273
502.742;   38.139; -180.138; -191.751
503.026;  126.506; -412.147; -254.734
503.310;  175.778; -437.159; -375.713
503.593;  127.408; -464.147; -325.735
503.877;  118.604; -232.133; -156.760
504.161;  174.281;    2.847;  -50.724
504.444;  129.216; -841.158; -710.716
504.728;  476.085; -487.164; -522.704
505.012;  750.079; -257.150;  -76.729
505.295;  567.115; -417.161; -212.711
505.579;  557.983; -256.156; -496.719
505.862;  784.848; -555.145; -333.738
506.146;  744.380; -681.159; -758.714
506.429;  414.331;  568.841;  461.286
506.713;   74.802; -732.151; -667.728
506.996;  322.346;   90.846;  295.278
507.280;  373.880; -633.165; -474.703
507.563;  245.290; -469.155; -261.721
507.847;  121.204; -423.153; -112.724
508.130;   92.991; -665.161; -456.711
508.413;  121.412; -758.167; -577.700
508.697;  259.612; -151.167;   12.300
508.980;  147.256; -422.153; -312.724
509.263;  -11.739; -466.155; -450.720
509.547;   36.429; -124.150;   82.271
509.830;   54.518; -172.160;  140.289
510.113;   88.783;  128.844;  298.281
510.396;   28.687; -530.152; -300.725
510.680;  143.700; -818.145; -812.738
510.963;  545.775;  184.846;  180.277
511.246;  456.187; -493.150; -357.730
511.529;  266.580; -482.145;  -83.739
511.812;  408.976; -250.134;   10.241
512.095;  294.574; -740.151; -396.728
512.378;   80.287; -317.147; -245.736
512.661;   41.796; -703.137; -623.753
512.944;   33.228; -750.142; -637.744
513.227;   60.144; -170.137; -171.752
513.510;   31.963; -479.144; -671.741
513.793;   24.219; -485.140; -435.747
514.076;  141.910;  -43.127;  -39.771
514.359;   96.146; -294.149; -135.732
514.642;   81.055; -442.142; -567.744
514.925;  793.368;  581.860;  561.253
515.208; 1060.497; -498.134; -443.758
515.491;  679.511; -276.133; -182.761
515.773;  383.942; -410.143; -337.742
516.056; 2171.703;  249.864;  409.246
516.339; 2928.507; -754.136; -652.755
516.622; 1880.285; -518.150; -488.730
516.904; 1128.724;  882.857;  975.257
517.187;  521.692; -730.138; -523.752
517.470;  400.648; -568.143; -510.743
517.752;  452.660; -624.136; -470.756
518.035;  346.480; -708.139; -725.749
518.318;  388.082; -799.136; -744.755
518.600; 2524.739; -300.132; -325.762
518.883; 3481.630;  310.858;   88.256
519.165; 1694.685; -585.138; -426.751
519.448;  397.189;  -61.132;  -19.762
519.730;  191.893; -573.126; -415.773
520.013;  302.632;  588.867;  664.240
520.295;  752.027;  -94.134;  -15.759
520.578; 1665.352; -335.131; -305.764
520.860; 1879.614; -254.132;   56.238
521.143; 1013.162; -763.135; -584.756
521.425;  483.406; -251.125; -279.775
521.707;  731.586; -622.127; -380.771
521.990; 1835.711; -199.127;  167.229
522.272; 2101.821; -116.140;   -4.748
522.554;  927.243; -237.143; -157.742
522.836;  340.300;  -24.134;   99.241
523.119;  210.755; -496.148; -189.734
523.401;  159.484; -448.130; -314.766
523.683;   99.722; -865.137; -693.753
523.965;  269.990;  408.862;  260.248
524.247;  311.352;   54.878;  170.220
524.529;  212.077; -451.134; -367.759
524.812;  359.686;   -3.130;  191.234
525.094;  908.090; -773.138; -631.751
525.376; 1420.715; -143.124;   78.223
525.658;  874.229; -441.136; -339.754
525.940;   45.449; -805.131; -671.764
526.222;   29.183; -188.136;  -88.755
526.504;  116.072; -190.131;   32.237
526.786;  159.205; -960.133; -647.760
527.068;  285.970; -124.123;  -67.778
527.349;  108.126; -865.137; -774.754
527.631;  140.314; -137.132;   22.238
527.913;  145.485; -664.127; -450.771
528.195;  182.999; -761.125; -639.774
528.477;  267.997;  -93.134;  -30.758
528.759;  136.686; -648.130; -522.766
529.040;   72.144; -569.123; -293.778
529.322;   54.926; -235.125;  -10.774
529.604;  149.513;  -47.130;   93.233
529.886;  108.117; -546.126; -302.773
530.167;  130.580;  232.870;  192.235
530.449;   51.786;    1.853;   63.265
530.731;   33.576; -572.122; -459.779
531.012;   75.647; -513.120; -216.784
531.294;   81.236; -118.116;  -43.792
531.575;  146.481;  290.875;  538.225
531.857;   67.492; -548.135; -266.757
532.138;   80.789; -113.141;   40.254
532.420;  175.613;  294.865;  403.244
532.701;  195.257; -722.133; -751.760
532.983;  337.385;  232.867;  182.239
533.264;  120.640; -243.126;  175.228
533.546;  -33.018; -491.136; -508.755
533.827;   50.604;  173.867;   -1.759
534.109;   31.492; -352.135;  -80.757
534.390;   72.893; -725.132; -582.762
534.671;  248.188; -270.135;  -82.756
534.953;  155.422; -751.123; -611.779
535.234;   32.271; -426.117; -255.789
535.515;  -79.970; -891.119; -735.785
535.796;  -19.469; -431.128; -193.770
536.078; -108.211;-1050.124; -904.777
536.359;    7.797;  -22.123;    3.221
536.640;  -17.850; -480.125; -197.774
536.921;  158.068;  225.871;  143.232
537.202;  386.087;  -87.138;  -16.751
537.483;  467.552;  251.869;  377.236
537.764;  184.305;   17.870;   98.235
538.045;  -41.629; -543.134; -371.758
538.326;  -31.780; -596.129; -447.768
538.607;   25.936; -686.127; -476.771
538.888;  199.063;   98.879;    5.218
539.169;  206.332; -704.122; -535.781
539.450;  352.642;  236.871;   16.233
539.731;  218.867; -361.121; -182.783
540.012;  138.047;  199.880;  412.216
540.293;   87.909;   82.876;  158.224
540.574;   16.856; -895.113; -717.796
540.855;  450.015;  435.879;  377.218
541.136;  554.030;   47.878;  139.220
541.416;  281.536; -161.130; -220.766
541.697;  198.472; -274.131; -170.763
541.978; 1082.940; -270.135; -315.757
542.259; 1353.186; -211.127; -236.771
542.539;  668.355; -191.116; -186.790
542.820;  184.180;  461.875;  480.225
543.101;  134.277;  -52.145;  -77.738
543.381;   40.936; -638.127; -591.771
543.662;  282.859;  159.873; -254.771
543.942;  618.607; -751.127; -830.770
544.223; 1108.106;  193.878;  161.219
544.504;  693.489; -275.124; -182.777
544.784;  607.417; -592.126; -408.773
545.065; 1715.033;  104.884; -254.791
545.345; 2025.330;  227.881;   14.215
545.626; 1344.806;  -14.113; -108.796
545.906;  924.329;   77.869;   98.235
546.186;  377.572;   92.874;  -95.773
546.467;  217.317;   99.877;  -95.778
546.747;  341.379;  264.884;  327.210
547.027;  392.313;   91.876;  111.223
547.308;  343.006; -376.127; -530.770
547.588;  420.121;  299.871;  371.232
547.868;  196.630;  458.870;  588.235
548.149;  208.641;  609.885;  593.207
548.429;  144.784; -347.127; -299.771
548.709;  207.671; -645.120; -461.784
548.989;  494.390;   84.882;   88.213
549.269; 2196.363;   10.868;  139.239
549.550; 5024.571;  215.877;  117.222
549.830; 4521.499; -758.111; -556.799
550.110;  916.081; -468.110; -320.801
550.390;  844.176; -128.122;  -56.779
550.670; 1183.376; -868.114; -783.795
550.950;  839.165; -509.121; -471.782
551.230;  193.836;  549.879;  460.218
551.510;    1.064; -381.121; -326.782
551.790;   25.789; -173.109; -127.803
552.070;  271.217;  940.877; 1181.223
552.350;  431.034; -492.119; -377.786
552.630;  620.959;   -2.121;   77.219
552.909;  384.034;  181.884;   73.209
553.189;  254.144;  -49.132;   33.237
553.469;  208.609; -703.119; -514.786
553.749;  204.613; -469.127; -357.772
554.029;  174.225;   33.883;  -24.790
554.308;  157.195; -154.115;  -37.794
554.588;   78.855; -196.128; -204.770
554.868;   83.716; -366.121;  -47.782
555.147;  153.192; -114.115;  -46.793
555.427;  642.986; -260.116; -250.792
555.707; 4108.590; -284.115; -200.793
555.986; 4925.152; -719.111; -538.800
556.266; 2582.228;   23.884;   72.210
556.546;  136.264; -888.121; -675.782
556.825;  261.424; -657.114; -556.794
557.105; 1880.028; -125.128;   17.230
557.384; 2179.958;  122.884;  187.209
557.664;  840.260; -717.116; -508.792
557.943;  120.990; -557.121; -411.782
558.222;  193.493; -345.118; -344.788
558.502;  270.868; -116.115;  -76.793
558.781;  529.939;  194.885;  499.208
559.061;  430.743; -232.118; -227.788
559.340;  306.372;  302.883;  353.211
559.619;  758.978;   93.884;  148.210
559.899; 1088.424; -239.117; -266.789
560.178; 1010.368; -778.115; -593.793
560.457; 3316.601; -623.117; -562.790
560.736; 4562.853; -472.111; -482.800
561.015; 3055.075; -500.128; -502.769
561.295;  405.284;  180.893;  215.193
561.574;  345.641;  119.885;  116.207
561.853;  490.643;  274.891;  303.197
562.132;  513.696;  -45.114;  182.206
562.411;  469.809;  396.879;  553.219
562.690;  150.739; -592.115; -458.792
562.969;  131.338;  472.888;  630.203
563.248;  474.657; 2966.878; 2487.219
563.527;  303.502; -290.111; -408.800
563.806;  394.659; -650.127; -521.771
564.085;  445.499; -297.105; -206.810
564.364;  254.602; -594.117; -405.790
564.643;  533.910; -276.121; -223.781
564.922; 1996.762;  221.890;  397.198
565.201; 2002.816; -640.109; -700.803
565.479;  860.287; -297.115; -219.792
565.758;  349.453; -810.128; -712.770
566.037;  505.042; -155.109; -100.803
566.316;  236.133; -286.116;  -28.791
566.595;   44.940;  -17.115;  -12.793
566.873;  109.379; -166.111;  -79.801
567.152;  -51.538; -490.113; -590.797
567.431;    6.954; -113.116;    6.210
567.709;   16.259; -344.107; -212.807
567.988;  272.974; -810.114; -769.794
568.266;  550.040; -160.115;  -68.793
568.545;  399.521; -644.100; -514.819
568.824;  611.612;  160.885;  356.208
569.102;  578.749; -351.114; -235.794
569.381;  248.961; -492.116; -407.792
569.659;  -46.591; -553.113; -553.796
569.938;   27.155; -743.122; -465.780
570.216;  112.519; -225.109; -225.804
570.494;   -7.423; -632.114; -572.795
570.773;   42.863;  202.879;  114.218
571.051;    2.394; -373.123; -357.778
571.330;   56.081; -221.113; -174.796
571.608;   50.039; -181.098; -173.823
571.886;  -46.953; -671.111; -581.799
572.164;  -63.759; -739.121; -621.782
572.443;  -41.447; -562.105; -512.811
572.721;  -33.624; -399.117; -289.790
572.999;  -20.605; -280.117; -168.788
573.277;   99.946;  379.894;  620.191
573.555;  300.723;   94.894;   37.190
573.834; 1425.894;  -86.117; -114.788
574.112; 1662.911;  880.893;  811.193
574.390;  500.978; -143.111;  -96.801
574.668;    7.588;  -91.112;  -61.797
574.946;   -7.252; -165.106; -187.810
575.224;   18.066;   71.891;  -16.803
575.502;   -8.669; -200.116; -204.791
575.780;  -81.936; -767.112; -829.798
576.058;  196.278; 1589.889; 1004.200
576.336;   -5.092; -210.110; -129.801
576.614;  -50.435; -511.112; -340.798
576.891;   61.870; -711.115; -823.794
577.169;  505.377; -158.108; -285.805
577.447;  595.786;  169.893;  202.193
577.725;  289.619;  629.888;  854.201
578.003;   10.842;  -71.112; -371.798
578.280;  111.036; -208.104; -242.812
578.558;   64.843; -450.115; -422.793
578.836;  125.602; -210.114; -145.795
579.114;   71.113; -630.112; -670.797
579.391;   72.796;   -6.117;  -18.789
579.669;  -71.380; -595.114; -704.794
579.947;  174.082; -326.107; -127.806
580.224;  334.707; -692.107; -524.806
580.502;  342.436;  127.893;   76.193
580.779;   15.702;  -42.117;   75.210
581.057;  -64.955; -584.109; -470.804
581.334;  -85.599; -726.102; -695.815
581.612;   44.324;   54.895;  511.190
581.889;  -26.535;  -83.101; -129.818
582.167;  -42.921; -298.099; -190.821
582.444;  -97.741; -845.102; -814.817
582.721;  106.885;  657.899;  715.183
582.999;   60.076; -326.100; -167.821
583.276;  572.199; -812.123; -713.779
583.553;  754.205; -364.102; -294.816
583.831;  256.633; -607.104; -631.812
584.108;   62.425;  349.892;  174.195
584.385;   13.751; -122.102;  -98.815
584.662;  -64.095; -651.111; -828.801
584.940;   36.079;  204.889;  204.199
585.217;   -8.817;  -73.113; -303.796
585.494;   33.838;   71.890;  118.198
585.771;  217.396; -250.109; -354.804
586.048;  525.258; -196.113;  -76.796
586.325;  326.782; -721.110; -773.801
586.602;   96.112;  230.896;  213.188
586.879;  -19.452; -499.100; -580.820
587.156;   47.450; -156.105; -331.810
587.433;  -47.843; -701.102; -667.817
587.710;   76.665;  152.888;  234.202
587.987;  298.055; -264.105; -236.811
588.264;  795.142;  315.888;  387.202
588.541; 1377.714;  -61.104;   26.187
588.818; 2775.548;   72.892;  171.196
589.095; 2354.610; -163.104; -174.812
589.371;  390.643; -459.109; -414.804
589.648;   22.861; -581.107; -437.807
589.925;   32.028; -517.114; -621.795
590.202;   24.490; -741.112; -607.798
590.478;   89.657; -166.105;  -73.811
590.755;  285.954; -241.108; -132.806
591.032; 2569.684; -741.110; -699.802
591.308; 3550.529; -732.094; -790.831
591.585; 1871.084; -573.110; -560.802
591.862;  155.984;-1056.102; -950.817
592.138;   71.301; -475.108; -474.805
592.415;  163.913; -486.104; -495.813
592.691; 1510.335;  460.896;  518.188
592.968; 1917.791; -208.098; -123.824
593.244;  917.779; -695.116; -595.790
593.521;   75.009; -105.102;  -42.817
593.797;   -8.823; -810.122; -720.780
594.074;  342.228; -611.096; -588.826
594.350;  667.414;  828.905;  729.172
594.626;  320.730; -303.111; -283.801
594.903;  119.760; -643.101; -645.817
595.179;  202.366;  243.896;  418.187
595.455;   15.012; -136.107; -150.807
595.731;    6.768;  -19.103;  -38.814
596.008;  -42.401; -464.111; -434.800
596.284;   38.975; -187.100; -242.820
596.560;   73.735; -501.093; -493.833
596.836;  221.577; -173.105;  -70.810
597.112;  367.052; -582.108; -437.805
597.388;  295.501;  -49.097;  -48.826
597.665;  124.236;  437.887;  530.203
597.941;  -54.286; -572.089; -658.839
598.217;   15.263; -323.110; -293.802
598.493;  263.447;   61.891; -204.804
598.769;  522.219; -175.100;  -50.819
599.045;  311.780; -490.108; -562.806
599.321;   72.124; -193.100; -261.820
599.597;  150.871; -355.109; -476.804
599.872;  490.264;  409.896;  429.187
600.148;  377.652;  -61.097; -172.826
600.424;  294.335;   91.893;  202.193
600.700;  236.637; -170.107; -280.807
600.976;  131.497; -442.097; -464.825
601.252;  257.793; -226.109; -272.803
601.527;  229.515; -833.104; -840.813
601.803;  160.082; -453.105; -404.812
602.079;  178.294; -124.100; -118.819
602.354;  598.520; -620.092; -531.835
602.630;  833.158; -140.113; -482.796
602.906; 2384.015; -910.101; -863.818
603.181; 6933.284; -627.119; -534.786
603.457; 5851.175;   98.903; -278.826
603.733;  860.242; -605.120; -626.783
604.008;  971.349; -245.106; -164.810
604.284; 3168.561; -636.101; -580.817
604.559; 2707.119;   -3.112;  -42.799
604.835;  487.152; -163.105; -225.810
605.110;  430.054; -732.099; -892.821
605.385;  696.313;  224.907;  267.167
605.661;  683.067; -625.095; -729.829
605.936; 1227.530; -664.108; -737.806
606.211; 1026.575;  -17.103; -170.815
606.487;  217.722; -329.114; -376.794
606.762;   17.734; -791.119; -745.786
607.037;  -21.798; -501.105; -433.810
607.313;  -60.190; -589.096; -574.828
607.588;   -5.952; -375.106; -137.810
607.863;   28.939;  -28.101; -143.818
608.138;  182.336;  513.890;  516.198
608.413;   31.508; -576.099; -592.822
608.688;   54.327; -203.108; -267.805
608.964;  218.818; -509.106; -218.809
609.239;  256.999; -107.105; -212.810
609.514;  259.632;  281.895;  240.188
609.789;  657.862; -187.104; -716.812
610.064;  888.334; -435.096; -609.827
610.339;  909.393; -855.109; -799.804
610.614; 1207.599; -131.100; -315.820
610.889;  682.407;  215.895;  107.188
611.163;   43.483; -407.104; -591.812
611.438;   88.199;   81.886; -167.794
611.713;   24.961; -467.101; -499.817
611.988;   64.438; -144.101; -328.818
612.263;   -2.974; -771.102; -717.815
612.538;  220.308;  385.887;  251.204
612.812;  184.901; -832.100; -911.820
613.087;  147.113; -358.098; -338.823
613.362;  -49.638; -497.107; -557.807
613.637;   51.171;  261.897;  138.186
613.911;   -2.179; -256.092; -345.835
614.186;  124.036; -249.107; -292.807
614.460;  722.164; -842.081; -758.854
614.735;  813.263;  -55.087;  -17.843
615.010;  166.153;   43.912;  -82.841
615.284;  256.976;  360.892;  246.195
615.559;  364.344; -792.092; -955.835
615.833;  302.231;  -76.099;  -87.822
616.108;    5.081; -225.090; -390.837
616.382;  145.164;  274.913;  402.156
616.656;  166.332; -241.090; -232.837
616.931;  527.857; -785.099; -700.822
617.205; 1069.866; -973.104; -979.813
617.480; 1006.203;  -91.125;    6.225
617.754;  179.251; -396.125; -128.774
618.028;   17.572; -369.129; -382.768
618.302;   63.800;   73.892;  -25.805
618.577;  -23.678; -371.103; -518.815
618.851;  -49.685; -399.109; -600.803
619.125;  -51.848; -335.134; -378.759
619.399;  -27.984; -244.104; -374.813
619.673;  -42.988; -330.115; -515.792
619.947;  -36.923; -333.114; -448.795
620.222;  -18.319; -198.110; -204.801
620.496;    2.015;  -47.121;  -96.782
620.770;   21.007; -187.122;  -93.781
621.044;  215.250;  323.895;  346.190
621.318;  744.168; -653.120; -614.783
621.592;  686.791; -430.121; -409.783
621.866;  386.220; -476.112; -572.799
622.140;   22.256; -207.116; -356.791
622.413;   66.724;  138.889;  112.200
622.687;  -30.189; -746.101; -492.817
622.961;   23.225; -130.108; -143.805
623.235;  -49.550; -633.111; -661.800
623.509;  -95.318; -816.105; -848.811
623.783;   17.058;  -12.107;   48.193
624.056;  -23.956; -254.120; -280.783
624.330;   60.538;   63.888;   -3.797
624.604;   53.477; -271.116; -355.790
624.877;   90.385;  180.890;   26.198
625.151;   44.946; -249.114; -238.794
625.425;  -32.382; -150.103; -283.814
625.698;  -68.872; -367.119; -374.785
625.972;  -83.837; -799.110; -765.802
626.245;   70.829;  685.884;  484.210
626.519;  -46.077; -426.120; -340.784
626.792;  -25.313; -192.107; -380.807
627.066;  -94.625; -485.122; -662.779
627.339; -100.341; -736.110; -663.802
627.613;   50.047;  351.880;  148.216
627.886;   54.940;  187.891; -612.803
628.160;   -6.132;  312.880; -161.783
628.433;  -76.519; -695.125; -703.775
628.706;  -82.427; -517.120; -615.784
628.979;   25.038;  296.876;  117.223
629.253;  -82.242; -785.119; -833.786
629.526;  380.166; -334.126; -253.772
629.799;  365.670; -641.123; -479.778
630.072;  196.973; -497.128; -516.769
630.346;  -67.821;-1115.116;-1080.790
630.619;  479.188; -467.107; -545.808
630.892;  623.301;  709.889;  593.200
631.165;  326.141;  790.896;  679.187
631.438;  -68.833;-1092.112;-1055.798
631.711;   57.373;  453.877;  257.221
631.984;  -53.225; -523.117; -624.789
632.257;  -73.229; -636.117; -681.789
632.530;  -35.721; -412.119; -433.785
632.803;   28.169; -109.115;    7.207
633.076;  -63.459; -360.123; -422.777
633.349;   -4.148;  173.872;  121.231
633.622;  -37.697; -187.119; -240.785
633.895; -127.431; -903.120; -823.783
634.167;  -69.732; -496.126; -525.773
634.440;    0.336;  -19.116; -137.792
634.713;    1.407;  -22.119; -120.786
634.986;   97.992;  593.871;  453.233
635.258;  -88.008; -507.115; -597.793
635.531;   78.292;  742.882; -343.788
635.804;  -21.477; -303.117; -318.789
636.077;  -77.193; -830.116; -852.791
636.349;    0.391; -586.115; -474.793
636.622;  397.190; 1695.874; 1392.228
636.894;  232.848; -474.120; -909.784
637.167;  152.609; -836.127; -789.771
637.439;   19.330; -278.128; -213.770
637.712;  -57.658; -312.126; -293.772
637.984;  -94.343; -635.116; -707.791
638.257;  381.842;  515.877;  488.222
638.529;  586.857; -881.125; -924.776
638.802;  246.073; -508.128; -449.769
639.074;  -99.219; -927.122; -952.781
639.346; -118.556; -942.135; -930.757
639.619;   -6.196;  -79.142; -319.744
639.891;    6.750;  -83.122; -168.779
640.163;  -72.498; -689.122; -756.780
640.435;   29.004;  273.878;  103.220
640.708;   18.130;  -72.122; -132.780
640.980;  -28.543; -366.122; -362.781
641.252;  187.959;  -25.121;  -71.781
641.524; 1804.986;  580.879;  573.219
641.796; 1841.438;-1094.121; -907.782
642.068;  331.989; -191.121; -300.782
642.340;  -67.409; -486.121; -566.783
642.613;   40.068;  294.880;  323.217
642.885;  -97.355; -787.120; -878.783
643.157;  -46.003; -810.120; -658.784
643.428;   77.824;  170.880;  218.216
643.700;  -86.675; -498.120; -425.784
643.972;  -43.923;  -16.119; -133.785
644.244;  -88.996; -474.119; -559.785
644.516;  -44.269; -250.119; -114.786
644.788;   52.308;  662.881;  548.214
645.060;  -29.840;  -12.119; -124.786
645.332; -107.089; -525.118; -535.787
645.603;   30.638;  479.882;  342.213
645.875;  -82.535; -334.118; -369.787
646.147;  185.392; 1487.882; 1242.212
646.418;  -52.181; -931.117; -918.788
646.690;  158.171; -714.117; -715.789
646.962;   43.747; -413.117; -451.789
647.233;   -2.951;   15.883;   11.211
647.505; -104.799; -595.117; -475.790
647.776;   17.828;  328.884;  229.210
648.048;    2.980; -248.116; -418.790
648.320;  -63.244; -752.116; -679.791
648.591; -144.317;-1055.116; -958.791
648.862;  -81.390; -505.116; -577.792
649.134;   11.362;  115.885;  198.208
649.405;  -49.836; -661.115; -618.792
649.677;  -43.209; -475.115; -598.793
649.948;   -1.058; -181.115; -296.793
650.219;  -13.856;  -37.115; -147.793
650.491;  -80.029; -431.114; -520.794
650.762; -119.002; -705.114; -731.794
651.033;  -76.075; -437.114; -424.795
651.304;  -92.848; -743.114; -728.795
651.576;  -65.397; -680.114; -645.795
651.847;  -49.220; -250.113; -140.796
652.118;  -21.093;  -32.113; -189.796
652.389;  -95.191; -639.113; -722.796
652.660;  -30.464; -147.113;  -89.797
652.931; -139.662; -897.112; -871.797
653.202;  -86.336; -382.112; -541.798
653.473;  -52.784; -633.112; -533.798
653.744;  179.918; -595.112; -590.798
654.015;  132.120; -356.112; -303.799
654.286;  -65.103; -642.111; -663.799
654.557;  -62.102; -586.111; -521.799
654.828; -162.425;-1114.111;-1088.800
655.099;  -87.698; -404.111; -291.800
655.370;  -87.821; -427.111; -543.801
655.641; -131.919; -656.110; -714.801
655.911; -106.717; -618.110; -638.801
656.182;   50.034;  437.890;  387.198
656.453;   86.486;  830.890;  746.198
656.724;  -77.087; -466.110; -426.802
656.994;  -78.260; -553.109; -568.803
657.265; -102.808; -862.109; -873.803
657.536;  -80.131; -500.109; -377.804
657.806; -102.480; -561.109; -593.804
658.077; -130.578; -866.109; -950.804
658.347;  -83.576; -523.108; -598.805
658.618; -115.874; -646.108; -694.805
658.888;  -15.247;  -41.108;  112.195
659.159;  -82.721; -432.108; -548.806
659.429;  -36.644; -292.108; -349.806
659.700;   29.558; -435.107; -390.807
659.970;   -1.365; -370.107; -359.807
660.241;   20.312; -754.107; -921.807
660.511;  529.114; -147.107; -174.808
660.781;   97.840; -793.106; -748.808
661.052;  -50.958; -222.106; -381.808
661.322;  -27.331;   21.894;   -9.809
661.592;   15.946;  257.894;  148.191
661.862;  -71.277; -369.106; -382.810
662.133;  -94.600; -551.105; -502.810
662.403; -128.349; -770.105; -676.810
662.673;  -70.922; -256.105; -213.811
662.943; -105.845; -612.105; -551.811
663.213;   -4.993;  -85.105;  -81.811
663.483;  -75.191; -593.104; -568.812
663.753;  -51.814; -194.104; -152.812
664.023;   -6.513;   68.896;  -32.813
664.293;  -52.836; -319.104; -126.813
664.563; -108.834; -694.104; -648.813
664.833; -113.107; -743.103; -608.814
665.103; -131.180; -730.103; -793.814
665.373; -102.304; -766.103; -806.814
665.643;  -71.727; -863.103; -918.815
665.913;   33.025; -534.103; -714.815
666.182;  136.777; -685.102; -719.816
666.452;  269.929;  -22.102;  -89.816
666.722;  -21.919; -724.102; -784.816
666.992; -134.943; -948.102; -921.817
667.261;  -93.366; -824.102; -808.817
667.531;  186.986;  134.899;   45.183
667.801;  529.563; -440.101; -412.818
668.070;  222.615;  714.899;  697.182
668.340; -101.708; -883.101; -840.819
668.609;   85.143;  588.900;  301.181
668.879;  -70.205; -490.100; -558.819
669.149;  -73.753; -539.100; -516.820
669.418; -103.926; -698.100; -726.820
669.688;  -26.074; -482.100; -666.820
669.957;   79.278; -423.099; -546.821
670.226;  -20.746; -268.099; -331.821
670.496; -102.369; -431.099; -635.822
670.765;  -77.342; -418.099; -501.822
671.034; -139.640; -872.099; -828.822
671.304;  -22.913;   55.902; -111.823
671.573; -136.862;-1085.098; -957.823
671.842;   90.465; -380.098; -294.823
672.112;   34.692; -692.098; -586.824
672.381;   -0.781; -239.098; -214.824
672.650; -130.079;-1005.097;-1021.825
672.919;  -91.702; -631.097; -507.825
673.188;  -91.426; -681.097; -878.825
673.457; -146.174;-1101.097;-1143.826
673.726;  -79.322; -579.096; -646.826
673.995;  -54.645; -533.096; -479.826
674.265;  -18.368; -263.096; -333.827
674.534;    6.109; -183.096; -235.827
674.802;   19.710; -618.096; -703.828
675.071; 1009.337; -886.095; -801.828
675.340; 4034.964; -464.095; -339.828
675.609; 1338.216;  103.905;   82.171
675.878;   78.168; -949.095; -893.829
676.147;   34.269;  -26.095;   -8.829
676.416;  100.296; -210.094; -294.830
676.685;  750.823; 1000.906; -622.830
676.953;  124.150; -603.094; -452.831
677.222;  -24.398; -193.094; -273.831
677.491;  -18.221;  -24.094; -127.831
677.759;  -11.445;   11.907;  172.168
678.028;  -16.993; -279.093; -222.832
678.297;  -10.966;   71.907;  197.168
678.565; -127.139; -898.093; -944.833
678.834;  -56.937; -311.093; -268.833
679.102;  -83.785; -411.092; -391.834
679.371; -142.384; -898.092; -727.834
679.639; -131.057; -797.092; -786.834
679.908; -110.205; -794.092; -724.835
680.176; -155.278; -895.091; -941.835
680.445;  -66.151; -346.091; -352.835
680.713;  -20.324;  -58.091;  -23.836
680.982;  -97.823; -523.091; -525.836
681.250; -102.271; -578.091; -507.837
681.518; -101.369; -534.090; -751.837
681.787;   -7.392; -204.090; -167.837
682.055;  -61.215; -490.090; -422.838
682.323; -139.889; -993.090; -992.838
682.591;   43.938; -216.090; -538.838
682.859;   95.915;    9.911;  -35.839
683.128;   31.442;  232.911;  497.161
683.396; -159.006;-1102.089;-1122.840
683.664;  -24.704; -241.089;   21.160
683.932;  -13.903;  144.911;  -76.840
684.200;  -74.301; -576.088; -320.841
684.468;  -34.449;  -73.088; -124.841
684.736;  -29.247; -214.088; -175.841
685.004; -124.720;-1024.088; -982.842
685.272;  -29.643; -880.088; -774.842
685.540;  -72.967; -499.087; -557.843
685.808;  -88.865; -651.087; -682.843
686.076;  -87.238; -894.087; -969.843
686.343;  -56.836; -601.087; -815.844
686.611;   47.091; -195.087; -224.844
686.879;  481.017; -530.086; -553.844
687.147; 3415.544; -483.086; -480.845
687.414;  961.671;  -12.086; -169.845
687.682;   14.748; -658.086; -757.846
687.950;  318.275;  259.915;  263.154
688.217;   14.952; -792.085; -760.846
688.485;   -1.147; -632.085; -636.847
688.753;  549.005;  -11.085; -102.847
689.020;  169.657; -820.085; -851.847
689.288; -116.266; -853.084; -787.848
689.555;  -36.039; -195.084; -148.848
689.823;  -50.112; -241.084; -345.849
690.090;  -77.561; -546.084; -651.849
690.358; -145.609; -877.084; -897.849
690.625;   10.743;  120.917;   45.150
690.892;  -62.380; -403.083; -369.850
691.160;   -6.353;   72.917;  -35.850
691.427;   13.024;  141.917;  130.149
691.694; -124.650; -855.083; -929.851
691.962; -138.548;-1177.082;-1060.852
692.229;    4.529;  127.918;   56.148
692.496;   77.556;  130.918;  -49.852
692.763;    7.258; -164.082; -201.853
693.031;  -83.866; -739.082; -716.853
693.298;  -41.914; -509.081; -368.853
693.565;  307.638; -155.081; -163.854
693.832; 1307.190;   -5.081;   -9.854
694.099;  148.392; -643.081; -642.855
694.366;  -67.431; -882.081; -896.855
694.633;  -64.405; -920.080; -633.855
694.900;  735.022; 4367.920; -114.856
695.167;  438.599; -214.080; -380.856
695.434;  111.626; -646.080; -623.856
695.701;  194.903;  121.921;  -61.857
695.968;  468.330; -365.079; -361.857
696.234; 1007.556; -415.079; -646.858
696.501;10189.783; -776.079; -614.858
696.768; 5184.460; -554.079; -617.858
697.035;  312.787; -632.078; -667.859
697.302;   31.364; -448.078; -552.859
697.568;   13.916; -458.078; -497.859
697.835;  -36.108; -683.078; -624.860
698.102;  -23.156; -498.078; -407.860
698.368;   84.846;  384.923;  396.139
698.635;  -37.252;  -47.077; -424.861
698.901;  -13.850; -240.077; -348.861
699.168;   63.726; -534.077; -456.862
699.435;   80.028;  -72.077;  -13.862
699.701; -123.195; -868.076; -764.862
699.968;   14.707;  144.924; -441.863
700.234;  -98.266; -783.076; -822.863
700.500;  -52.739; -448.076; -539.864
700.767;    1.987;   -1.075;   26.136
701.033; -124.061;-1015.075; -963.864
701.299;  -66.009; -450.075; -483.865
701.566;  118.293;  950.925;  763.135
701.832;   23.595;  -31.075;  -76.865
702.098;  -88.403;-1054.074;-1034.866
702.365;  -85.402;-1098.074;-1030.866
702.631;  -29.850;-1038.074;-1063.867
702.897; 1376.152; -765.074; -676.867
703.163; 2232.904;  348.926;  254.133
703.429;  170.431; -256.073; -273.868
703.695;  -22.318; -796.073; -792.868
703.961;   12.509; -214.073; -210.868
704.227;  -52.489; -630.073; -725.869
704.493;  121.988;  613.927;  510.131
704.759;  -12.160; -565.072; -540.870
705.025;   23.017; -203.072; -194.870
705.291;  -14.732; -666.072; -562.870
705.557;  185.645;  719.928;   34.129
705.823;   31.772; -742.072; -694.871
706.089;  141.599; -307.071; -326.871
706.355;  339.901; -315.071; -244.872
706.620; 5384.328; -776.071; -729.872
706.886; 7640.554; -309.071; -362.873
707.152;  727.931; -818.070; -973.873
707.418;  -21.792;-1153.070;-1186.873
707.683;   -5.840; -550.070; -530.874
707.949;  -45.938; -547.070; -578.874
708.215;    6.214; -129.070; -207.874
708.480;  -20.985; -520.069; -420.875
708.746;  102.617;   68.931;   28.125
709.011;  -66.881; -578.069; -612.876
709.277;  -76.054; -538.069; -543.876
709.542;  -54.102; -428.069; -387.876
709.808;  -10.776;  -59.068;   89.123
710.073;  -76.199; -577.068; -695.877
710.339;  -38.072; -242.068; -228.877
710.604;   80.405; -780.068; -845.878
710.869;  319.032; -277.068; -366.878
711.135;  -66.941; -715.067; -628.879
711.400;  -81.915; -507.067; -608.879
711.665;  -57.413; -404.067; -479.879
711.931;  -97.386; -661.067; -677.880
712.196; -116.559; -876.067; -954.880
712.461;  123.043; -402.066; -490.880
712.726;  132.645; -727.066; -771.881
712.991;  -90.679; -647.066; -664.881
713.256;  -46.527; -350.066; -332.882
713.521;  -50.500; -417.065; -381.882
713.787;  -54.023; -454.065; -472.882
714.052;  -29.046; -214.065; -400.883
714.317;  -98.594;-1045.065; -981.883
714.581; 1015.457; -374.065; -268.883
714.846; 1360.759; -822.064; -888.884
715.111;  132.586;  261.936;  257.116
715.376;  -28.662;  -86.064; -223.885
715.641;  -19.685; -365.064; -367.885
715.906;  298.666;   15.936; -551.885
716.171;  132.043;  221.937;  209.114
716.436;   25.045;  -78.063; -104.886
716.700; -106.303; -818.063; -692.886
716.965; -118.351; -794.063; -807.887
717.230;  -74.399; -339.063; -392.887
717.494;  -26.523;  -40.062; -134.888
717.759;  -87.621; -784.062; -640.888
718.024;   18.931;  269.938;  250.112
718.288;   71.283;  685.938;  395.111
718.553; -133.190; -803.062; -977.889
718.817; -148.788; -883.061; -899.889
719.082;  -25.487; -115.061; -125.890
719.346; -140.760;-1000.061; -947.890
719.611;  -46.508; -300.061; -255.891
719.875; -113.281; -568.060; -537.891
720.140;  -55.704; -453.060; -603.891
720.404;   40.722; -136.060; -249.892
720.668;  883.299; -475.060; -411.892
720.933;  330.076;  146.940;  137.108
721.197;  -99.622; -667.059; -600.893
721.461; -129.695; -851.059; -826.893
721.725;    2.132;  -21.059; -250.894
721.990;  -65.342; -284.059; -204.894
722.254;  -14.765;  -26.059; -108.894
722.518;  -76.463; -286.058; -442.895
722.782;  -83.986; -743.058; -594.895
723.046;  105.816;  614.942;  570.105
723.310;   41.043;  374.942;  210.104
723.574;  -97.156; -654.058; -614.896
723.838;  -96.854; -576.057; -642.897
724.102;  -47.027; -226.057; -239.897
724.366; -136.850;-1032.057; -978.897
724.630; -109.048; -749.057; -571.898
724.894;  -78.196; -722.057; -514.898
725.158;   -4.995;   38.944; -295.898
725.422;  -59.593; -394.056; -327.899
725.685;  -57.266; -441.056; -349.899
725.949;  -92.514; -566.056; -519.900
726.213;  -68.737; -732.056; -811.900
726.477;  186.164;-1020.055; -933.900
726.740;  138.016; -274.055; -104.901
727.004;  330.943; -384.055; -510.901
727.268; 3225.695; -442.055; -400.901
727.531;  904.447; -961.055; -775.902
727.795;  -45.876; -713.054; -673.902
728.059;  -64.425; -552.054; -557.903
728.322;  -81.048; -841.054; -669.903
728.586;   33.104; -692.054; -701.903
728.849;  -81.569; -695.053; -756.904
729.112; -110.842; -812.053; -912.904
729.376; -130.665; -959.053; -905.904
729.639;  -76.614; -536.053; -536.905
729.903; -113.462; -733.053; -699.905
730.166;  -48.285; -437.052; -399.906
730.429;  -16.933; -317.052; -468.906
730.693;  -59.706; -355.052; -894.906
730.956;  205.770;  810.948;  651.093
731.219;  692.922; -310.052; -103.907
731.482;  120.049;-1003.051; -894.907
731.745;  109.001; -794.051; -935.908
732.009;   30.278;  -30.051;   50.092
732.272; -104.795; -904.051; -771.909
732.535;  -45.144; -300.051; -310.909
732.798; -138.192;-1083.050;-1166.909
733.061;  -55.090; -430.050; -456.910
733.324;   -8.888;   31.950; -180.910
733.587;   71.914;  290.950;  365.090
733.850;  -69.384; -973.049;-1050.911
734.113;   30.192;   33.951;   32.089
734.376;    2.819; -328.049; -447.912
734.639;  208.946; 1188.951; 1011.088
734.901;   68.348; -180.049; -402.912
735.164;  518.925; -883.048; -837.913
735.427; 1342.402; -166.048; -355.913
735.690;  129.028; -205.048; -234.913
735.952;  -24.720; -923.048; -925.914
736.215;  -33.868;-1113.048;-1009.914
736.478;   50.959; -771.047; -774.915
736.740;  210.161;   33.953;  129.085
737.003;  698.562; -658.047; -672.915
737.266; 4160.914;  -94.047;   46.084
737.528;  429.541; -682.047; -660.916
737.791;  336.168; -316.046; -327.916
738.053;  808.970;  465.954;  649.083
738.316;10771.322; -162.046; -136.917
738.578; 7488.648; -770.046; -736.918
738.841;  441.625; -382.046; -446.918
739.103;  188.327; -875.045; -777.918
739.365;  496.929;   79.955;  -69.919
739.628;   -3.419; -884.045; -805.919
739.890;  -24.742; -758.045; -710.919
740.152;  -55.816; -692.044; -754.920
740.414;  -10.039; -408.044; -359.920
740.677;  -52.562; -785.044; -634.921
740.939;  -40.510; -587.044; -487.921
741.201;  293.442; -432.044; -572.921
741.463;   52.019; -689.043; -745.922
741.725;    4.595;  -21.043; -199.922
741.987;   45.572;  220.957;  116.078
742.249;   10.924; -751.043; -859.923
742.511;  220.876; -703.043; -794.923
742.773;   16.678; -546.042; -546.924
743.035;  122.954;  796.958;  533.076
743.297;  -35.969; -963.042;-1013.924
743.559;  746.208; -278.042; -262.925
743.821;   63.910; -735.042; -744.925
744.083;   16.287;  -44.041; -149.925
744.345;  -84.961; -869.041; -892.926
744.607;   40.815;   75.959;  122.074
744.868;  -59.633; -490.041; -554.927
745.130; -111.306; -994.041;-1008.927
745.392;   39.621;   -1.040;  -44.927
745.653;  -28.002; -411.040; -378.928
745.915;  142.425;  896.960;  631.072
746.177;   58.551;   35.960;  -43.928
746.438;    1.853; -428.040; -543.929
746.700;  -48.520; -947.039; -988.929
746.961;    4.157; -659.039; -740.930
747.223;  138.159; -190.039;  -74.930
747.484;   95.135; -391.039; -471.930
747.746;  143.712;  -23.038; -106.931
748.007;   97.189; -647.038; -689.931
748.269;  295.116; -468.038; -440.931
748.530;  494.043; -852.038; -638.932
748.791;  266.420; -354.038; -420.932
749.053;  445.096;  286.963;  163.067
749.314;  455.523; -236.037; -169.933
749.575;  505.750; -945.037; -905.933
749.836;  862.352; -217.037;   86.066
750.098; 2480.779;  -60.037;  -21.934
750.359;37043.706;  414.964;  555.066
750.620; 9446.982; -121.036; -220.935
750.881; 1057.709; -585.036; -513.935
751.142; 1387.961; -950.036; -938.936
751.403;16772.038; -789.036; -705.936
751.664; 7414.290;-1034.035; -999.936
751.925;  503.592; -175.035; -262.937
752.186;  284.318; -298.035; -278.937
752.447;  130.270; -590.035; -445.937
752.708;   47.972; -532.035; -648.938
752.969;   10.224; -566.034; -576.938
753.230;   -6.524; -777.034; -672.939
753.491;  -13.573; -650.034; -631.939
753.751;   75.354;  109.966;   19.061
754.012;   87.856;  258.967;  181.060
754.273;   64.108; -174.033;  -71.940
754.534;    3.610; -487.033; -580.940
754.794;  -72.588; -926.033; -911.941
755.055;  131.863; 1051.967;  881.059
755.316;  -43.435; -700.032; -566.942
755.576;  -29.258; -606.032; -576.942
755.837;  -50.356; -527.032; -695.942
756.097;  -39.254; -530.032; -564.943
756.358;  -76.077; -725.032; -770.943
756.618;  -51.976; -705.031; -641.943
756.879;    9.251; -254.031; -349.944
757.139; -129.447;-1098.031;-1116.944
757.400;  -55.320; -538.031; -553.945
757.660;   -7.818; -365.031; -401.945
757.920;   13.984; -266.030; -228.945
758.181;   -7.715; -468.030; -351.946
758.441;  -94.163; -870.030; -809.946
758.701;  -25.636; -308.030; -215.946
758.961;  -31.384; -220.030; -278.947
759.222;  -66.632; -574.029; -502.947
759.482;  -72.106; -683.029; -723.948
759.742;  -89.004; -706.029; -547.948
760.002;   18.648;  -83.029; -143.948
760.262;   21.775;   50.972;  182.051
760.522;  -51.823; -498.028; -574.949
760.782;  -62.971; -738.028; -612.949
761.042;  -43.470; -618.028; -573.950
761.302;   55.357;   55.972;  -18.950
761.562;   45.159; -164.027; -154.951
761.822;   90.911; -710.027; -551.951
762.082;  -48.487;-1104.027;-1093.951
762.342;   70.615; -328.027; -403.952
762.601;   68.991; -567.027; -506.952
762.861;  360.368; -281.026; -207.952
763.121;  422.045; -406.026; -411.953
763.381; 7329.622; -499.026; -485.953
763.640; 8056.374; -139.026; -307.954
763.900;  366.850; -242.026; -203.954
764.160;   64.052; -458.025; -491.954
764.419;  -23.021; -726.025; -782.955
764.679;  -69.969; -795.025; -726.955
764.939;  -23.467; -124.025; -210.955
765.198;  -62.715; -608.025; -563.956
765.458;  -77.214; -710.024; -612.956
765.717;  -85.912; -454.024; -590.957
765.976;  -70.410; -428.024; -411.957
766.236;  -73.608; -475.024; -610.957
766.495;   17.894;  260.977;   73.042
766.755;  -88.079;-1090.023; -987.958
767.014;   -1.353; -594.023; -665.958
767.273;  -41.151; -373.023; -397.959
767.533;  -39.649; -228.023; -307.959
767.792;  -32.372; -151.022; -188.960
768.051;  -55.320; -228.022; -276.960
768.310;  -94.193; -546.022; -650.960
768.569;   12.133; -161.022;    4.039
768.828;  -29.590; -285.022; -363.961
769.088; -119.938;-1050.021; -942.961
769.347;  -68.061; -755.021; -599.962
769.606; -100.709; -876.021; -857.962
769.865; -122.133;-1016.021;-1033.963
770.124;    1.694; -411.021; -336.963
770.383;  -53.679; -778.020; -910.963
770.641;  -13.727; -398.020; -400.964
770.900;  -55.850; -953.020; -846.964
771.159;  -48.198; -851.020; -951.964
771.418;  -17.797; -917.020; -779.965
771.677;  121.155; -224.019; -293.965
771.936;  143.807; -794.019; -865.966
772.194; 2114.259; -465.019; -437.966
772.453;10800.786; -213.019; -391.966
772.712;  744.263;  416.982;  329.033
772.970;  114.464;   32.982;   63.033
773.229;   86.391;  -22.018;  102.033
773.488;  -80.557; -814.018; -770.968
773.746;   60.445;  296.982;  335.032
774.005;   -2.178;  190.983;  -22.969
774.263;   20.173;  243.983;  177.031
774.522;  -50.600; -422.017; -548.969
774.780;  -80.623; -484.017; -417.970
775.039;  -90.821; -551.017; -531.970
775.297;  -16.094; -135.016; -351.970
775.555; -103.267; -489.016; -612.971
775.814; -110.266; -618.016; -570.971
776.072; -122.089; -749.016; -740.971
776.330; -105.012; -630.016; -520.972
776.589; -115.210; -703.015; -721.972
776.847; -122.383; -645.015; -624.973
777.105; -174.481;-1016.015;-1032.973
777.363;  -77.355; -459.015; -454.973
777.621; -132.503; -660.015; -717.974
777.879;  -19.751;  -42.014;   32.026
778.138;  -97.424; -554.014; -717.974
778.396; -109.997; -585.014; -526.975
778.654; -158.945;-1015.014; -970.975
778.912;  -69.744; -269.014; -371.976
779.170; -132.517; -880.013; -803.976
779.427; -157.465; -922.013; -897.976
779.685; -123.863; -880.013; -832.977
779.943;  -89.161; -654.013; -593.977
780.201; -147.835; -964.012; -883.978
780.459; -115.283; -651.012; -610.978
780.717;  -83.631; -440.012; -390.978
780.974; -101.079; -449.012; -490.979
781.232;  -71.627; -358.012; -338.979
781.490;  -76.925; -551.011; -472.979
781.747; -102.474; -555.011; -476.980
782.005;   19.278;  462.989;  254.020
782.263; -160.770; -542.011;-1004.981
782.520;  -83.818; -326.011; -501.981
782.778; -172.891;-1013.010;-1051.981
783.035; -163.564; -962.010; -938.982
783.293;  -52.238; -248.010; -206.982
783.550;  -75.386; -134.010; -198.982
783.808; -140.684; -764.010; -776.983
784.065; -158.407; -745.009; -874.983
784.322;  -47.505;   25.991;  -86.984
784.580; -124.828; -915.009; -771.984
784.837; -101.027; -392.009; -466.984
785.094; -133.075; -783.009; -762.985
785.352;  -65.273; -304.008; -404.985
785.609; -103.496; -934.008; -839.985
785.866;  -77.719; -345.008; -401.986
786.123;  -65.018; -639.008; -583.986
786.380;  -90.266; -665.008; -604.987
786.637;  -42.989; -225.007; -380.987
786.895;   -8.487; -456.007; -543.987
787.152;  -53.035; -135.007; -267.988
787.409;  -34.783; -123.007; -225.988
787.666;  -80.632; -299.006; -378.988
787.923; -111.280; -616.006; -695.989
788.179; -112.128; -551.006; -584.989
788.436;  -99.351; -585.006; -585.990
788.693;  -28.174;  -92.006;  -87.990
788.950;  143.303; -125.005; -112.990
789.207;  222.429; -381.005; -372.991
789.464;  -52.394; -161.005; -301.991
789.720;    0.158;  150.995;  110.009
789.977; -164.340;-1003.005; -671.992
790.234;  -31.063;   44.996;  -66.992
790.490; -154.187; -884.004;-1031.993
790.747;  -20.135;  -85.004;   22.007
791.004;  -17.958; -426.004; -348.993
791.260;  -88.681; -430.004; -560.994
791.517; -103.704; -843.003; -788.994
791.773;  -46.852; -379.003; -342.994
792.030; -101.276; -596.003; -660.995
792.286;  -97.124; -686.003; -636.995
792.543;  -16.122;  -74.002; -159.995
792.799;  -51.220; -584.002; -382.996
793.055; -160.843;-1179.002;-1210.996
793.312;  -98.291; -827.002; -816.997
793.568;  -55.890; -746.002; -599.997
793.824;   12.912; -226.001; -284.997
794.081;   27.689; -447.001; -508.998
794.337;   48.716; -664.001; -561.998
794.593; 1311.343; -319.001; -271.999
794.849; 6549.395; -746.001; -772.999
795.105;  327.596; -270.000; -261.999
795.361;   19.773; -490.000; -457.000
795.617;  -64.000; -875.000; -945.000
795.873;  -45.900; -360.000; -407.000
796.129;  -38.675; -368.000; -306.000
796.385;  -17.025; -124.000; -156.000
796.641;   65.875;  412.000;  550.000
796.897;  -86.125; -666.000; -635.000
797.153;   72.350;  453.000;  357.000
797.409; -106.925; -785.000; -868.000
797.665;  -70.925; -625.000; -732.000
797.921;  -79.750; -775.000; -762.000
798.176;  -62.450; -744.000; -747.000
798.432;  -53.125; -824.000; -596.000
798.688;  -61.550;-1174.000;-1078.000
798.943;   73.800; -165.000; -147.000
799.199;   -0.700;-1005.000; -959.000
799.455;  231.275;  369.000;  316.000
799.710;  119.950; -813.000; -380.000
799.966;  288.975; -162.000; -160.000
800.221;  466.750; -638.000; -721.000
800.477;10329.025; -743.000; -710.000
800.732; 9200.200; -773.000; -800.000
800.988;  593.700;  205.000;  -19.000
801.243; 1695.825; -454.000; -344.000
801.498; 7387.225; -814.000; -739.000
801.754;  432.175; -289.000; -163.000
802.009;   77.750; -257.000; -335.000
802.264;  -53.100; -967.000;-1033.000
802.520;   17.875;  222.000;   -3.000
802.775;  -46.350; -524.000; -359.000
803.030;   47.525;  395.000;  356.000
803.285; -120.675; -840.000; -903.000
803.540;  -61.525; -686.000; -699.000
803.795;  -50.650; -648.000; -583.000
804.051;  -44.525; -279.000; -346.000
804.306;   12.075;  168.000;  128.000
804.561;  148.675;  451.000;  362.000
804.816;  135.150;  714.000;  861.000
805.071;    5.700; -185.000; -280.000
805.325;  208.125; -257.000; -427.000
805.580;  -97.800; -841.000; -877.000
805.835;  -15.900; -204.000; -297.000
806.090;  -79.200; -760.000; -676.000
806.345;  -14.100; -344.000; -264.000
806.600;  -31.175; -549.000; -632.000
806.854;  -26.275; -408.000; -538.000
807.109;    5.150; -493.000; -577.000
807.364;   12.700; -407.000; -328.000
807.618;    0.300; -415.000; -381.000
807.873;   48.400; -470.000; -494.000
808.128;  109.225; -257.000; -518.000
808.382;  115.025; -224.000; -332.000
808.637;   58.250; -440.000; -511.000
808.891;  175.875; -257.000; -180.000
809.146;  103.750; -902.000; -794.000
809.400;  283.700; -848.000; -923.000
809.654;  338.475; -779.000; -551.000
809.909;  507.075; -841.000; -927.000
810.163; 6703.700; -813.000; -651.000
810.418;17452.950; -940.000; -861.000
810.672; 1055.700; -685.000; -690.000
810.926;  711.175; -993.000; -973.000
811.180; 1376.175; -439.000; -372.000
811.434;31023.225;  240.000;  135.000
811.689;12584.850; -231.000; -365.000
811.943;  632.975; -936.000; -953.000
812.197;  316.800; -893.000; -671.000
812.451;  133.700; -379.000; -514.000
812.705;  -18.675; -809.000; -619.000
812.959;   -0.400; -263.000; -388.000
813.213;   10.150; -283.000; -209.000
813.467;   74.125;  470.000;  253.000
813.721;  -93.800; -764.000; -792.000
813.975; -110.950; -826.000; -877.000
814.229;   41.325;  430.000;  353.000
814.482;  -72.025; -517.000; -566.000
814.736; -142.050; -766.000; -744.000
814.990; -133.725; -779.000; -872.000
815.244;  -56.225; -228.000; -285.000
815.497;  -98.150; -636.000; -601.000
815.751;  -13.725; -141.000;   82.000
816.005; -104.900; -470.000; -586.000
816.258;  -60.600; -510.000; -363.000
816.512; -109.050; -693.000; -610.000
816.766;   11.850;  121.000;  157.000
817.019;   34.150;  148.000;  149.000
817.273; -114.650;-1000.000; -802.000
817.526;  -29.775; -206.000; -173.000
817.779;  -42.250;-1049.000; -960.000
818.033;  -74.525; -693.000; -807.000
818.286; -123.125; -725.000; -792.000
818.540;  -90.425; -403.000; -403.000
818.793; -102.275; -402.000; -489.000
819.046; -110.325; -582.000; -520.000
819.299;  -38.775; -157.000; -166.000
819.553; -116.325; -552.000; -592.000
819.806; -159.825;-1016.000; -838.000
820.059;  -63.800; -334.000; -354.000
820.312;    9.025;  152.000;  185.000
820.565;  -19.575;  110.000;  -27.000
820.818;  -50.075;  -59.000; -173.000
821.071; -161.125;-1041.000; -957.000
821.324; -101.575; -536.000; -540.000
821.577; -101.900; -457.000; -483.000
821.830;  -65.975; -270.000; -172.000
822.083; -137.100; -733.000; -288.000
822.336;  -58.125; -261.000; -167.000
822.589; -133.025; -805.000; -688.000
822.842; -161.125; -875.000; -770.000
823.094; -176.900;-1076.000;-1114.000
823.347; -126.375; -925.000; -729.000
823.600;   11.300;  402.000;  187.000
823.853;  -53.625; -311.000; -267.000
824.105;  -75.900; -331.000; -575.000
824.358; -115.375; -617.000; -716.000
824.611;   13.775;  234.000;   40.000
824.863;  -58.125; -612.000; -591.000
825.116;   35.575;  -33.000;   27.000
825.368;   69.725; -366.000; -372.000
825.621;  164.450; -186.000; -240.000
825.873;   90.075; -704.000; -737.000
826.126;  566.925; -669.000; -641.000
826.378;11529.100; -389.000; -505.000
826.630; 2823.925; -890.000; -898.000
826.883;   32.275; -754.000; -693.000
827.135;   38.850; -279.000; -270.000
827.387; -120.575; -893.000; -839.000
827.639;  -24.700;  -86.000;   32.000
827.892; -130.550; -742.000; -582.000
828.144; -144.675; -848.000; -804.000
828.396;  -46.150;  104.000;  -80.000
828.648;  -99.400; -440.000; -333.000
828.900; -155.775; -702.000; -795.000
829.152; -119.400; -684.000; -683.000
829.404;  -51.850; -215.000; -267.000
829.656;  -50.700;  321.000;  214.000
829.908;  -12.750;  393.000;  229.000
830.160; -168.525;-1064.000;-1047.000
830.412; -110.300; -481.000; -430.000
830.664; -124.675; -557.000; -665.000
830.916;  -74.075; -268.000; -206.000
831.167; -162.450;-1073.000; -951.000
831.419; -108.725; -623.000; -566.000
831.671; -136.275; -764.000; -809.000
831.923;  -98.675; -311.000; -447.000
832.174;  -81.275; -273.000; -331.000
832.426; -119.575; -493.000; -582.000
832.678; -185.225;-1043.000;-1091.000
832.929; -162.875; -947.000; -935.000
833.181;  -70.850; -575.000; -677.000
833.432;  -54.925;  -59.000; -186.000
833.684;  -17.825;  112.000;  -27.000
833.935; -118.425; -610.000; -566.000
834.187; -127.375; -829.000; -823.000
834.438;  -53.325;  -58.000;  -25.000
834.689;  -62.325; -255.000; -123.000
834.941;  -54.275; -343.000; -244.000
835.192; -103.000; -590.000; -533.000
835.443; -103.425; -419.000; -506.000
835.695;  -23.350;  138.000;  -16.000
835.946; -100.525; -608.000; -378.000
836.197; -109.200; -599.000; -622.000
836.448;  -81.725; -528.000; -395.000
836.699;  -63.575; -253.000; -341.000
836.950;  -15.375;   72.000;    7.000
837.201; -151.425;-1003.000; -987.000
837.452;  -52.550; -356.000; -170.000
837.703; -116.875; -791.000; -737.000
837.954;  -43.625; -205.000; -365.000
838.205;  -80.275;-1029.000;-1008.000
838.456;  168.475; -196.000; -282.000
838.707;    4.150; -423.000; -519.000
838.958;    6.525; -634.000; -647.000
839.209;  298.125;   18.000;   40.000
839.460;  126.500; -439.000; -201.000
839.710;  152.425; -135.000; -297.000
839.961;  409.675;  730.000;  612.000
840.212;  347.625; -382.000; -497.000
840.462; 1114.325; -328.000; -277.000
840.713;17868.100; -571.000; -536.000
840.964; 7289.625;  -62.000; -143.000
841.214;  511.250; -384.000; -624.000
841.465;  564.000; -214.000; -141.000
841.715;  514.900; -417.000; -380.000
841.966;  673.250; -746.000; -685.000
842.216; 9236.275; -330.000; -431.000
842.466;35569.100; -169.000; -313.000
842.717; 1957.425; -964.000; -952.000
842.967;  335.450; -635.000; -641.000
843.217;  262.175;   20.000;   28.000
843.468;   69.425; -104.000; -132.000
843.718;  -24.300; -718.000; -726.000
843.968;  -92.275; -837.000; -765.000
844.218;   31.200; -315.000; -262.000
844.469;  -57.425; -577.000; -561.000
844.719; -105.275; -537.000; -682.000
844.969;  -97.175; -550.000; -580.000
845.219; -138.625; -814.000; -862.000
845.469;  -91.725; -392.000; -342.000
845.719; -150.550; -792.000; -884.000
845.969;  -13.175;  119.000;  174.000
846.219; -119.750; -738.000; -720.000
846.469;   22.125;  464.000;  432.000
846.718;  -57.350; -115.000;   31.000
846.968; -131.875; -827.000; -827.000
847.218;  -61.350; -224.000; -371.000
847.468;   13.425; -586.000; -555.000
847.718; -151.750; -827.000; -798.000
847.967; -135.425; -826.000; -915.000
848.217;  -81.150; -449.000; -569.000
848.467;  -69.100; -405.000; -376.000
848.716; -115.450; -708.000; -725.000
848.966;   -0.225; -372.000; -358.000
849.215;  -70.625; -428.000; -419.000
849.465; -100.575; -785.000; -615.000
849.714; -142.300;-1132.000;-1150.000
849.964;  -64.900; -551.000; -613.000
850.213;  -30.025; -393.000; -355.000
850.463;   77.450;  137.000;  340.000
850.712;  -12.925; -542.000; -567.000
850.961;    4.925; -739.000; -678.000
851.211;   77.600; -513.000; -504.000
851.460;  159.375; -635.000; -650.000
851.709;  561.850;  -25.000;   18.000
851.958;10291.800; -912.000; -750.000
852.208;12730.500; -859.000; -879.000
852.457;  476.650; -181.000;  -13.000
852.706;   62.550; -791.000; -823.000
852.955;   14.950; -507.000; -528.000
853.204;  -69.000; -521.000; -461.000
853.453;  -90.150; -418.000; -458.000
853.702; -144.600; -660.000; -750.000
853.951; -125.975; -532.000; -520.000
854.200; -120.600; -613.000; -562.000
854.449; -123.500; -695.000; -661.000
854.698;  -86.650; -340.000; -279.000
854.946;  -62.650; -181.000; -284.000
855.195; -138.450; -843.000; -868.000
855.444; -105.450; -395.000; -420.000
855.693; -125.425; -345.000; -432.000
855.941; -115.275; -387.000; -516.000
856.190;  -49.300; -256.000; -382.000
856.439; -127.125; -652.000; -703.000
856.687;  -66.075;  -99.000;  -72.000
856.936; -117.475; -621.000; -323.000
857.184; -179.100;-1067.000;-1020.000
857.433; -124.675; -423.000; -512.000
857.681; -162.750; -989.000; -953.000
857.930;  -86.975; -282.000; -433.000
858.178; -171.025; -856.000; -929.000
858.427; -162.125; -802.000; -781.000
858.675; -127.525; -377.000; -544.000
858.923; -113.775; -527.000; -819.000
859.172; -182.625;-1094.000;-1070.000
859.420;  -81.050; -339.000; -239.000
859.668; -136.725; -624.000; -628.000
859.916;  -17.325;  109.000;  115.000
860.164; -125.100; -699.000; -603.000
860.413;  300.175; -878.000; -696.000
860.661;  225.475; -709.000; -577.000
860.909;  -81.625; -339.000; -325.000
861.157;  -89.250; -277.000; -444.000
861.405; -122.550; -534.000; -670.000
861.653;   10.525;  310.000;  310.000
861.901;  189.925; -543.000; -613.000
862.149;   15.625; -801.000; -824.000
862.396;  -83.250; -297.000; -187.000
862.644; -103.200; -368.000; -347.000
862.892;  -42.325;   98.000;  138.000
863.140; -111.250; -549.000; -530.000
863.388; -168.150; -815.000; -759.000
863.635; -130.425; -642.000; -601.000
863.883;  -18.400;  231.000;  190.000
864.131; -103.825; -288.000; -357.000
864.378; -142.875; -675.000; -540.000
864.626; -109.225; -347.000; -415.000
864.873; -116.650; -556.000; -505.000
865.121; -138.575; -714.000; -799.000
865.368;  -62.575; -173.000;   75.000
865.616;  -30.475;  -33.000;  -40.000
865.863;  -79.675; -462.000; -506.000
866.111; -107.125; -795.000; -824.000
866.358;   25.650; -426.000; -420.000
866.605; 2148.250;  -64.000; -804.000
866.853; 2207.100; -621.000; -537.000
867.100;  -32.075; -728.000; -775.000
867.347;  -99.300; -672.000; -611.000
867.594;  -90.100; -740.000; -714.000
867.841;   92.000;   97.000;   17.000
868.089; -148.400; -746.000; -698.000
868.336; -101.025; -477.000; -420.000
868.583; -144.525; -637.000; -741.000
868.830;  -56.375; -131.000; -170.000
869.077; -164.825; -859.000; -787.000
869.324; -134.275; -502.000; -458.000
869.571; -128.850; -398.000; -430.000
869.818; -124.775; -485.000; -439.000
870.065; -100.500; -439.000; -513.000
870.311; -119.400; -456.000; -542.000
870.558; -120.275; -332.000; -311.000
870.805;  -98.175; -320.000; -384.000
871.052; -115.200; -494.000; -369.000
871.298;  -49.225; -204.000; -131.000
871.545;  -75.175; -151.000; -185.000
871.792; -100.500; -173.000; -222.000
872.038;  -79.100;   43.000; -126.000
872.285; -136.600; -496.000; -387.000
872.532;  -93.350; -357.000; -387.000
872.778;   -6.125;  556.000;  403.000
873.025; -109.625; -384.000; -359.000
873.271;   17.050;  501.000;  578.000
873.517;  -23.925; -133.000; -209.000
873.764;  -31.200; -193.000;  -80.000
874.010;  -74.550; -143.000; -230.000
874.257;  -37.000;  123.000;   90.000
874.503; -139.625; -579.000; -479.000
874.749;  -76.275;   31.000;  275.000
874.995;  -76.350;  -80.000;  -20.000
875.242; -139.775; -540.000; -478.000
875.488;  -98.400; -414.000; -439.000
875.734;  -54.125; -106.000; -234.000
875.980;  194.575; -872.000;-1032.000
876.226;  392.600; -157.000; -255.000
876.472;  -21.375;  343.000;  237.000
876.718;  -48.125;  184.000;  158.000
876.964;  -51.225;   56.000;   55.000
877.210; -145.725; -547.000; -677.000
877.456; -135.000; -630.000; -557.000
877.702; -194.350; -821.000; -832.000
877.948; -121.975; -377.000; -497.000
878.193;    8.350;  361.000;  255.000
878.439;  -98.050; -487.000; -472.000
878.685; -109.925; -272.000; -343.000
878.931; -131.225; -618.000; -676.000
879.176;  -90.850; -201.000; -201.000
879.422; -169.675; -933.000; -820.000
879.668;   55.700;   10.000;   79.000
879.913;  151.550;   53.000;  137.000
880.159;  -60.250; -112.000;  -17.000
880.404;  -62.775; -152.000; -162.000
880.650;  -32.075;   91.000;  141.000
880.895; -155.750; -670.000; -710.000
881.141; -115.800; -454.000; -428.000
881.386; -141.975; -503.000; -658.000
881.631;  -88.875; -311.000; -166.000
881.877;  -44.725;  112.000;  -13.000
882.122; -141.225; -684.000; -600.000
882.367;  -83.550; -136.000; -186.000
882.612;  -73.825;  -80.000; -176.000
882.858; -182.400; -877.000; -823.000
883.103; -106.550; -297.000; -267.000
883.348; -160.275; -759.000; -852.000
883.593; -150.575; -677.000; -602.000
883.838;  -50.025; -311.000;  -24.000
884.083;   29.025;  353.000;  288.000
884.328; -107.350; -564.000; -545.000
884.573;  -43.025; -196.000; -143.000
884.818;  180.375; -694.000; -531.000
885.063;  189.950; -348.000; -315.000
885.308; -102.075; -475.000; -398.000
885.553;  -12.700;  245.000;  325.000
885.797; -133.800; -545.000; -615.000
886.042;  -67.850;    8.000;   58.000
886.287;  -85.175; -253.000; -211.000
886.532;  -40.550;   26.000;  204.000
886.776;  -97.425; -407.000; -525.000
887.021; -154.400; -621.000; -574.000
887.265; -155.250; -685.000; -689.000
887.510; -123.675; -557.000; -496.000
887.755;  -93.350; -194.000; -164.000
887.999; -141.275; -552.000; -575.000
888.244;  -55.000;  -58.000;  161.000
888.488;   -7.575;  371.000;  393.000
888.732; -130.075; -368.000; -520.000
888.977; -136.650; -622.000; -567.000
889.221; -152.050; -683.000; -659.000
889.465; -123.375; -422.000; -566.000
889.710;  -85.950;  -56.000; -299.000
889.954;   -5.075;  579.000;  467.000
890.198; -150.625; -584.000; -707.000
890.442; -154.525; -716.000; -712.000
890.687; -167.825; -800.000; -753.000
890.931;  -96.650; -273.000; -210.000
891.175; -136.075; -502.000; -500.000
891.419;  -68.400; -105.000; -110.000
891.663;  -98.150; -239.000; -112.000
891.907; -173.075; -801.000; -545.000
892.151; -180.950; -920.000; -815.000
892.395; -126.800; -274.000; -387.000
892.638;  -24.025;  408.000;  291.000
892.882; -190.275; -780.000; -867.000
893.126;    9.775;  758.000;  558.000
893.370;  -95.650; -167.000; -168.000
893.614; -147.200; -714.000; -715.000
893.857;  -96.450; -183.000; -197.000
894.101; -129.875; -527.000; -631.000
894.345;  -60.225;  300.000;  150.000
894.588;    5.600;  569.000;  380.000
894.832;  -86.575; -178.000;  -84.000
895.075;  -79.175;   15.000;  -92.000
895.319; -133.950; -552.000; -420.000
895.563; -123.325; -413.000; -353.000
895.806; -147.400; -628.000; -741.000
896.049;  -66.525; -576.000; -368.000
896.293;   96.450;  527.000;  405.000
896.536;  -72.975; -465.000; -468.000
896.779;  -61.000; -149.000;   -1.000
897.023; -154.725; -751.000; -714.000
897.266;  -17.725;  325.000;  269.000
897.509; -187.525; -900.000; -901.000
897.752;  -56.675;  149.000;  171.000
897.996; -189.325; -972.000; -864.000
898.239;  -51.300;  168.000;  102.000
898.482; -128.000; -431.000; -453.000
898.725;  -28.500;  101.000;   53.000
898.968; -159.600; -609.000; -744.000
899.211; -103.450; -513.000; -361.000
899.454; -126.350; -633.000; -539.000
899.697;  -65.150;   90.000;  -43.000
899.940; -173.975; -761.000; -757.000
900.182; -117.975; -335.000; -405.000
900.425; -100.725; -150.000; -298.000
900.668;  -34.425;  491.000;  350.000
900.911; -119.525; -292.000; -345.000
901.154;  -62.750;  141.000;   -3.000
901.396; -137.750; -407.000; -412.000
901.639; -144.950; -430.000; -496.000
901.882; -197.150; -790.000; -809.000
902.124;  -82.800;  -29.000; -143.000
902.367; -115.800; -315.000; -361.000
902.609; -146.775; -476.000; -453.000
902.852;  -88.450; -108.000; -260.000
903.094; -136.325; -458.000; -337.000
903.337;  -64.125;  -26.000;   53.000
903.579; -102.150; -228.000; -441.000
903.821; -172.400; -597.000; -744.000
904.064;  -61.700;   85.000;  127.000
904.306;  -79.675; -126.000; -166.000
904.548; -100.475; -152.000; -366.000
904.790;  -86.675; -195.000; -340.000
905.033; -136.425; -625.000; -577.000
905.275; -131.050; -513.000; -524.000
905.517;   30.800;  468.000;  256.000
905.759;  -70.500; -667.000; -761.000
906.001; -102.425; -322.000; -369.000
906.243;  -56.125; -162.000; -224.000
906.485;  130.200; -265.000; -207.000
906.727;  104.950; -499.000; -542.000
906.969;  -31.650;  -30.000; -135.000
907.211;  116.975; -316.000; -382.000
907.453;  293.575; -188.000; -237.000
907.695;    8.875; -158.000; -385.000
907.936;   33.500;  818.000;  706.000
908.178;  -61.325;   92.000; -135.000
908.420;  -73.000; -111.000; -162.000
908.662; -123.725; -633.000; -682.000
908.903;  -82.175; -208.000; -123.000
909.145;  -65.050; -240.000; -305.000
909.386;   -0.700;  315.000;  280.000
909.628;   39.850;  363.000;  397.000
909.870;   -8.900;   29.000;  264.000
910.111; -101.350; -809.000; -949.000
910.353;   10.925; -123.000; -161.000
910.594;    2.600; -574.000; -606.000
910.835;   83.400; -265.000; -326.000
911.077;  160.750; -503.000; -604.000
911.318;  275.900; -505.000; -471.000
911.559;  452.850; -577.000; -880.000
911.801; 1322.575; -284.000; -280.000
912.042;10262.750;  -50.000; -159.000
912.283;26847.950;  404.000;  371.000
912.524; 4075.950; -396.000; -457.000
912.765;  476.800; -193.000;   79.000
913.006;  243.000; -307.000; -338.000
913.247;   47.450; -270.000; -290.000
913.488;   -5.625;  -43.000;   30.000
913.729;  -76.900; -373.000; -373.000
913.970;  -66.300;  -96.000; -292.000
914.211;  -84.225; -160.000; -198.000
914.452;  -74.175; -118.000;  -11.000
914.693;    5.400;  510.000;  592.000
914.934;    2.300;  510.000;  440.000
915.175;  -68.525;   53.000;  -95.000
915.415;  -86.075; -137.000;   27.000
915.656;  -69.600;  -28.000;  192.000
915.897;  -97.325; -252.000;  -82.000
916.137;  -79.625;   74.000;   -9.000
916.378; -140.700; -573.000; -517.000
916.619;  -82.375; -159.000;  -63.000
916.859;  -29.025;  303.000;  330.000
917.100;  140.100; 1655.000; 1070.000
917.340;   29.175;  930.000;  728.000
917.581;   45.375;  965.000;  789.000
917.821;  -32.350; -171.000;  143.000
918.061;    8.075; -199.000;  -72.000
918.302;  -59.925; -152.000; -211.000
918.542;  -24.525;  -22.000;    3.000
918.782;   34.600;  369.000;  377.000
919.023;  143.725;  360.000;  427.000
919.263; 1801.825; 8131.000;  202.000
919.503; 1118.025; -137.000;  -54.000
919.743;  631.900;  390.000;  266.000
919.983;  276.475; -134.000;  -26.000
920.223;   75.000;  135.000;   14.000
920.463;  142.875;  631.000;  554.000
920.703;  118.800;   84.000;   39.000
920.943;  147.275; -110.000;   90.000
921.183;  225.725; -414.000; -405.000
921.423;  490.725;  307.000;  546.000
921.663;  720.175; -174.000; -257.000
921.903; 1530.175;  237.000;  173.000
922.143; 8539.025;  372.000;  389.000
922.383;32968.325;  158.000;  115.000
922.622;11172.275; -120.000;  -15.000
922.862; 1188.525;  796.000;  785.000
923.102;  444.225;  -51.000;   33.000
923.341;  177.925;   59.000;   74.000
923.581;   94.875;  450.000;  360.000
923.821;   24.050;  301.000;  398.000
924.060;    6.500;  351.000;  193.000
924.300;  -60.375;  -16.000; -128.000
924.539;  -15.675;  584.000;  473.000
924.779;   16.050;  812.000;  597.000
925.018;  -46.200;  247.000;  353.000
925.257;   -0.375;  595.000;  666.000
925.497;  -30.000;  447.000;  412.000
925.736;  -76.400;  -35.000;  102.000
925.975;    6.000;  687.000;  669.000
926.214;   31.800;  907.000;  850.000
926.454;   12.975;  706.000;  757.000
926.693;  -42.750;  419.000;  543.000
926.932;   33.175; 1021.000;  825.000
927.171;   62.575; 1107.000; 1044.000
927.410;   59.975; 1144.000;  967.000
927.649;   19.875;  924.000;  742.000
927.888;  -10.075;  590.000;  564.000
928.127;  -13.925;  680.000;  678.000
928.366;   22.475;  842.000;  826.000
928.605;   45.875;  831.000;  737.000
928.844;  243.225; 1451.000; 1393.000
929.083;  619.000;  770.000;  613.000
929.321;  336.500; 1335.000; 1359.000
929.560;   87.175; 1158.000; 1122.000
929.799;  -18.950;  574.000;  475.000
930.038;   68.325; 1025.000; 1394.000
930.276;  -40.250;  334.000;  397.000
930.515;    3.925;  827.000;  681.000
930.753;  -14.875;  614.000;  589.000
930.992;  -24.375;  664.000;  717.000
931.230;   -6.250;  847.000;  847.000
931.469;  154.625; 2162.000;  892.000
931.707;   68.200;  840.000;  751.000
931.946;   79.775; 1278.000; 1344.000
932.184;   41.300; 1437.000; 1175.000
932.423;   51.675; 1265.000;  963.000
932.661;   94.300; 1296.000; 1428.000
932.899;   24.025;  987.000;  821.000
933.137;    4.675;  754.000;  564.000
933.376;  142.475; 1664.000; 1335.000
933.614;  160.675; 1759.000; 1196.000
933.852;   55.925; 1357.000; 1171.000
934.090;  135.525; 1722.000; 1747.000
934.328;  104.750; 1252.000; 1457.000
934.566;   82.400; 1431.000; 1110.000
934.804;  121.925; 1263.000; 1309.000
935.042;  425.475; 1861.000; 1850.000
935.280; 1698.150; 2088.000; 2063.000
935.518; 1620.100; 2113.000; 2007.000
935.756;  336.350; 2481.000; 2316.000
935.994;  187.725; 1808.000; 1751.000
936.231;  336.500; 2890.000; 2950.000
936.469;  196.400; 2367.000; 2378.000
936.707;  163.725; 2220.000; 2167.000
936.945;  235.900; 2825.000; 2882.000
937.182;  214.650; 2679.000; 2741.000
937.420;  296.450; 3602.000; 3031.000
937.657;  414.450; 3365.000; 3478.000
937.895;  364.000; 3331.000; 3488.000
938.133;  315.300; 3540.000; 3528.000
938.370;  335.975; 3896.000; 4191.000
938.607;  390.600; 4488.000; 4205.000
938.845;  546.175; 5587.000; 5549.000
939.082;  479.225; 5387.000; 5177.000
939.320;  526.175; 5799.000; 5728.000
939.557;  656.950; 6549.000; 6491.000
939.794;  747.350; 7285.000; 7097.000
940.031;  928.025; 8421.000; 8368.000
940.269; 1118.050; 9552.000; 9107.000
940.506; 1135.025;10901.000;10507.000

