
Integration time [ms]: 100.000
Averaging Nr. [scans]: 40
Smoothing Nr. [pixels]: 0
Data measured with spectrometer [name]: 2101013U2
Wave   ;Sample   ;Dark     ;Reference
[nm]   ;[counts] ;[counts] ;[counts] 

394.013;   67.568; -450.257; -315.536
394.305;  291.516; -461.258; -419.536
394.596; 1101.713; -676.269; -527.514
394.887; 2534.330; -796.268; -654.518
395.178;  957.635;  145.736;   11.476
395.470;   93.522; -210.263; -356.526
395.761;  238.545;  305.734;  394.479
396.052;  464.813; -545.284; -306.489
396.343;  456.508; -557.276; -454.503
396.634;  160.052; -200.279; -290.497
396.926;  188.502; -618.268; -565.517
397.217;  159.787;   11.725;  -17.504
397.508;   76.328; -366.273; -154.507
397.799;   86.552; -555.279; -571.497
398.090;   12.346; -973.280; -902.495
398.381;  174.563;   11.708;  -11.473
398.672;   23.989; -585.292; -742.473
398.963;   91.558; -348.279; -373.498
399.254;  139.073;   54.709; -209.475
399.545;   -8.709;-1017.266; -883.520
399.836;   94.847; -407.277; -343.501
400.127;   63.589; -205.295; -209.468
400.418;   75.848; -423.274; -392.506
400.709;  112.858; -359.281; -333.493
401.000;   86.777; -268.291; -309.476
401.290;  100.001;  225.698;  115.545
401.581;  100.146; -166.286; -228.485
401.872;   42.436; -542.298; -486.462
402.163;   72.982; -313.296; -252.467
402.454;  103.399; -123.291; -163.475
402.744;  113.623; -844.297; -813.465
403.035;  579.904; -226.293;  -86.471
403.326;  738.467; -366.292; -384.474
403.617;  441.905;  204.701;  165.539
403.907;  271.619; -593.283; -679.490
404.198; 2283.905; -545.307; -599.446
404.489; 6031.049; -618.283; -588.491
404.779; 2133.954; -618.302; -660.456
405.070;  251.358;  -67.304; -174.451
405.360;  328.331; -259.293; -238.472
405.651;  357.690;  125.699;   98.542
405.942;  225.966;  209.714;  127.516
406.232;  393.155; -432.285; -413.487
406.523;  626.274;  641.706;  758.530
406.813;  165.743; -579.286; -644.484
407.104;  459.187;  261.708;  144.527
407.394;  268.257; -604.299; -591.462
407.685;  183.955;  336.715;  222.513
407.975;   87.172; -400.283; -382.490
408.265;  149.638; -134.289; -190.478
408.556;   89.446; -472.291; -459.475
408.846;  164.075;  474.706;  429.530
409.137;   99.672;   -1.288; -216.480
409.427;   67.205; -193.285; -271.487
409.717;   56.956; -776.273; -692.508
410.007;  160.949;    4.715; -170.486
410.298;  105.367; -360.295; -342.469
410.588;   86.228; -495.285; -510.486
410.878;   51.608; -792.287; -873.482
411.168;  134.039; -481.298; -478.463
411.459;  132.717; -295.283; -242.489
411.749;   81.269; -609.292; -507.474
412.039;   77.570; -755.289; -386.480
412.329;  223.865;   40.722;  132.501
412.619;  232.568;  -62.286; -148.485
412.909;  425.991;  639.711;  594.521
413.199;  387.746; -130.280; -251.495
413.490;  461.856;  521.710;  352.523
413.780;  151.350;-1013.279; -913.496
414.070;  348.034;  -46.276;  235.497
414.360;  419.886; -729.278; -666.498
414.650;  454.079; -726.288; -688.482
414.940;  522.874; -538.280; -441.496
415.230;  920.926;   50.712;   74.519
415.520; 5886.237;  155.730;   66.486
415.809;23191.333; -305.281; -125.493
416.099;17674.399; -388.277; -229.501
416.389; 4808.895;  435.726;  236.494
416.679; 2784.325;   91.738;   85.473
416.969;  532.462; -527.287; -503.483
417.259;  494.852;  341.721;  171.503
417.549;  708.231;  522.718;  318.508
417.838; 1583.854; -205.268; -147.518
418.128; 5117.962;  650.710;  492.522
418.418; 4231.138; -491.272; -579.509
418.708; 2890.896;    9.726;  -48.506
418.997;10844.566; -474.275; -480.505
419.287;11045.827; -733.273; -790.507
419.577;10267.141; -160.283; -123.489
419.866;34606.747; -588.277; -498.501
420.156;36047.433; -242.270;  -55.513
420.446; 6553.343; -112.263;  -26.526
420.735;  997.127; -376.271; -446.512
421.025;  860.260; 1830.722;  315.502
421.314;  846.475; -203.271; -226.512
421.604; 1991.222;   89.732;  233.484
421.893; 1125.497; -705.271; -602.511
422.183;  273.618; -487.263; -461.526
422.472;  403.823;  -36.271; -107.511
422.762;  506.472; -416.266; -379.521
423.051;  280.634; -916.276; -916.503
423.341;  351.554; -491.273; -439.507
423.630;  472.953; -121.265;   15.477
423.919;  416.966;   58.725;   49.495
424.209;  386.248;  -31.263;   56.473
424.498;  500.652;   68.732;  161.483
424.787; 1067.808; -535.267; -601.518
425.077; 3326.077;   34.735;   29.478
425.366; 5144.354; -734.262; -744.528
425.655; 9385.805;  639.727;  259.493
425.945;18762.333; -313.247; -268.554
426.234;10368.527;  117.741;  300.467
426.523; 4863.082;  -86.259; -350.534
426.812; 6688.143;  107.734;  159.480
427.101; 9696.243; -127.269; -323.515
427.390;12443.187;  -55.270;  -86.514
427.680; 3270.627; -624.257; -411.538
427.969;  546.787; -330.255; -301.540
428.258;  356.893; -385.257; -477.536
428.547;  604.392;  449.728;  397.490
428.836; 1556.929; -421.253; -398.543
429.125; 2312.659; -199.259;  -72.534
429.414;  924.901; -330.251; -294.548
429.703; 2991.901; -231.251; -213.548
429.992; 8839.105; -938.250; -828.549
430.281; 5723.111; -397.264; -331.524
430.570;  642.767;  -21.252;   32.454
430.859;  692.806;  279.741;  352.466
431.148;  514.129;  636.752;  631.446
431.437;  334.141;  391.748;  367.454
431.725;  160.920; -544.257; -481.536
432.014;  145.336; -845.253; -756.545
432.303;  428.980; -149.239; -105.569
432.592;  741.442; -460.263; -178.525
432.881; 1047.205; -601.248; -437.554
433.169; 5702.288; -343.255;  -61.540
433.458;11620.013;  445.765;  540.424
433.747; 4938.960; -397.261; -289.529
434.036; 1049.755; -275.242; -280.564
434.324; 2085.092; -395.249; -379.551
434.613; 3478.899;   40.757;  159.437
434.902; 1248.095;  333.760;  439.433
435.190;  843.353;   75.761;  295.431
435.479;  462.981;  -52.245;   83.441
435.767;  162.314; -411.244; -427.561
436.056;  279.276; -340.242; -294.563
436.345;  402.047; -372.240; -223.568
436.633;  419.488;   60.750;  383.450
436.922;  331.199;  208.760;  414.432
437.210;  896.803; -194.236;    1.426
437.499; 2932.136; -583.235; -432.576
437.787; 3186.203; -339.236;  -10.574
438.075;  770.334;   56.761;  162.430
438.364; 1048.312;  -44.238;  250.429
438.652;  640.066; -286.226; -138.592
438.941;  167.905;    3.770;  269.415
439.229;   37.989; -665.252; -466.545
439.517;   57.295; -160.234;  -85.577
439.806;   24.632; -501.225; -290.595
440.094;  210.678;  377.766;  650.421
440.382;  290.581; -653.233; -302.580
440.670;  301.686; -361.235; -285.576
440.959;   40.199; -347.223; -170.599
441.247;  122.817; -151.229; -109.587
441.535;  147.343; -266.235;   31.423
441.823;   79.200; -497.234; -305.578
442.111;  208.121;  173.771;  327.412
442.400;  711.805; -628.245; -335.559
442.688; 2028.402; -111.234; -620.579
442.976; 1498.512; -786.213; -450.617
443.264;  168.114; -324.224; -364.597
443.552;  146.642; -258.226;   51.408
443.840;  196.792;  602.765;  876.423
444.128;  127.530;  265.767;  269.420
444.416;   31.174; -694.228; -312.588
444.704;   48.479; -465.219;  -92.605
444.992;   79.770;   -0.226;  240.407
445.280;   80.881; -517.230;  -94.585
445.568;   91.416; -694.212; -396.618
445.856;  471.613; -174.221;  357.398
446.143; 1076.525;  -54.220;   -7.604
446.431;  870.327;  -25.228;  625.411
446.719;  291.798;  489.783;  675.391
447.007;  189.525;  481.769;  705.416
447.295;  192.696;  597.777;  871.402
447.583;  117.189; -464.229;  -34.587
447.870;  186.435; -434.221; -202.601
448.158;  540.780; -104.230;  129.415
448.446;  419.901; -800.219; -338.604
448.733;  202.990;   13.776;  269.403
449.021;  304.265;   60.788;  341.382
449.309;  214.605; -296.210;  208.379
449.596;  229.294;  128.783;   59.392
449.884;  177.728; -571.222; -325.600
450.172;  145.508; -756.227; -406.590
450.459;  414.370;  645.786;  780.387
450.747; 2104.168; -411.218; -147.608
451.034; 6834.953;  493.772;  889.411
451.322; 5563.273; -413.214; -170.614
451.609;  488.417;  292.777;  508.403
451.897;  552.618; -550.203; -183.634
452.184; 1668.447; -622.223; -400.598
452.472; 1572.302;   97.792;  269.375
452.759;  356.427;  512.781;  864.395
453.047;  154.463; -407.212; -125.617
453.334;  120.935; -732.219; -216.606
453.621;  126.676; -438.214; -161.615
453.909;  148.760;   13.796;  384.368
454.196;  145.755; -299.199; -123.641
454.483;  243.081;  317.798;  540.364
454.771;  153.080; -215.208;  196.374
455.058;   45.658; -316.207;  102.374
455.345;  113.661;   71.807;  344.347
455.632;   79.911; -128.207;  235.373
455.919;   50.653;  -82.196;  182.354
456.207;  -46.240; -774.198; -450.642
456.494;    3.168; -475.200;  -66.639
456.781;   39.527; -399.202; -198.635
457.068;   71.318; -253.206;  -29.628
457.355;   10.244; -698.206; -401.629
457.642;    2.874; -552.205; -290.630
457.929;   22.352; -778.194; -417.651
458.216;   77.813; -575.212; -354.617
458.503;  216.056; -173.193;  -19.652
458.790;  202.652; -864.208; -630.625
459.077;  277.382;  -77.202;  110.364
459.364;  744.595; -350.195; -210.649
459.651; 1579.216;  -46.206;  220.372
459.938;  745.843; -864.209; -665.623
460.225;  190.510;  132.799;  276.363
460.512;  -41.250; -836.197; -688.645
460.799;  117.092;  -32.218;  320.392
461.086;  119.573; -370.200; -251.640
461.372;   77.535; -509.198; -279.642
461.659;  139.254; -165.196;  108.354
461.946;  103.930; -445.193;  -54.651
462.233;  262.270;  842.800;  888.361
462.519;  336.792; -814.201; -464.639
462.806;  986.651; -768.197; -497.645
463.093;  813.451; -445.191;  -66.656
463.380;  -25.983; -920.186; -824.664
463.666;   79.152; -259.197;  -18.646
463.953;  105.890; -406.195; -243.648
464.239;  187.114; -173.195;  -77.648
464.526;  424.150;  413.806;  743.350
464.813;  415.962; -565.190; -304.658
465.099;  391.506;  606.807;  607.348
465.386;  389.135;  903.807;  921.348
465.672;   58.001; -694.197; -522.645
465.959;   61.505; -598.188; -520.662
466.245;   23.010; -468.193; -359.652
466.532;  115.762; -109.195;   63.352
466.818;  105.392; -357.186; -216.664
467.104;   12.082; -488.182; -415.672
467.391;   -9.336; -628.189; -459.658
467.677;   39.170; -289.186;    9.335
467.964;   33.446; -682.189; -471.660
468.250;   99.873; -331.186; -160.665
468.536;   94.815;   90.811;  180.341
468.822;  -22.840; -821.184; -574.668
469.109;  167.012;  351.827;  471.311
469.395;  207.220;  729.808;  787.346
469.681;  209.468;   46.811;  156.341
469.967; 1159.548; -699.188; -382.660
470.254; 2506.506; -494.188; -306.662
470.540; 1573.653; -601.196; -476.646
470.826;  228.568; -488.181; -397.675
471.112;  274.313;  288.816;  113.331
471.398;  100.893; -253.183;  -58.670
471.684;   57.271; -626.177; -447.680
471.970;    4.497; -918.180; -981.675
472.256;   32.869; -521.192; -441.654
472.542;   21.848; -499.171; -434.691
472.828;   42.603; -743.182; -607.672
473.114;   46.942; -380.166; -283.700
473.400;   42.788; -504.175; -293.684
473.686;   57.973; -452.166; -400.701
473.972;   68.752; -230.174; -131.687
474.258;  -37.263; -925.173; -843.689
474.544;  160.063; -183.178;   -2.679
474.830;  267.364;  -65.175;   45.316
475.116;  423.264; -123.190; -196.658
475.401;  552.274; -558.180; -467.676
475.687;  201.448; -725.180; -718.676
475.973;   36.286; -673.181; -770.673
476.259;  270.791;  736.825;  764.315
476.544;  343.379; -539.176; -437.682
476.830;  714.994; -398.172; -322.690
477.116;  585.428; -430.177; -336.682
477.401;  137.148;  346.820;  358.324
477.687;  -22.037; -289.175; -405.684
477.973;   41.539;   21.819;   28.326
478.258;   -7.007; -448.163; -348.706
478.544;   64.228;   21.815;   61.334
478.829;  -42.396; -818.171; -738.692
479.115;  -31.131; -749.172; -651.690
479.401;    7.248; -444.174; -449.686
479.686;   32.047; -253.180;  -74.676
479.972;  -43.607; -886.178; -776.680
480.257;   49.968; -258.166;  -65.700
480.542;    6.708; -614.170; -469.693
480.828;  227.511; 1288.824; 1392.317
481.113;  -20.141; -464.176; -426.683
481.399;   -1.583; -236.161; -202.711
481.684;  -51.057; -620.166; -462.700
481.969;   14.931; -158.159;  -73.713
482.255;   -5.857; -439.169; -285.695
482.540;    8.718; -569.178; -441.680
482.825;   17.037; -395.187; -404.663
483.110;   72.647;  -85.169; -105.696
483.396;  171.552; -840.157; -652.718
483.681;  420.577;  543.826;  730.313
483.966;  115.075; -696.160; -700.712
484.251;   11.476; -404.174; -310.687
484.536;    1.628; -356.165; -378.703
484.822;   14.479; -205.173; -218.687
485.107;  -20.485; -599.152; -502.726
485.392;  127.509;  662.836;  541.296
485.677;   90.631;  354.832;  163.302
485.962;  107.900;  160.843;  270.283
486.247;  102.926;  -14.162;   -8.707
486.532;   38.594; -178.166; -325.701
486.817;  172.487;  381.839;  431.291
487.102;  117.398; -453.154; -514.722
487.387;  557.479; -637.156; -652.718
487.672;  997.989; -154.164;  -38.705
487.957;  619.019; -394.160; -286.711
488.241;  177.707; -290.150; -314.729
488.526;  620.092; -280.152; -148.726
488.811; 1034.370; -881.177; -818.680
489.096;  784.076; -666.154; -702.723
489.381;  445.413;    3.847;  162.275
489.666;  303.767; -428.161; -510.710
489.950;  165.279;  558.846;  627.277
490.235;  -18.448; -480.151; -458.728
490.520;  -28.884; -756.161; -723.710
490.804;  -54.719; -827.156; -736.719
491.089;    8.473; -469.149; -299.732
491.374;   33.138; -132.164;  -75.704
491.658;    8.234; -817.147; -717.735
491.943;  210.096; -657.152; -609.727
492.227;  298.919; -178.155;  -38.721
492.512;   64.899; -294.157; -341.717
492.797;  -67.908; -713.149; -716.731
493.081;  -60.888; -588.147; -598.735
493.366;  -21.157; -751.161; -635.711
493.650;  207.290;  831.859;  917.254
493.935;   52.034; -648.147; -447.734
494.219;  -32.948; -778.142; -687.743
494.503;  -48.538; -585.150; -487.730
494.788;   39.491;   46.842;   74.285
495.072;   95.183;  184.850;  434.271
495.356;  171.826; -463.148; -343.733
495.641;  474.743; -812.146; -736.736
495.925;  469.511; -976.156; -903.719
496.209;   53.347; -599.149; -451.732
496.494;  -40.247; -763.142; -544.744
496.778;   22.398; -364.154; -360.722
497.062;  -40.464; -819.156; -627.719
497.346;  -35.604; -869.160; -640.711
497.631;  128.679;  580.852;  560.266
497.915;   74.054;  -64.145;  175.261
498.199;   85.252; -341.157; -277.718
498.483;   50.115; -562.152; -508.725
498.767;  174.059;  301.850;  300.271
499.051;  180.320; -126.149; -100.732
499.335;   17.943; -693.149; -739.731
499.619;  -26.959; -381.129; -423.767
499.903;   29.643; -272.155;  -65.721
500.187;   31.781; -588.153; -316.724
500.471;   32.895; -796.152; -595.727
500.755;  139.891;   62.839;  -96.710
501.039;   25.568; -270.155; -357.721
501.323;  110.417;  -21.141;  264.254
501.607;   51.794; -447.163; -503.706
501.891;    9.279; -607.156; -512.718
502.174;  -29.010; -726.144; -585.741
502.458;   84.499;   89.849;  370.273
502.742;   20.891; -180.138; -191.751
503.026;   99.933; -412.147; -254.734
503.310;  151.780; -437.159; -375.713
503.593;  105.410; -464.147; -325.735
503.877;  125.981; -232.133; -156.760
504.161;  198.883;    2.847;  -50.724
504.444;  139.268; -841.158; -710.716
504.728;  390.487; -487.164; -522.704
505.012;  639.006; -257.150;  -76.729
505.295;  491.442; -417.161; -212.711
505.579;  470.710; -256.156; -496.719
505.862;  638.475; -555.145; -333.738
506.146;  624.457; -681.159; -758.714
506.429;  364.382;  568.841;  461.286
506.713;   63.403; -732.151; -667.728
506.996;  297.698;   90.846;  295.278
507.280;  301.382; -633.165; -474.703
507.563;  213.966; -469.155; -261.721
507.847;   89.256; -423.153; -112.724
508.130;   67.168; -665.161; -456.711
508.413;   83.664; -758.167; -577.700
508.697;  211.239; -151.167;   12.300
508.980;  136.183; -422.153; -312.724
509.263;    0.263; -466.155; -450.720
509.547;   41.706; -124.150;   82.271
509.830;   51.795; -172.160;  140.289
510.113;   85.985;  128.844;  298.281
510.396;   42.663; -530.152; -300.725
510.680;  254.452; -818.145; -812.738
510.963;  937.127;  184.846;  180.277
511.246;  840.214; -493.150; -357.730
511.529;  294.332; -482.145;  -83.739
511.812;  321.902; -250.134;   10.241
512.095;  228.851; -740.151; -396.728
512.378;   59.839; -317.147; -245.736
512.661;   19.048; -703.137; -623.753
512.944;   16.854; -750.142; -637.744
513.227;   59.945; -170.137; -171.752
513.510;   31.465; -479.144; -671.741
513.793;   41.471; -485.140; -435.747
514.076;  145.262;  -43.127;  -39.771
514.359;  111.448; -294.149; -135.732
514.642;   69.432; -442.142; -567.744
514.925;  649.869;  581.860;  561.253
515.208;  844.449; -498.134; -443.758
515.491;  570.338; -276.133; -182.761
515.773;  307.744; -410.143; -337.742
516.056; 1794.030;  249.864;  409.246
516.339; 2530.058; -754.136; -652.755
516.622; 2101.711; -518.150; -488.730
516.904; 1728.451;  882.857;  975.257
517.187;  819.069; -730.138; -523.752
517.470;  442.200; -568.143; -510.743
517.752;  375.086; -624.136; -470.756
518.035;  285.107; -708.139; -725.749
518.318;  302.959; -799.136; -744.755
518.600; 2035.091; -300.132; -325.762
518.883; 2803.282;  310.858;   88.256
519.165; 1376.237; -585.138; -426.751
519.448;  428.066;  -61.132;  -19.762
519.730;  228.744; -573.126; -415.773
520.013;  357.284;  588.867;  664.240
520.295; 1165.329;  -94.134;  -15.759
520.578; 2641.779; -335.131; -305.764
520.860; 2894.241; -254.132;   56.238
521.143; 1435.038; -763.135; -584.756
521.425;  485.807; -251.125; -279.775
521.707;  632.162; -622.127; -380.771
521.990; 1545.613; -199.127;  167.229
522.272; 1744.423; -116.140;   -4.748
522.554;  892.370; -237.143; -157.742
522.836;  472.802;  -24.134;   99.241
523.119;  262.357; -496.148; -189.734
523.401;  172.386; -448.130; -314.766
523.683;   81.649; -865.137; -693.753
523.965;  259.667;  408.862;  260.248
524.247;  238.853;   54.878;  170.220
524.529;  173.479; -451.134; -367.759
524.812;  339.912;   -3.130;  191.234
525.094;  739.991; -773.138; -631.751
525.376; 1168.841; -143.124;   78.223
525.658;  703.881; -441.136; -339.754
525.940;   23.950; -805.131; -671.764
526.222;   44.609; -188.136;  -88.755
526.504;  136.948; -190.131;   32.237
526.786;  295.656; -960.133; -647.760
527.068;  423.647; -124.123;  -67.778
527.349;  215.327; -865.137; -774.754
527.631;  145.291; -137.132;   22.238
527.913;  133.661; -664.127; -450.771
528.195;  125.275; -761.125; -639.774
528.477;  216.074;  -93.134;  -30.758
528.759;   98.087; -648.130; -522.766
529.040;   38.470; -569.123; -293.778
529.322;   54.228; -235.125;  -10.774
529.604;  176.465;  -47.130;   93.233
529.886;  179.194; -546.126; -302.773
530.167;  151.681;  232.870;  192.235
530.449;   46.988;    1.853;   63.265
530.731;   22.327; -572.122; -459.779
531.012;   51.498; -513.120; -216.784
531.294;   53.462; -118.116;  -43.792
531.575;  129.857;  290.875;  538.225
531.857;   35.844; -548.135; -266.757
532.138;   88.440; -113.141;   40.254
532.420;  198.340;  294.865;  403.244
532.701;  303.084; -722.133; -751.760
532.983;  435.112;  232.867;  182.239
533.264;  151.042; -243.126;  175.228
533.546;  -19.466; -491.136; -508.755
533.827;   52.380;  173.867;   -1.759
534.109;   68.369; -352.135;  -80.757
534.390;  110.170; -725.132; -582.762
534.671;  254.515; -270.135;  -82.756
534.953;  143.348; -751.123; -611.779
535.234;   21.347; -426.117; -255.789
535.515;  -88.094; -891.119; -735.785
535.796;  -29.643; -431.128; -193.770
536.078; -119.359;-1050.124; -904.777
536.359;   19.324;  -22.123;    3.221
536.640;  -12.848; -480.125; -197.774
536.921;  171.520;  225.871;  143.232
537.202;  346.688;  -87.138;  -16.751
537.483;  401.153;  251.869;  377.236
537.764;  132.781;   17.870;   98.235
538.045;  -30.452; -543.134; -371.758
538.326;  -38.103; -596.129; -447.768
538.607;   -2.037; -686.127; -476.771
538.888;  149.239;   98.879;    5.218
539.169;  163.734; -704.122; -535.781
539.450;  332.519;  236.871;   16.233
539.731;  212.518; -361.121; -182.783
540.012;  120.298;  199.880;  412.216
540.293;  102.810;   82.876;  158.224
540.574;   24.133; -895.113; -717.796
540.855;  475.242;  435.879;  377.218
541.136;  534.881;   47.878;  139.220
541.416;  252.913; -161.130; -220.766
541.697;  165.624; -274.131; -170.763
541.978;  917.367; -270.135; -315.757
542.259; 1147.313; -211.127; -236.771
542.539;  565.181; -191.116; -186.790
542.820;  182.607;  461.875;  480.225
543.101;  143.403;  -52.145;  -77.738
543.381;   39.212; -638.127; -591.771
543.662;  252.335;  159.873; -254.771
543.942;  509.433; -751.127; -830.770
544.223;  921.258;  193.878;  161.219
544.504;  592.166; -275.124; -182.777
544.784;  510.544; -592.126; -408.773
545.065; 1490.835;  104.884; -254.791
545.345; 1754.482;  227.881;   14.215
545.626; 1116.807;  -14.113; -108.796
545.906;  775.381;   77.869;   98.235
546.186;  308.023;   92.874;  -95.773
546.467;  163.568;   99.877;  -95.778
546.747;  279.856;  264.884;  327.210
547.027;  336.564;   91.876;  111.223
547.308;  271.308; -376.127; -530.770
547.588;  357.547;  299.871;  371.232
547.868;  162.157;  458.870;  588.235
548.149;  169.492;  609.885;  593.207
548.429;  109.986; -347.127; -299.771
548.709;  156.173; -645.120; -461.784
548.989;  401.341;   84.882;   88.213
549.269; 1770.689;   10.868;  139.239
549.550; 4148.172;  215.877;  117.222
549.830; 3716.425; -758.111; -556.799
550.110;  711.632; -468.110; -320.801
550.390;  722.428; -128.122;  -56.779
550.670;  991.328; -868.114; -783.795
550.950;  698.541; -509.121; -471.782
551.230;  170.737;  549.879;  460.218
551.510;   -0.635; -381.121; -326.782
551.790;   36.165; -173.109; -127.803
552.070;  234.393;  940.877; 1181.223
552.350;  335.636; -492.119; -377.786
552.630;  495.535;   -2.121;   77.219
552.909;  308.610;  181.884;   73.209
553.189;  224.321;  -49.132;   33.237
553.469;  153.810; -703.119; -514.786
553.749;  148.939; -469.127; -357.772
554.029;  141.151;   33.883;  -24.790
554.308;  123.721; -154.115;  -37.794
554.588;   43.131; -196.128; -204.770
554.868;   54.367; -366.121;  -47.782
555.147;  134.093; -114.115;  -46.793
555.427;  494.838; -260.116; -250.792
555.707; 3318.541; -284.115; -200.793
555.986; 3971.353; -719.111; -538.800
556.266; 2082.355;   23.884;   72.210
556.546;   79.140; -888.121; -675.782
556.825;  192.001; -657.114; -556.794
557.105; 1512.579; -125.128;   17.230
557.384; 1800.659;  122.884;  187.209
557.664;  667.437; -717.116; -508.792
557.943;  101.241; -557.121; -411.782
558.222;  153.144; -345.118; -344.788
558.502;  228.920; -116.115;  -76.793
558.781;  420.815;  194.885;  499.208
559.061;  336.094; -232.118; -227.788
559.340;  247.124;  302.883;  353.211
559.619;  588.104;   93.884;  148.210
559.899;  844.501; -239.117; -266.789
560.178;  745.619; -778.115; -593.793
560.457; 2633.002; -623.117; -562.790
560.736; 3733.254; -472.111; -482.800
561.015; 2469.977; -500.128; -502.769
561.295;  337.760;  180.893;  215.193
561.574;  326.542;  119.885;  116.207
561.853;  455.994;  274.891;  303.197
562.132;  413.672;  -45.114;  182.206
562.411;  371.136;  396.879;  553.219
562.690;  100.740; -592.115; -458.792
562.969;  129.214;  472.888;  630.203
563.248;  510.058; 2966.878; 2487.219
563.527;  226.979; -290.111; -408.800
563.806;  305.836; -650.127; -521.771
564.085;  348.400; -297.105; -206.810
564.364;  191.879; -594.117; -405.790
564.643;  395.186; -276.121; -223.781
564.922; 1582.363;  221.890;  397.198
565.201; 1564.817; -640.109; -700.803
565.479;  672.914; -297.115; -219.792
565.758;  271.154; -810.128; -712.770
566.037;  407.993; -155.109; -100.803
566.316;  199.334; -286.116;  -28.791
566.595;   46.942;  -17.115;  -12.793
566.873;   81.756; -166.111;  -79.801
567.152;  -55.411; -490.113; -590.797
567.431;   10.230; -113.116;    6.210
567.709;   -4.665; -344.107; -212.807
567.988;  196.025; -810.114; -769.794
568.266;  456.016; -160.115;  -68.793
568.545;  326.947; -644.100; -514.819
568.824;  475.888;  160.885;  356.208
569.102;  429.850; -351.114; -235.794
569.381;  166.962; -492.116; -407.792
569.659;  -59.215; -553.113; -553.796
569.938;   18.682; -743.122; -465.780
570.216;   89.321; -225.109; -225.804
570.494;  -26.597; -632.114; -572.795
570.773;   40.365;  202.879;  114.218
571.051;   -4.329; -373.123; -357.778
571.330;   44.658; -221.113; -174.796
571.608;   32.065; -181.098; -173.823
571.886;  -84.752; -671.111; -581.799
572.164;  -78.283; -739.121; -621.782
572.443;  -66.371; -562.105; -512.811
572.721;  -25.547; -399.117; -289.790
572.999;  -38.679; -280.117; -168.788
573.277;   89.397;  379.894;  620.191
573.555;  231.999;   94.894;   37.190
573.834; 1114.221;  -86.117; -114.788
574.112; 1289.388;  880.893;  811.193
574.390;  398.505; -143.111;  -96.801
574.668;   -3.260;  -91.112;  -61.797
574.946;  -14.500; -165.106; -187.810
575.224;    8.542;   71.891;  -16.803
575.502;  -14.668; -200.116; -204.791
575.780;  -78.984; -767.112; -829.798
576.058;  209.929; 1589.889; 1004.200
576.336;  -22.040; -210.110; -129.801
576.614;  -54.159; -511.112; -340.798
576.891;   31.996; -711.115; -823.794
577.169;  396.229; -158.108; -285.805
577.447;  477.637;  169.893;  202.193
577.725;  221.970;  629.888;  854.201
578.003;    6.068;  -71.112; -371.798
578.280;   98.863; -208.104; -242.812
578.558;   59.095; -450.115; -422.793
578.836;  130.203; -210.114; -145.795
579.114;   45.614; -630.112; -670.797
579.391;   67.248;   -6.117;  -18.789
579.669;  -66.328; -595.114; -704.794
579.947;  143.909; -326.107; -127.806
580.224;  274.934; -692.107; -524.806
580.502;  270.513;  127.893;   76.193
580.779;   26.528;  -42.117;   75.210
581.057;  -58.754; -584.109; -470.804
581.334; -100.047; -726.102; -695.815
581.612;   26.450;   54.895;  511.190
581.889;  -27.484;  -83.101; -129.818
582.167;  -32.070; -298.099; -190.821
582.444; -107.040; -845.102; -814.817
582.721;   88.336;  657.899;  715.183
582.999;   37.352; -326.100; -167.821
583.276;  409.175; -812.123; -713.779
583.553;  556.331; -364.102; -294.816
583.831;  188.884; -607.104; -631.812
584.108;   43.702;  349.892;  174.195
584.385;   -3.548; -122.102;  -98.815
584.662;  -78.844; -651.111; -828.801
584.940;   32.330;  204.889;  204.199
585.217;  -16.090;  -73.113; -303.796
585.494;   22.864;   71.890;  118.198
585.771;  162.997; -250.109; -354.804
586.048;  444.159; -196.113;  -76.796
586.325;  259.959; -721.110; -773.801
586.602;   74.263;  230.896;  213.188
586.879;  -16.151; -499.100; -580.820
587.156;   37.551; -156.105; -331.810
587.433;  -54.417; -701.102; -667.817
587.710;   57.192;  152.888;  234.202
587.987;  252.406; -264.105; -236.811
588.264;  712.418;  315.888;  387.202
588.541; 1178.041;  -61.104;   26.187
588.818; 2420.674;   72.892;  171.196
589.095; 2047.486; -163.104; -174.812
589.371;  320.245; -459.109; -414.804
589.648;   26.188; -581.107; -437.807
589.925;    6.529; -517.114; -621.795
590.202;   -4.809; -741.112; -607.798
590.478;   76.358; -166.105;  -73.811
590.755;  209.905; -241.108; -132.806
591.032; 2069.586; -741.110; -699.802
591.308; 2905.105; -732.094; -790.831
591.585; 1479.585; -573.110; -560.802
591.862;  104.535;-1056.102; -950.817
592.138;   34.953; -475.108; -474.805
592.415;  101.864; -486.104; -495.813
592.691; 1289.462;  460.896;  518.188
592.968; 1655.492; -208.098; -123.824
593.244;  779.681; -695.116; -595.790
593.521;   54.185; -105.102;  -42.817
593.797;  -44.471; -810.122; -720.780
594.074;  283.429; -611.096; -588.826
594.350;  582.290;  828.905;  729.172
594.626;  254.881; -303.111; -283.801
594.903;   82.761; -643.101; -645.817
595.179;  166.468;  243.896;  418.187
595.455;    4.564; -136.107; -150.807
595.731;    2.869;  -19.103;  -38.814
596.008;  -32.149; -464.111; -434.800
596.284;   18.826; -187.100; -242.820
596.560;   37.586; -501.093; -493.833
596.836;  161.478; -173.105;  -70.810
597.112;  294.678; -582.108; -437.805
597.388;  246.927;  -49.097;  -48.826
597.665;  106.962;  437.887;  530.203
597.941;  -61.485; -572.089; -658.839
598.217;   -6.886; -323.110; -293.802
598.493;  219.798;   61.891; -204.804
598.769;  444.821; -175.100;  -50.819
599.045;  261.081; -490.108; -562.806
599.321;   22.800; -193.100; -261.820
599.597;  101.373; -355.109; -476.804
599.872;  410.791;  409.896;  429.187
600.148;  288.004;  -61.097; -172.826
600.424;  244.411;   91.893;  202.193
600.700;  193.538; -170.107; -280.807
600.976;   86.523; -442.097; -464.825
601.252;  192.319; -226.109; -272.803
601.527;  162.241; -833.104; -840.813
601.803;  110.684; -453.105; -404.812
602.079;  154.471; -124.100; -118.819
602.354;  475.121; -620.092; -531.835
602.630;  702.735; -140.113; -482.796
602.906; 1917.366; -910.101; -863.818
603.181; 5705.485; -627.119; -534.786
603.457; 4926.351;   98.903; -278.826
603.733;  689.794; -605.120; -626.783
604.008;  811.525; -245.106; -164.810
604.284; 2659.312; -636.101; -580.817
604.559; 2305.745;   -3.112;  -42.799
604.835;  399.178; -163.105; -225.810
605.110;  344.205; -732.099; -892.821
605.385;  599.064;  224.907;  267.167
605.661;  512.818; -625.095; -729.829
605.936;  966.582; -664.108; -737.806
606.211;  825.701;  -17.103; -170.815
606.487;  152.674; -329.114; -376.794
606.762;    0.961; -791.119; -745.786
607.037;  -32.397; -501.105; -433.810
607.313;  -60.989; -589.096; -574.828
607.588;  -20.500; -375.106; -137.810
607.863;   16.315;  -28.101; -143.818
608.138;  164.213;  513.890;  516.198
608.413;    8.284; -576.099; -592.822
608.688;   21.878; -203.108; -267.805
608.964;  167.294; -509.106; -218.809
609.239;  192.226; -107.105; -212.810
609.514;  204.883;  281.895;  240.188
609.789;  557.338; -187.104; -716.812
610.064;  747.610; -435.096; -609.827
610.339;  702.495; -855.109; -799.804
610.614;  987.626; -131.100; -315.820
610.889;  553.034;  215.895;  107.188
611.163;   12.284; -407.104; -591.812
611.438;   66.350;   81.886; -167.794
611.713;   -7.363; -467.101; -499.817
611.988;   19.964; -144.101; -328.818
612.263;  -40.347; -771.102; -717.815
612.538;  176.034;  385.887;  251.204
612.812;  127.077; -832.100; -911.820
613.087;   85.915; -358.098; -338.823
613.362;  -67.536; -497.107; -557.807
613.637;   33.522;  261.897;  138.186
613.911;  -32.653; -256.092; -345.835
614.186;   88.287; -249.107; -292.807
614.460;  541.440; -842.081; -758.854
614.735;  651.514;  -55.087;  -17.843
615.010;  129.054;   43.912;  -82.841
615.284;  220.802;  360.892;  246.195
615.559;  311.145; -792.092; -955.835
615.833;  244.957;  -76.099;  -87.822
616.108;  -20.818; -225.090; -390.837
616.382;  113.440;  274.913;  402.156
616.656;  108.833; -241.090; -232.837
616.931;  417.683; -785.099; -700.822
617.205;  865.867; -973.104; -979.813
617.480;  827.105;  -91.125;    6.225
617.754;  122.952; -396.125; -128.774
618.028;    1.373; -369.129; -382.768
618.302;   32.426;   73.892;  -25.805
618.577;  -43.352; -371.103; -518.815
618.851;  -56.484; -399.109; -600.803
619.125;  -59.546; -335.134; -378.759
619.399;  -42.058; -244.104; -374.813
619.673;  -45.887; -330.115; -515.792
619.947;  -56.847; -333.114; -448.795
620.222;  -19.693; -198.110; -204.801
620.496;  -10.958;  -47.121;  -96.782
620.770;  -11.142; -187.122;  -93.781
621.044;  167.901;  323.895;  346.190
621.318;  629.895; -653.120; -614.783
621.592;  548.242; -430.121; -409.783
621.866;  279.471; -476.112; -572.799
622.140;   -1.468; -207.116; -356.791
622.413;   47.375;  138.889;  112.200
622.687;  -51.013; -746.101; -492.817
622.961;   14.126; -130.108; -143.805
623.235;  -68.324; -633.111; -661.800
623.509; -101.242; -816.105; -848.811
623.783;   -3.715;  -12.107;   48.193
624.056;  -37.979; -254.120; -280.783
624.330;   23.215;   63.888;   -3.797
624.604;   26.679; -271.116; -355.790
624.877;   51.737;  180.890;   26.198
625.151;   21.448; -249.114; -238.794
625.425;  -33.581; -150.103; -283.814
625.698;  -69.045; -367.119; -374.785
625.972; -114.711; -799.110; -765.802
626.245;   58.006;  685.884;  484.210
626.519;  -63.400; -426.120; -340.784
626.792;  -33.662; -192.107; -380.807
627.066;  -75.449; -485.122; -662.779
627.339;  -99.415; -736.110; -663.802
627.613;   42.948;  351.880;  148.216
627.886;   58.416;  187.891; -612.803
628.160;  -24.831;  312.880; -161.783
628.433;  -99.392; -695.125; -703.775
628.706;  -90.600; -517.120; -615.784
628.979;   13.039;  296.876;  117.223
629.253;  -98.765; -785.119; -833.786
629.526;  275.692; -334.126; -253.772
629.799;  256.596; -641.123; -479.778
630.072;  125.250; -497.128; -516.769
630.346;  -84.019;-1115.116;-1080.790
630.619;  375.989; -467.107; -545.808
630.892;  525.177;  709.889;  593.200
631.165;  280.992;  790.896;  679.187
631.438; -100.832;-1092.112;-1055.798
631.711;   34.574;  453.877;  257.221
631.984;  -58.949; -523.117; -624.789
632.257;  -71.177; -636.117; -681.789
632.530;  -59.920; -412.119; -433.785
632.803;   17.021; -109.115;    7.207
633.076;  -80.007; -360.123; -422.777
633.349;    3.429;  173.872;  121.231
633.622;  -37.596; -187.119; -240.785
633.895; -129.405; -903.120; -823.783
634.167;  -73.156; -496.126; -525.773
634.440;  -18.163;  -19.116; -137.792
634.713;  -16.791;  -22.119; -120.786
634.986;   70.868;  593.871;  453.233
635.258;  -78.606; -507.115; -597.793
635.531;   81.619;  742.882; -343.788
635.804;  -24.650; -303.117; -318.789
636.077;  -83.267; -830.116; -852.791
636.349;  -21.183; -586.115; -474.793
636.622;  354.092; 1695.874; 1392.228
636.894;  175.650; -474.120; -909.784
637.167;  107.136; -836.127; -789.771
637.439;    1.232; -278.128; -213.770
637.712;  -42.257; -312.126; -293.772
637.984; -100.666; -635.116; -707.791
638.257;  334.318;  515.877;  488.222
638.529;  501.409; -881.125; -924.776
638.802;  215.324; -508.128; -449.769
639.074; -108.117; -927.122; -952.781
639.346; -119.255; -942.135; -930.757
639.619;   -0.194;  -79.142; -319.744
639.891;   -5.499;  -83.122; -168.779
640.163;  -80.697; -689.122; -756.780
640.435;   22.980;  273.878;  103.220
640.708;    7.257;  -72.122; -132.780
640.980;  -21.316; -366.122; -362.781
641.252;  173.561;  -25.121;  -71.781
641.524; 1649.587;  580.879;  573.219
641.796; 1685.789;-1094.121; -907.782
642.068;  300.091; -191.121; -300.782
642.340;  -73.607; -486.121; -566.783
642.613;   25.070;  294.880;  323.217
642.885;  -97.929; -787.120; -878.783
643.157;  -48.427; -810.120; -658.784
643.428;   49.075;  170.880;  218.216
643.700;  -77.548; -498.120; -425.784
643.972;  -28.871;  -16.119; -133.785
644.244;  -90.644; -474.119; -559.785
644.516;  -56.518; -250.119; -114.786
644.788;   61.759;  662.881;  548.214
645.060;  -30.114;  -12.119; -124.786
645.332;  -85.812; -525.118; -535.787
645.603;   21.690;  479.882;  342.213
645.875;  -84.858; -334.118; -369.787
646.147;  156.943; 1487.882; 1242.212
646.418;  -85.030; -931.117; -918.788
646.690;   88.397; -714.117; -715.789
646.962;   10.449; -413.117; -451.789
647.233;  -26.324;   15.883;   11.211
647.505;  -99.298; -595.117; -475.790
647.776;    6.154;  328.884;  229.210
648.048;  -16.694; -248.116; -418.790
648.320;  -77.342; -752.116; -679.791
648.591; -150.690;-1055.116; -958.791
648.862;  -95.613; -505.116; -577.792
649.134;    3.313;  115.885;  198.208
649.405;  -62.085; -661.115; -618.792
649.677;  -59.933; -475.115; -598.793
649.948;  -27.131; -181.115; -296.793
650.219;  -11.929;  -37.115; -147.793
650.491;  -84.503; -431.114; -520.794
650.762; -120.726; -705.114; -731.794
651.033;  -79.499; -437.114; -424.795
651.304;  -93.597; -743.114; -728.795
651.576;  -82.595; -680.114; -645.795
651.847;  -36.643; -250.113; -140.796
652.118;  -33.917;  -32.113; -189.796
652.389; -110.665; -639.113; -722.796
652.660;  -30.963; -147.113;  -89.797
652.931; -138.986; -897.112; -871.797
653.202;  -68.709; -382.112; -541.798
653.473;  -67.782; -633.112; -533.798
653.744;  100.644; -595.112; -590.798
654.015;  124.496; -356.112; -303.799
654.286;  -89.802; -642.111; -663.799
654.557;  -74.825; -586.111; -521.799
654.828; -154.623;-1114.111;-1088.800
655.099;  -89.672; -404.111; -291.800
655.370; -102.495; -427.111; -543.801
655.641; -123.243; -656.110; -714.801
655.911; -106.841; -618.110; -638.801
656.182;   52.736;  437.890;  387.198
656.453;   93.388;  830.890;  746.198
656.724;  -80.711; -466.110; -426.802
656.994;  -95.809; -553.109; -568.803
657.265; -100.007; -862.109; -873.803
657.536;  -79.705; -500.109; -377.804
657.806;  -99.853; -561.109; -593.804
658.077; -138.951; -866.109; -950.804
658.347;  -82.425; -523.108; -598.805
658.618; -117.298; -646.108; -694.805
658.888;  -21.821;  -41.108;  112.195
659.159;  -84.819; -432.108; -548.806
659.429;  -29.367; -292.108; -349.806
659.700;   -8.441; -435.107; -390.807
659.970;  -28.789; -370.107; -359.807
660.241;  -23.887; -754.107; -921.807
660.511;  438.640; -147.107; -174.808
660.781;   66.317; -793.106; -748.808
661.052;  -33.906; -222.106; -381.808
661.322;  -23.680;   21.894;   -9.809
661.592;   12.747;  257.894;  148.191
661.862;  -80.426; -369.106; -382.810
662.133;  -85.649; -551.105; -502.810
662.403; -124.822; -770.105; -676.810
662.673;  -58.695; -256.105; -213.811
662.943; -106.894; -612.105; -551.811
663.213;  -19.517;  -85.105;  -81.811
663.483;  -85.640; -593.104; -568.812
663.753;  -59.763; -194.104; -152.812
664.023;  -15.286;   68.896;  -32.813
664.293;  -76.635; -319.104; -126.813
664.563; -117.433; -694.104; -648.813
664.833; -121.181; -743.103; -608.814
665.103; -123.579; -730.103; -793.814
665.373; -123.377; -766.103; -806.814
665.643; -100.600; -863.103; -918.815
665.913;   20.576; -534.103; -714.815
666.182;  109.403; -685.102; -719.816
666.452;  217.330;  -22.102;  -89.816
666.722;  -53.118; -724.102; -784.816
666.992; -124.366; -948.102; -921.817
667.261;  -95.489; -824.102; -808.817
667.531;  194.637;  134.899;   45.183
667.801;  540.414; -440.101; -412.818
668.070;  231.991;  714.899;  697.182
668.340; -100.182; -883.101; -840.819
668.609;   87.095;  588.900;  301.181
668.879;  -95.004; -490.100; -558.819
669.149;  -70.777; -539.100; -516.820
669.418; -109.100; -698.100; -726.820
669.688;  -40.198; -482.100; -666.820
669.957;   52.779; -423.099; -546.821
670.226;  -31.619; -268.099; -331.821
670.496;  -98.568; -431.099; -635.822
670.765;  -89.016; -418.099; -501.822
671.034; -132.289; -872.099; -828.822
671.304;  -23.212;   55.902; -111.823
671.573; -162.310;-1085.098; -957.823
671.842;   62.841; -380.098; -294.823
672.112;    5.443; -692.098; -586.824
672.381;  -11.380; -239.098; -214.824
672.650; -132.178;-1005.097;-1021.825
672.919;  -96.826; -631.097; -507.825
673.188;  -91.549; -681.097; -878.825
673.457; -162.098;-1101.097;-1143.826
673.726;  -80.096; -579.096; -646.826
673.995;  -62.969; -533.096; -479.826
674.265;  -27.042; -263.096; -333.827
674.534;   -3.565; -183.096; -235.827
674.802;  -20.713; -618.096; -703.828
675.071;  807.913; -886.095; -801.828
675.340; 3376.540; -464.095; -339.828
675.609; 1123.217;  103.905;   82.171
675.878;   43.094; -949.095; -893.829
676.147;   21.246;  -26.095;   -8.829
676.416;   52.072; -210.094; -294.830
676.685;  635.574; 1000.906; -622.830
676.953;   72.576; -603.094; -452.831
677.222;  -36.622; -193.094; -273.831
677.491;  -40.545;  -24.094; -127.831
677.759;  -23.143;   11.907;  172.168
678.028;  -46.092; -279.093; -222.832
678.297;   -6.940;   71.907;  197.168
678.565; -142.213; -898.093; -944.833
678.834;  -63.936; -311.093; -268.833
679.102;  -87.859; -411.092; -391.834
679.371; -151.082; -898.092; -727.834
679.639; -141.806; -797.092; -786.834
679.908; -128.679; -794.092; -724.835
680.176; -159.627; -895.091; -941.835
680.445;  -82.125; -346.091; -352.835
680.713;  -22.323;  -58.091;  -23.836
680.982; -107.747; -523.091; -525.836
681.250; -101.770; -578.091; -507.837
681.518;  -90.768; -534.090; -751.837
681.787;  -32.341; -204.090; -167.837
682.055;  -72.439; -490.090; -422.838
682.323; -152.162; -993.090; -992.838
682.591;    0.689; -216.090; -538.838
682.859;   57.666;    9.911;  -35.839
683.128;   10.418;  232.911;  497.161
683.396; -171.580;-1102.089;-1122.840
683.664;  -49.953; -241.089;   21.160
683.932;   -4.576;  144.911;  -76.840
684.200;  -91.175; -576.088; -320.841
684.468;  -44.373;  -73.088; -124.841
684.736;  -43.671; -214.088; -175.841
685.004; -132.819;-1024.088; -982.842
685.272;  -62.242; -880.088; -774.842
685.540;  -83.766; -499.087; -557.843
685.808;  -90.839; -651.087; -682.843
686.076; -112.987; -894.087; -969.843
686.343;  -64.985; -601.087; -815.844
686.611;   33.367; -195.087; -224.844
686.879;  346.719; -530.086; -553.844
687.147; 2836.270; -483.086; -480.845
687.414;  831.897;  -12.086; -169.845
687.682;   -4.276; -658.086; -757.846
687.950;  255.526;  259.915;  263.154
688.217;  -11.872; -792.085; -760.846
688.485;  -13.970; -632.085; -636.847
688.753;  433.881;  -11.085; -102.847
689.020;  105.283; -820.085; -851.847
689.288; -104.990; -853.084; -787.848
689.555;  -39.513; -195.084; -148.848
689.823;  -53.261; -241.084; -345.849
690.090;  -79.885; -546.084; -651.849
690.358; -146.383; -877.084; -897.849
690.625;    1.569;  120.917;   45.150
690.892;  -76.754; -403.083; -369.850
691.160;  -28.152;   72.917;  -35.850
691.427;   -4.300;  141.917;  130.149
691.694; -141.549; -855.083; -929.851
691.962; -147.647;-1177.082;-1060.852
692.229;    4.405;  127.918;   56.148
692.496;   54.907;  130.918;  -49.852
692.763;    5.284; -164.082; -201.853
693.031;  -81.140; -739.082; -716.853
693.298;  -42.888; -509.081; -368.853
693.565;  239.364; -155.081; -163.854
693.832; 1094.291;   -5.081;   -9.854
694.099;  101.293; -643.081; -642.855
694.366;  -57.405; -882.081; -896.855
694.633;  -58.429; -920.080; -633.855
694.900;  685.748; 4367.920; -114.856
695.167;  384.700; -214.080; -380.856
695.434;   99.052; -646.080; -623.856
695.701;  181.929;  121.921;  -61.857
695.968;  407.306; -365.079; -361.857
696.234;  927.657; -415.079; -646.858
696.501;10496.634; -776.079; -614.858
696.768; 5530.361; -554.079; -617.858
697.035;  311.338; -632.078; -667.859
697.302;   32.365; -448.078; -552.859
697.568;   17.866; -458.078; -497.859
697.835;  -39.407; -683.078; -624.860
698.102;  -34.830; -498.078; -407.860
698.368;   72.697;  384.923;  396.139
698.635;  -32.101;  -47.077; -424.861
698.901;  -30.699; -240.077; -348.861
699.168;   35.727; -534.077; -456.862
699.435;   54.229;  -72.077;  -13.862
699.701; -112.394; -868.076; -764.862
699.968;   11.883;  144.924; -441.863
700.234; -102.040; -783.076; -822.863
700.500;  -40.963; -448.076; -539.864
700.767;   -4.412;   -1.075;   26.136
701.033; -136.035;-1015.075; -963.864
701.299;  -50.983; -450.075; -483.865
701.566;  102.494;  950.925;  763.135
701.832;   11.946;  -31.075;  -76.865
702.098;  -98.578;-1054.074;-1034.866
702.365;  -83.651;-1098.074;-1030.866
702.631;  -42.274;-1038.074;-1063.867
702.897; 1199.128; -765.074; -676.867
703.163; 2122.255;  348.926;  254.133
703.429;  146.357; -256.073; -273.868
703.695;  -22.717; -796.073; -792.868
703.961;   25.610; -214.073; -210.868
704.227;  -53.138; -630.073; -725.869
704.493;  119.814;  613.927;  510.131
704.759;  -29.634; -565.072; -540.870
705.025;   38.593; -203.072; -194.870
705.291;   -3.881; -666.072; -562.870
705.557;  187.271;  719.928;   34.129
705.823;   30.898; -742.072; -694.871
706.089;  154.700; -307.071; -326.871
706.355;  390.227; -315.071; -244.872
706.620; 5877.628; -776.071; -729.872
706.886; 8449.705; -309.071; -362.873
707.152;  740.107; -818.070; -973.873
707.418;  -15.741;-1153.070;-1186.873
707.683;   19.211; -550.070; -530.874
707.949;  -46.837; -547.070; -578.874
708.215;  -12.461; -129.070; -207.874
708.480;  -15.809; -520.069; -420.875
708.746;   76.093;   68.931;   28.125
709.011;  -60.430; -578.069; -612.876
709.277;  -76.328; -538.069; -543.876
709.542;  -45.377; -428.069; -387.876
709.808;    2.750;  -59.068;   89.123
710.073;  -83.223; -577.068; -695.877
710.339;  -26.421; -242.068; -228.877
710.604;   43.731; -780.068; -845.878
710.869;  305.083; -277.068; -366.878
711.135;  -83.016; -715.067; -628.879
711.400;  -75.789; -507.067; -608.879
711.665;  -71.112; -404.067; -479.879
711.931;  -95.460; -661.067; -677.880
712.196; -119.608; -876.067; -954.880
712.461;   83.894; -402.066; -490.880
712.726;  105.345; -727.066; -771.881
712.991;  -82.553; -647.066; -664.881
713.256;  -49.426; -350.066; -332.882
713.521;  -55.874; -417.065; -381.882
713.787;  -76.597; -454.065; -472.882
714.052;  -27.546; -214.065; -400.883
714.317;  -95.469;-1045.065; -981.883
714.581; 1066.208; -374.065; -268.883
714.846; 1571.235; -822.064; -888.884
715.111;  138.562;  261.936;  257.116
715.376;  -25.861;  -86.064; -223.885
715.641;  -37.785; -365.064; -367.885
715.906;  261.767;   15.936; -551.885
716.171;  124.494;  221.937;  209.114
716.436;   23.296;  -78.063; -104.886
716.700; -111.702; -818.063; -692.886
716.965; -128.625; -794.063; -807.887
717.230;  -80.074; -339.063; -392.887
717.494;  -22.172;  -40.062; -134.888
717.759;  -98.695; -784.062; -640.888
718.024;    0.307;  269.938;  250.112
718.288;   66.309;  685.938;  395.111
718.553; -147.715; -803.062; -977.889
718.817; -139.788; -883.061; -899.889
719.082;  -36.686; -115.061; -125.890
719.346; -143.159;-1000.061; -947.890
719.611;  -59.007; -300.061; -255.891
719.875; -106.705; -568.060; -537.891
720.140;  -62.654; -453.060; -603.891
720.404;   29.123; -136.060; -249.892
720.668;  711.875; -475.060; -411.892
720.933;  303.902;  146.940;  137.108
721.197; -104.521; -667.059; -600.893
721.461; -129.094; -851.059; -826.893
721.725;  -17.243;  -21.059; -250.894
721.990;  -58.016; -284.059; -204.894
722.254;  -28.114;  -26.059; -108.894
722.518;  -85.837; -286.058; -442.895
722.782;  -92.460; -743.058; -594.895
723.046;  106.316;  614.942;  570.105
723.310;   22.643;  374.942;  210.104
723.574; -105.430; -654.058; -614.896
723.838; -114.753; -576.057; -642.897
724.102;  -54.676; -226.057; -239.897
724.366; -140.349;-1032.057; -978.897
724.630;  -92.048; -749.057; -571.898
724.894;  -79.921; -722.057; -514.898
725.158;  -16.244;   38.944; -295.898
725.422;  -49.592; -394.056; -327.899
725.685;  -80.315; -441.056; -349.899
725.949;  -72.513; -566.056; -519.900
726.213;  -83.962; -732.056; -811.900
726.477;  107.365;-1020.055; -933.900
726.740;  130.467; -274.055; -104.901
727.004;  297.544; -384.055; -510.901
727.268; 3471.246; -442.055; -400.901
727.531; 1010.397; -961.055; -775.902
727.795;  -28.276; -713.054; -673.902
728.059;  -53.574; -552.054; -557.903
728.322;  -98.122; -841.054; -669.903
728.586;    7.605; -692.054; -701.903
728.849;  -80.343; -695.053; -756.904
729.112; -109.267; -812.053; -912.904
729.376; -122.890; -959.053; -905.904
729.639;  -82.963; -536.053; -536.905
729.903;  -97.186; -733.053; -699.905
730.166;  -53.509; -437.052; -399.906
730.429;  -28.958; -317.052; -468.906
730.693;  -70.131; -355.052; -894.906
730.956;  173.646;  810.948;  651.093
731.219;  606.323; -310.052; -103.907
731.482;   93.500;-1003.051; -894.907
731.745;   83.952; -794.051; -935.908
732.009;   19.278;  -30.051;   50.092
732.272; -115.745; -904.051; -771.909
732.535;  -43.468; -300.051; -310.909
732.798; -149.016;-1083.050;-1166.909
733.061;  -66.114; -430.050; -456.910
733.324;   -0.587;   31.950; -180.910
733.587;   63.089;  290.950;  365.090
733.850;  -76.384; -973.049;-1050.911
734.113;   29.693;   33.951;   32.089
734.376;  -17.980; -328.049; -447.912
734.639;  192.697; 1188.951; 1011.088
734.901;   46.548; -180.049; -402.912
735.164;  415.225; -883.048; -837.913
735.427; 1207.727; -166.048; -355.913
735.690;  123.254; -205.048; -234.913
735.952;  -50.969; -923.048; -925.914
736.215;  -37.267;-1113.048;-1009.914
736.478;   20.059; -771.047; -774.915
736.740;  193.186;   33.953;  129.085
737.003;  559.788; -658.047; -672.915
737.266; 3651.815;  -94.047;   46.084
737.528;  409.717; -682.047; -660.916
737.791;  302.994; -316.046; -327.916
738.053;  746.420;  465.954;  649.083
738.316;10462.772; -162.046; -136.917
738.578; 8006.574; -770.046; -736.918
738.841;  446.376; -382.046; -446.918
739.103;  169.553; -875.045; -777.918
739.365;  481.154;   79.955;  -69.919
739.628;    5.706; -884.045; -805.919
739.890;  -25.217; -758.045; -710.919
740.152;  -38.140; -692.044; -754.920
740.414;  -13.713; -408.044; -359.920
740.677;  -51.511; -785.044; -634.921
740.939;  -70.835; -587.044; -487.921
741.201;  192.317; -432.044; -572.921
741.463;    7.969; -689.043; -745.922
741.725;   -6.504;  -21.043; -199.922
741.987;   40.473;  220.957;  116.078
742.249;  -20.850; -751.043; -859.923
742.511;  179.526; -703.043; -794.923
742.773;   11.403; -546.042; -546.924
743.035;  119.980;  796.958;  533.076
743.297;  -63.918; -963.042;-1013.924
743.559;  678.734; -278.042; -262.925
743.821;   54.210; -735.042; -744.925
744.083;   13.937;  -44.041; -149.925
744.345;  -89.711; -869.041; -892.926
744.607;   26.641;   75.959;  122.074
744.868;  -74.457; -490.041; -554.927
745.130; -122.330; -994.041;-1008.927
745.392;   37.796;   -1.040;  -44.927
745.653;  -14.927; -411.040; -378.928
745.915;  153.825;  896.960;  631.072
746.177;   60.877;   35.960;  -43.928
746.438;    3.929; -428.040; -543.929
746.700;  -53.794; -947.039; -988.929
746.961;   -8.243; -659.039; -740.930
747.223;  145.284; -190.039;  -74.930
747.484;   70.661; -391.039; -471.930
747.746;  127.863;  -23.038; -106.931
748.007;  101.415; -647.038; -689.931
748.269;  267.491; -468.038; -440.931
748.530;  414.418; -852.038; -638.932
748.791;  224.045; -354.038; -420.932
749.053;  402.547;  286.963;  163.067
749.314;  425.399; -236.037; -169.933
749.575;  478.326; -945.037; -905.933
749.836;  780.677; -217.037;   86.066
750.098; 2168.454;  -60.037;  -21.934
750.359;33827.056;  414.964;  555.066
750.620; 9398.558; -121.036; -220.935
750.881;  978.210; -585.036; -513.935
751.142; 1278.161; -950.036; -938.936
751.403;15886.713; -789.036; -705.936
751.664; 7690.965;-1034.035; -999.936
751.925;  478.967; -175.035; -262.937
752.186;  273.069; -298.035; -278.937
752.447;  130.021; -590.035; -445.937
752.708;   46.747; -532.035; -648.938
752.969;   -3.901; -566.034; -576.938
753.230;   -9.524; -777.034; -672.939
753.491;   -3.747; -650.034; -631.939
753.751;   55.055;  109.966;   19.061
754.012;   91.782;  258.967;  181.060
754.273;   58.233; -174.033;  -71.940
754.534;   -8.315; -487.033; -580.940
754.794;  -89.113; -926.033; -911.941
755.055;  119.539; 1051.967;  881.059
755.316;  -68.184; -700.032; -566.942
755.576;  -28.658; -606.032; -576.942
755.837;  -54.606; -527.032; -695.942
756.097;  -36.304; -530.032; -564.943
756.358;  -78.777; -725.032; -770.943
756.618;  -60.875; -705.031; -641.943
756.879;  -10.198; -254.031; -349.944
757.139; -126.972;-1098.031;-1116.944
757.400;  -64.795; -538.031; -553.945
757.660;  -22.368; -365.031; -401.945
757.920;   -4.791; -266.030; -228.945
758.181;  -24.614; -468.030; -351.946
758.441;  -95.912; -870.030; -809.946
758.701;  -34.086; -308.030; -215.946
758.961;  -43.284; -220.030; -278.947
759.222;  -61.157; -574.029; -502.947
759.482;  -88.480; -683.029; -723.948
759.742;  -80.953; -706.029; -547.948
760.002;   -4.852;  -83.029; -143.948
760.262;   24.875;   50.972;  182.051
760.522;  -56.423; -498.028; -574.949
760.782;  -71.446; -738.028; -612.949
761.042;  -51.244; -618.028; -573.950
761.302;   32.158;   55.972;  -18.950
761.562;   50.784; -164.027; -154.951
761.822;   65.736; -710.027; -551.951
762.082;  -39.837;-1104.027;-1093.951
762.342;   70.640; -328.027; -403.952
762.601;   71.992; -567.027; -506.952
762.861;  318.669; -281.026; -207.952
763.121;  374.320; -406.026; -411.953
763.381; 7029.047; -499.026; -485.953
763.640; 8565.674; -139.026; -307.954
763.900;  368.501; -242.026; -203.954
764.160;   92.903; -458.025; -491.954
764.419;  -19.721; -726.025; -782.955
764.679;  -66.969; -795.025; -726.955
764.939;  -20.267; -124.025; -210.955
765.198;  -84.940; -608.025; -563.956
765.458;  -74.338; -710.024; -612.956
765.717;  -85.286; -454.024; -590.957
765.976;  -52.810; -428.024; -411.957
766.236;  -90.508; -475.024; -610.957
766.495;   14.094;  260.977;   73.042
766.755; -113.954;-1090.023; -987.958
767.014;   -8.027; -594.023; -665.958
767.273;  -64.001; -373.023; -397.959
767.533;  -54.024; -228.023; -307.959
767.792;  -31.322; -151.022; -188.960
768.051;  -62.395; -228.022; -276.960
768.310;  -85.668; -546.022; -650.960
768.569;   -4.991; -161.022;    4.039
768.828;  -30.390; -285.022; -363.961
769.088; -115.488;-1050.021; -942.961
769.347;  -83.961; -755.021; -599.962
769.606;  -89.859; -876.021; -857.962
769.865; -117.457;-1016.021;-1033.963
770.124;    1.920; -411.021; -336.963
770.383;  -53.529; -778.020; -910.963
770.641;   -0.052; -398.020; -400.964
770.900;  -62.275; -953.020; -846.964
771.159;  -46.148; -851.020; -951.964
771.418;  -18.121; -917.020; -779.965
771.677;  135.005; -224.019; -293.965
771.936;  160.982; -794.019; -865.966
772.194; 2177.909; -465.019; -437.966
772.453;12014.961; -213.019; -391.966
772.712;  842.963;  416.982;  329.033
772.970;  112.415;   32.982;   63.033
773.229;   82.766;  -22.018;  102.033
773.488;  -83.182; -814.018; -770.968
773.746;   38.595;  296.982;  335.032
774.005;   -3.228;  190.983;  -22.969
774.263;   11.824;  243.983;  177.031
774.522;  -41.424; -422.017; -548.969
774.780;  -73.473; -484.017; -417.970
775.039;  -85.746; -551.017; -531.970
775.297;  -23.969; -135.016; -351.970
775.555; -106.792; -489.016; -612.971
775.814; -116.715; -618.016; -570.971
776.072; -128.589; -749.016; -740.971
776.330;  -88.587; -630.016; -520.972
776.589; -116.260; -703.015; -721.972
776.847; -122.008; -645.015; -624.973
777.105; -172.181;-1016.015;-1032.973
777.363;  -84.154; -459.015; -454.973
777.621; -131.878; -660.015; -717.974
777.879;  -18.051;  -42.014;   32.026
778.138; -103.249; -554.014; -717.974
778.396; -107.947; -585.014; -526.975
778.654; -155.895;-1015.014; -970.975
778.912;  -65.418; -269.014; -371.976
779.170; -134.992; -880.013; -803.976
779.427; -155.640; -922.013; -897.976
779.685; -143.738; -880.013; -832.977
779.943;  -83.511; -654.013; -593.977
780.201; -149.209; -964.012; -883.978
780.459; -113.758; -651.012; -610.978
780.717;  -85.656; -440.012; -390.978
780.974; -106.804; -449.012; -490.979
781.232;  -76.852; -358.012; -338.979
781.490;  -88.625; -551.011; -472.979
781.747; -101.098; -555.011; -476.980
782.005;    7.753;  462.989;  254.020
782.263; -169.320; -542.011;-1004.981
782.520;  -81.868; -326.011; -501.981
782.778; -181.916;-1013.010;-1051.981
783.035; -167.589; -962.010; -938.982
783.293;  -69.987; -248.010; -206.982
783.550;  -55.361; -134.010; -198.982
783.808; -142.559; -764.010; -776.983
784.065; -154.407; -745.009; -874.983
784.322;  -47.205;   25.991;  -86.984
784.580; -141.253; -915.009; -771.984
784.837; -109.202; -392.009; -466.984
785.094; -137.225; -783.009; -762.985
785.352;  -74.873; -304.008; -404.985
785.609; -116.246; -934.008; -839.985
785.866;  -77.919; -345.008; -401.986
786.123;  -78.692; -639.008; -583.986
786.380; -109.741; -665.008; -604.987
786.637;  -52.614; -225.007; -380.987
786.895;  -33.437; -456.007; -543.987
787.152;  -49.885; -135.007; -267.988
787.409;  -43.983; -123.007; -225.988
787.666;  -87.157; -299.006; -378.988
787.923; -120.330; -616.006; -695.989
788.179;  -99.178; -551.006; -584.989
788.436; -103.301; -585.006; -585.990
788.693;  -31.024;  -92.006;  -87.990
788.950;   87.953; -125.005; -112.990
789.207;  183.304; -381.005; -372.991
789.464;  -36.644; -161.005; -301.991
789.720;  -24.867;  150.995;  110.009
789.977; -170.315;-1003.005; -671.992
790.234;  -35.188;   44.996;  -66.992
790.490; -148.711; -884.004;-1031.993
790.747;  -34.060;  -85.004;   22.007
791.004;  -36.583; -426.004; -348.993
791.260;  -85.031; -430.004; -560.994
791.517; -107.054; -843.003; -788.994
791.773;  -53.502; -379.003; -342.994
792.030; -108.851; -596.003; -660.995
792.286;  -97.474; -686.003; -636.995
792.543;  -23.097;  -74.002; -159.995
792.799;  -58.720; -584.002; -382.996
793.055; -164.318;-1179.002;-1210.996
793.312;  -98.491; -827.002; -816.997
793.568;  -59.240; -746.002; -599.997
793.824;    4.937; -226.001; -284.997
794.081;   17.014; -447.001; -508.998
794.337;   55.941; -664.001; -561.998
794.593; 1113.693; -319.001; -271.999
794.849; 6584.395; -746.001; -772.999
795.105;  344.346; -270.000; -261.999
795.361;    5.423; -490.000; -457.000
795.617;  -72.700; -875.000; -945.000
795.873;  -46.700; -360.000; -407.000
796.129;  -51.975; -368.000; -306.000
796.385;  -31.600; -124.000; -156.000
796.641;   56.375;  412.000;  550.000
796.897;  -77.525; -666.000; -635.000
797.153;   59.825;  453.000;  357.000
797.409;  -98.575; -785.000; -868.000
797.665;  -65.450; -625.000; -732.000
797.921;  -80.725; -775.000; -762.000
798.176;  -60.725; -744.000; -747.000
798.432;  -56.225; -824.000; -596.000
798.688;  -78.675;-1174.000;-1078.000
798.943;   99.100; -165.000; -147.000
799.199;   -1.250;-1005.000; -959.000
799.455;  247.100;  369.000;  316.000
799.710;  135.275; -813.000; -380.000
799.966;  302.425; -162.000; -160.000
800.221;  478.825; -638.000; -721.000
800.477; 9954.475; -743.000; -710.000
800.732;10115.125; -773.000; -800.000
800.988;  669.975;  205.000;  -19.000
801.243; 1834.325; -454.000; -344.000
801.498; 9243.950; -814.000; -739.000
801.754;  570.125; -289.000; -163.000
802.009;  100.550; -257.000; -335.000
802.264;  -32.500; -967.000;-1033.000
802.520;   33.150;  222.000;   -3.000
802.775;  -51.550; -524.000; -359.000
803.030;   52.250;  395.000;  356.000
803.285; -109.050; -840.000; -903.000
803.540;  -74.650; -686.000; -699.000
803.795;  -48.725; -648.000; -583.000
804.051;  -51.325; -279.000; -346.000
804.306;    4.325;  168.000;  128.000
804.561;  120.675;  451.000;  362.000
804.816;  123.550;  714.000;  861.000
805.071;   -4.625; -185.000; -280.000
805.325;  177.800; -257.000; -427.000
805.580; -112.675; -841.000; -877.000
805.835;  -21.400; -204.000; -297.000
806.090;  -80.700; -760.000; -676.000
806.345;  -23.725; -344.000; -264.000
806.600;  -33.800; -549.000; -632.000
806.854;  -36.775; -408.000; -538.000
807.109;  -19.375; -493.000; -577.000
807.364;  -11.425; -407.000; -328.000
807.618;    0.525; -415.000; -381.000
807.873;   28.375; -470.000; -494.000
808.128;   80.075; -257.000; -518.000
808.382;  101.575; -224.000; -332.000
808.637;   65.250; -440.000; -511.000
808.891;  166.775; -257.000; -180.000
809.146;  106.000; -902.000; -794.000
809.400;  244.500; -848.000; -923.000
809.654;  324.225; -779.000; -551.000
809.909;  468.000; -841.000; -927.000
810.163; 5534.200; -813.000; -651.000
810.418;16515.900; -940.000; -861.000
810.672; 1073.950; -685.000; -690.000
810.926;  709.300; -993.000; -973.000
811.180; 1374.825; -439.000; -372.000
811.434;31532.900;  240.000;  135.000
811.689;14872.200; -231.000; -365.000
811.943;  691.725; -936.000; -953.000
812.197;  341.250; -893.000; -671.000
812.451;  130.100; -379.000; -514.000
812.705;  -30.900; -809.000; -619.000
812.959;   -4.900; -263.000; -388.000
813.213;    1.150; -283.000; -209.000
813.467;   76.325;  470.000;  253.000
813.721;  -99.000; -764.000; -792.000
813.975; -116.925; -826.000; -877.000
814.229;   35.075;  430.000;  353.000
814.482;  -82.225; -517.000; -566.000
814.736; -113.275; -766.000; -744.000
814.990; -129.675; -779.000; -872.000
815.244;  -55.150; -228.000; -285.000
815.497;  -98.275; -636.000; -601.000
815.751;  -29.750; -141.000;   82.000
816.005;  -81.250; -470.000; -586.000
816.258;  -72.300; -510.000; -363.000
816.512; -113.075; -693.000; -610.000
816.766;    8.025;  121.000;  157.000
817.019;    6.425;  148.000;  149.000
817.273; -116.050;-1000.000; -802.000
817.526;  -38.225; -206.000; -173.000
817.779;  -58.700;-1049.000; -960.000
818.033;  -77.325; -693.000; -807.000
818.286; -130.675; -725.000; -792.000
818.540;  -86.875; -403.000; -403.000
818.793;  -78.800; -402.000; -489.000
819.046; -113.850; -582.000; -520.000
819.299;  -33.450; -157.000; -166.000
819.553; -120.750; -552.000; -592.000
819.806; -156.900;-1016.000; -838.000
820.059;  -65.900; -334.000; -354.000
820.312;    0.450;  152.000;  185.000
820.565;  -25.525;  110.000;  -27.000
820.818;  -61.875;  -59.000; -173.000
821.071; -166.725;-1041.000; -957.000
821.324; -105.025; -536.000; -540.000
821.577; -112.975; -457.000; -483.000
821.830;  -70.125; -270.000; -172.000
822.083; -131.500; -733.000; -288.000
822.336;  -68.025; -261.000; -167.000
822.589; -140.650; -805.000; -688.000
822.842; -137.375; -875.000; -770.000
823.094; -166.725;-1076.000;-1114.000
823.347; -133.975; -925.000; -729.000
823.600;   16.500;  402.000;  187.000
823.853;  -52.850; -311.000; -267.000
824.105;  -76.300; -331.000; -575.000
824.358; -110.625; -617.000; -716.000
824.611;   19.000;  234.000;   40.000
824.863;  -62.175; -612.000; -591.000
825.116;   40.425;  -33.000;   27.000
825.368;   64.900; -366.000; -372.000
825.621;  141.625; -186.000; -240.000
825.873;   71.600; -704.000; -737.000
826.126;  504.600; -669.000; -641.000
826.378;11166.575; -389.000; -505.000
826.630; 3264.650; -890.000; -898.000
826.883;   38.400; -754.000; -693.000
827.135;   34.625; -279.000; -270.000
827.387; -124.200; -893.000; -839.000
827.639;  -43.750;  -86.000;   32.000
827.892; -136.850; -742.000; -582.000
828.144; -149.200; -848.000; -804.000
828.396;  -49.525;  104.000;  -80.000
828.648; -106.925; -440.000; -333.000
828.900; -148.175; -702.000; -795.000
829.152; -123.650; -684.000; -683.000
829.404;  -75.775; -215.000; -267.000
829.656;  -11.500;  321.000;  214.000
829.908;  -24.175;  393.000;  229.000
830.160; -167.525;-1064.000;-1047.000
830.412;  -97.775; -481.000; -430.000
830.664; -122.775; -557.000; -665.000
830.916;  -81.200; -268.000; -206.000
831.167; -178.325;-1073.000; -951.000
831.419; -114.425; -623.000; -566.000
831.671; -155.175; -764.000; -809.000
831.923; -104.350; -311.000; -447.000
832.174;  -77.225; -273.000; -331.000
832.426; -118.750; -493.000; -582.000
832.678; -196.775;-1043.000;-1091.000
832.929; -157.950; -947.000; -935.000
833.181;  -78.975; -575.000; -677.000
833.432;  -59.675;  -59.000; -186.000
833.684;  -28.575;  112.000;  -27.000
833.935; -118.525; -610.000; -566.000
834.187; -144.900; -829.000; -823.000
834.438;  -46.225;  -58.000;  -25.000
834.689;  -61.650; -255.000; -123.000
834.941;  -66.150; -343.000; -244.000
835.192; -108.900; -590.000; -533.000
835.443; -109.775; -419.000; -506.000
835.695;  -15.725;  138.000;  -16.000
835.946;  -82.925; -608.000; -378.000
836.197; -108.825; -599.000; -622.000
836.448;  -97.325; -528.000; -395.000
836.699;  -68.075; -253.000; -341.000
836.950;  -16.900;   72.000;    7.000
837.201; -156.400;-1003.000; -987.000
837.452;  -60.725; -356.000; -170.000
837.703; -108.275; -791.000; -737.000
837.954;  -45.675; -205.000; -365.000
838.205;  -89.200;-1029.000;-1008.000
838.456;  144.475; -196.000; -282.000
838.707;   -3.500; -423.000; -519.000
838.958;   -9.500; -634.000; -647.000
839.209;  261.500;   18.000;   40.000
839.460;  102.150; -439.000; -201.000
839.710;  137.400; -135.000; -297.000
839.961;  378.550;  730.000;  612.000
840.212;  314.600; -382.000; -497.000
840.462; 1048.350; -328.000; -277.000
840.713;17123.300; -571.000; -536.000
840.964; 8154.575;  -62.000; -143.000
841.214;  490.600; -384.000; -624.000
841.465;  516.475; -214.000; -141.000
841.715;  465.175; -417.000; -380.000
841.966;  586.900; -746.000; -685.000
842.216; 7219.425; -330.000; -431.000
842.466;32062.325; -169.000; -313.000
842.717; 2151.700; -964.000; -952.000
842.967;  278.400; -635.000; -641.000
843.217;  235.950;   20.000;   28.000
843.468;   76.625; -104.000; -132.000
843.718;  -60.150; -718.000; -726.000
843.968; -103.050; -837.000; -765.000
844.218;   -2.650; -315.000; -262.000
844.469;  -54.950; -577.000; -561.000
844.719; -107.400; -537.000; -682.000
844.969;  -96.400; -550.000; -580.000
845.219; -136.675; -814.000; -862.000
845.469;  -81.450; -392.000; -342.000
845.719; -146.525; -792.000; -884.000
845.969;  -35.250;  119.000;  174.000
846.219; -113.825; -738.000; -720.000
846.469;   19.025;  464.000;  432.000
846.718;  -58.075; -115.000;   31.000
846.968; -133.825; -827.000; -827.000
847.218;  -67.425; -224.000; -371.000
847.468;   -9.650; -586.000; -555.000
847.718; -160.275; -827.000; -798.000
847.967; -135.950; -826.000; -915.000
848.217;  -78.025; -449.000; -569.000
848.467;  -63.525; -405.000; -376.000
848.716; -119.900; -708.000; -725.000
848.966;  -14.675; -372.000; -358.000
849.215;  -66.175; -428.000; -419.000
849.465;  -97.700; -785.000; -615.000
849.714; -159.350;-1132.000;-1150.000
849.964;  -76.000; -551.000; -613.000
850.213;  -42.675; -393.000; -355.000
850.463;   62.450;  137.000;  340.000
850.712;    7.650; -542.000; -567.000
850.961;   10.500; -739.000; -678.000
851.211;   99.000; -513.000; -504.000
851.460;  174.125; -635.000; -650.000
851.709;  549.700;  -25.000;   18.000
851.958; 9537.800; -912.000; -750.000
852.208;13838.600; -859.000; -879.000
852.457;  529.250; -181.000;  -13.000
852.706;   74.025; -791.000; -823.000
852.955;   20.525; -507.000; -528.000
853.204;  -66.475; -521.000; -461.000
853.453;  -84.425; -418.000; -458.000
853.702; -123.350; -660.000; -750.000
853.951; -104.250; -532.000; -520.000
854.200; -110.275; -613.000; -562.000
854.449; -131.250; -695.000; -661.000
854.698;  -99.625; -340.000; -279.000
854.946;  -70.350; -181.000; -284.000
855.195; -152.900; -843.000; -868.000
855.444;  -96.575; -395.000; -420.000
855.693; -123.700; -345.000; -432.000
855.941; -123.950; -387.000; -516.000
856.190;  -65.325; -256.000; -382.000
856.439; -134.825; -652.000; -703.000
856.687;  -72.375;  -99.000;  -72.000
856.936; -115.675; -621.000; -323.000
857.184; -176.825;-1067.000;-1020.000
857.433; -110.050; -423.000; -512.000
857.681; -156.450; -989.000; -953.000
857.930;  -90.400; -282.000; -433.000
858.178; -173.800; -856.000; -929.000
858.427; -155.375; -802.000; -781.000
858.675; -131.850; -377.000; -544.000
858.923; -111.100; -527.000; -819.000
859.172; -194.050;-1094.000;-1070.000
859.420;  -92.375; -339.000; -239.000
859.668; -139.575; -624.000; -628.000
859.916;  -32.200;  109.000;  115.000
860.164; -125.900; -699.000; -603.000
860.413;  184.925; -878.000; -696.000
860.661;  192.525; -709.000; -577.000
860.909;  -68.150; -339.000; -325.000
861.157;  -88.725; -277.000; -444.000
861.405; -137.950; -534.000; -670.000
861.653;    4.025;  310.000;  310.000
861.901;  117.925; -543.000; -613.000
862.149;  -13.000; -801.000; -824.000
862.396;  -92.000; -297.000; -187.000
862.644; -109.125; -368.000; -347.000
862.892;  -48.475;   98.000;  138.000
863.140; -114.650; -549.000; -530.000
863.388; -156.525; -815.000; -759.000
863.635; -129.275; -642.000; -601.000
863.883;   -6.075;  231.000;  190.000
864.131; -104.225; -288.000; -357.000
864.378; -136.950; -675.000; -540.000
864.626; -103.650; -347.000; -415.000
864.873; -123.025; -556.000; -505.000
865.121; -150.250; -714.000; -799.000
865.368;  -49.500; -173.000;   75.000
865.616;  -32.250;  -33.000;  -40.000
865.863;  -68.050; -462.000; -506.000
866.111; -107.350; -795.000; -824.000
866.358;   49.950; -426.000; -420.000
866.605; 2432.275;  -64.000; -804.000
866.853; 2990.875; -621.000; -537.000
867.100;  -15.400; -728.000; -775.000
867.347;  -93.900; -672.000; -611.000
867.594;  -92.575; -740.000; -714.000
867.841;   75.525;   97.000;   17.000
868.089; -154.525; -746.000; -698.000
868.336; -114.775; -477.000; -420.000
868.583; -137.125; -637.000; -741.000
868.830;  -45.200; -131.000; -170.000
869.077; -171.975; -859.000; -787.000
869.324; -137.775; -502.000; -458.000
869.571; -135.575; -398.000; -430.000
869.818; -121.325; -485.000; -439.000
870.065; -118.850; -439.000; -513.000
870.311; -129.750; -456.000; -542.000
870.558; -104.525; -332.000; -311.000
870.805;  -97.250; -320.000; -384.000
871.052; -117.100; -494.000; -369.000
871.298;  -71.100; -204.000; -131.000
871.545;  -83.025; -151.000; -185.000
871.792;  -90.850; -173.000; -222.000
872.038;  -73.500;   43.000; -126.000
872.285; -120.275; -496.000; -387.000
872.532; -114.875; -357.000; -387.000
872.778;   -2.075;  556.000;  403.000
873.025; -102.275; -384.000; -359.000
873.271;    0.275;  501.000;  578.000
873.517;  -43.200; -133.000; -209.000
873.764;  -55.000; -193.000;  -80.000
874.010;  -63.675; -143.000; -230.000
874.257;  -44.975;  123.000;   90.000
874.503; -139.875; -579.000; -479.000
874.749;  -60.800;   31.000;  275.000
874.995;  -71.800;  -80.000;  -20.000
875.242; -117.350; -540.000; -478.000
875.488; -115.950; -414.000; -439.000
875.734;  -78.775; -106.000; -234.000
875.980;  102.525; -872.000;-1032.000
876.226;  317.950; -157.000; -255.000
876.472;  -14.175;  343.000;  237.000
876.718;  -58.425;  184.000;  158.000
876.964;  -57.850;   56.000;   55.000
877.210; -140.450; -547.000; -677.000
877.456; -149.275; -630.000; -557.000
877.702; -176.250; -821.000; -832.000
877.948; -130.700; -377.000; -497.000
878.193;   -2.175;  361.000;  255.000
878.439;  -95.575; -487.000; -472.000
878.685; -102.400; -272.000; -343.000
878.931; -146.000; -618.000; -676.000
879.176;  -92.975; -201.000; -201.000
879.422; -179.625; -933.000; -820.000
879.668;   29.475;   10.000;   79.000
879.913;  116.750;   53.000;  137.000
880.159;  -64.875; -112.000;  -17.000
880.404;  -88.200; -152.000; -162.000
880.650;  -34.575;   91.000;  141.000
880.895; -168.375; -670.000; -710.000
881.141; -125.225; -454.000; -428.000
881.386; -144.200; -503.000; -658.000
881.631; -100.850; -311.000; -166.000
881.877;  -44.275;  112.000;  -13.000
882.122; -143.800; -684.000; -600.000
882.367;  -94.125; -136.000; -186.000
882.612;  -67.975;  -80.000; -176.000
882.858; -182.275; -877.000; -823.000
883.103; -109.050; -297.000; -267.000
883.348; -153.575; -759.000; -852.000
883.593; -139.950; -677.000; -602.000
883.838;  -70.900; -311.000;  -24.000
884.083;   22.150;  353.000;  288.000
884.328; -105.100; -564.000; -545.000
884.573;  -64.900; -196.000; -143.000
884.818;  127.500; -694.000; -531.000
885.063;  152.075; -348.000; -315.000
885.308; -112.800; -475.000; -398.000
885.553;   -3.500;  245.000;  325.000
885.797; -134.050; -545.000; -615.000
886.042;  -64.725;    8.000;   58.000
886.287;  -95.575; -253.000; -211.000
886.532;  -54.225;   26.000;  204.000
886.776; -115.300; -407.000; -525.000
887.021; -155.575; -621.000; -574.000
887.265; -154.825; -685.000; -689.000
887.510; -151.050; -557.000; -496.000
887.755; -104.950; -194.000; -164.000
887.999; -138.000; -552.000; -575.000
888.244;  -56.850;  -58.000;  161.000
888.488;  -28.375;  371.000;  393.000
888.732; -127.225; -368.000; -520.000
888.977; -141.375; -622.000; -567.000
889.221; -157.475; -683.000; -659.000
889.465; -125.575; -422.000; -566.000
889.710;  -82.725;  -56.000; -299.000
889.954;  -22.000;  579.000;  467.000
890.198; -143.225; -584.000; -707.000
890.442; -157.375; -716.000; -712.000
890.687; -167.675; -800.000; -753.000
890.931; -107.800; -273.000; -210.000
891.175; -145.300; -502.000; -500.000
891.419;  -77.775; -105.000; -110.000
891.663;  -91.550; -239.000; -112.000
891.907; -176.525; -801.000; -545.000
892.151; -179.300; -920.000; -815.000
892.395; -113.500; -274.000; -387.000
892.638;  -35.675;  408.000;  291.000
892.882; -181.050; -780.000; -867.000
893.126;    3.900;  758.000;  558.000
893.370; -100.375; -167.000; -168.000
893.614; -154.975; -714.000; -715.000
893.857; -122.625; -183.000; -197.000
894.101; -146.950; -527.000; -631.000
894.345;  -67.475;  300.000;  150.000
894.588;   14.925;  569.000;  380.000
894.832;  -85.300; -178.000;  -84.000
895.075;  -96.425;   15.000;  -92.000
895.319; -125.725; -552.000; -420.000
895.563; -116.425; -413.000; -353.000
895.806; -145.850; -628.000; -741.000
896.049;  -76.800; -576.000; -368.000
896.293;   68.275;  527.000;  405.000
896.536;  -92.600; -465.000; -468.000
896.779;  -75.500; -149.000;   -1.000
897.023; -157.975; -751.000; -714.000
897.266;  -30.025;  325.000;  269.000
897.509; -195.100; -900.000; -901.000
897.752;  -53.350;  149.000;  171.000
897.996; -197.725; -972.000; -864.000
898.239;  -60.700;  168.000;  102.000
898.482; -122.875; -431.000; -453.000
898.725;  -49.750;  101.000;   53.000
898.968; -162.350; -609.000; -744.000
899.211; -115.025; -513.000; -361.000
899.454; -143.250; -633.000; -539.000
899.697;  -74.200;   90.000;  -43.000
899.940; -159.575; -761.000; -757.000
900.182; -117.000; -335.000; -405.000
900.425;  -98.225; -150.000; -298.000
900.668;  -30.700;  491.000;  350.000
900.911; -119.400; -292.000; -345.000
901.154;  -60.175;  141.000;   -3.000
901.396; -139.500; -407.000; -412.000
901.639; -131.650; -430.000; -496.000
901.882; -185.175; -790.000; -809.000
902.124;  -94.050;  -29.000; -143.000
902.367; -130.875; -315.000; -361.000
902.609; -136.475; -476.000; -453.000
902.852;  -93.075; -108.000; -260.000
903.094; -128.175; -458.000; -337.000
903.337;  -57.825;  -26.000;   53.000
903.579; -110.100; -228.000; -441.000
903.821; -151.850; -597.000; -744.000
904.064;  -69.225;   85.000;  127.000
904.306; -113.325; -126.000; -166.000
904.548; -109.450; -152.000; -366.000
904.790; -107.025; -195.000; -340.000
905.033; -150.600; -625.000; -577.000
905.275; -141.125; -513.000; -524.000
905.517;   15.000;  468.000;  256.000
905.759;  -77.000; -667.000; -761.000
906.001; -106.575; -322.000; -369.000
906.243;  -74.325; -162.000; -224.000
906.485;   64.100; -265.000; -207.000
906.727;   89.925; -499.000; -542.000
906.969;  -43.900;  -30.000; -135.000
907.211;   79.525; -316.000; -382.000
907.453;  209.950; -188.000; -237.000
907.695;  -17.800; -158.000; -385.000
907.936;   33.300;  818.000;  706.000
908.178;  -78.150;   92.000; -135.000
908.420;  -81.350; -111.000; -162.000
908.662; -135.275; -633.000; -682.000
908.903;  -97.825; -208.000; -123.000
909.145;  -76.300; -240.000; -305.000
909.386;    0.050;  315.000;  280.000
909.628;   35.150;  363.000;  397.000
909.870;   -7.550;   29.000;  264.000
910.111; -107.475; -809.000; -949.000
910.353;    5.125; -123.000; -161.000
910.594;   -2.050; -574.000; -606.000
910.835;   66.525; -265.000; -326.000
911.077;  144.125; -503.000; -604.000
911.318;  282.950; -505.000; -471.000
911.559;  452.400; -577.000; -880.000
911.801; 1301.600; -284.000; -280.000
912.042; 9663.325;  -50.000; -159.000
912.283;27789.125;  404.000;  371.000
912.524; 4916.200; -396.000; -457.000
912.765;  536.375; -193.000;   79.000
913.006;  256.125; -307.000; -338.000
913.247;   57.325; -270.000; -290.000
913.488;  -16.575;  -43.000;   30.000
913.729;  -95.050; -373.000; -373.000
913.970;  -66.000;  -96.000; -292.000
914.211;  -74.025; -160.000; -198.000
914.452;  -81.275; -118.000;  -11.000
914.693;    4.875;  510.000;  592.000
914.934;   -2.150;  510.000;  440.000
915.175;  -64.900;   53.000;  -95.000
915.415;  -85.900; -137.000;   27.000
915.656;  -74.625;  -28.000;  192.000
915.897; -100.575; -252.000;  -82.000
916.137;  -75.850;   74.000;   -9.000
916.378; -153.575; -573.000; -517.000
916.619;  -99.900; -159.000;  -63.000
916.859;  -30.100;  303.000;  330.000
917.100;  117.325; 1655.000; 1070.000
917.340;   37.350;  930.000;  728.000
917.581;   46.025;  965.000;  789.000
917.821;  -45.825; -171.000;  143.000
918.061;    0.350; -199.000;  -72.000
918.302;  -60.875; -152.000; -211.000
918.542;  -34.225;  -22.000;    3.000
918.782;   23.125;  369.000;  377.000
919.023;  114.275;  360.000;  427.000
919.263; 1616.800; 8131.000;  202.000
919.503; 1079.500; -137.000;  -54.000
919.743;  558.850;  390.000;  266.000
919.983;  244.375; -134.000;  -26.000
920.223;   79.300;  135.000;   14.000
920.463;  156.025;  631.000;  554.000
920.703;  135.700;   84.000;   39.000
920.943;  178.775; -110.000;   90.000
921.183;  253.800; -414.000; -405.000
921.423;  542.350;  307.000;  546.000
921.663;  761.525; -174.000; -257.000
921.903; 1615.325;  237.000;  173.000
922.143; 8586.125;  372.000;  389.000
922.383;35075.200;  158.000;  115.000
922.622;13695.275; -120.000;  -15.000
922.862; 1412.875;  796.000;  785.000
923.102;  534.275;  -51.000;   33.000
923.341;  199.300;   59.000;   74.000
923.581;   87.025;  450.000;  360.000
923.821;   20.050;  301.000;  398.000
924.060;   -6.550;  351.000;  193.000
924.300;  -68.300;  -16.000; -128.000
924.539;  -11.000;  584.000;  473.000
924.779;   21.275;  812.000;  597.000
925.018;  -52.500;  247.000;  353.000
925.257;  -14.375;  595.000;  666.000
925.497;  -53.625;  447.000;  412.000
925.736;  -76.825;  -35.000;  102.000
925.975;  -15.900;  687.000;  669.000
926.214;   26.525;  907.000;  850.000
926.454;    7.300;  706.000;  757.000
926.693;  -46.450;  419.000;  543.000
926.932;   39.825; 1021.000;  825.000
927.171;   70.475; 1107.000; 1044.000
927.410;   56.000; 1144.000;  967.000
927.649;   26.975;  924.000;  742.000
927.888;  -16.925;  590.000;  564.000
928.127;  -21.200;  680.000;  678.000
928.366;   29.000;  842.000;  826.000
928.605;   30.225;  831.000;  737.000
928.844;  203.325; 1451.000; 1393.000
929.083;  564.975;  770.000;  613.000
929.321;  340.475; 1335.000; 1359.000
929.560;   69.125; 1158.000; 1122.000
929.799;  -33.075;  574.000;  475.000
930.038;   77.675; 1025.000; 1394.000
930.276;  -54.475;  334.000;  397.000
930.515;   -7.675;  827.000;  681.000
930.753;  -21.925;  614.000;  589.000
930.992;  -19.325;  664.000;  717.000
931.230;   -5.400;  847.000;  847.000
931.469;  169.250; 2162.000;  892.000
931.707;   49.550;  840.000;  751.000
931.946;   55.150; 1278.000; 1344.000
932.184;   40.775; 1437.000; 1175.000
932.423;   43.925; 1265.000;  963.000
932.661;   81.125; 1296.000; 1428.000
932.899;   27.300;  987.000;  821.000
933.137;   16.225;  754.000;  564.000
933.376;  128.250; 1664.000; 1335.000
933.614;  146.700; 1759.000; 1196.000
933.852;   58.800; 1357.000; 1171.000
934.090;  128.200; 1722.000; 1747.000
934.328;  112.075; 1252.000; 1457.000
934.566;   89.825; 1431.000; 1110.000
934.804;  153.450; 1263.000; 1309.000
935.042;  500.125; 1861.000; 1850.000
935.280; 2036.650; 2088.000; 2063.000
935.518; 2149.075; 2113.000; 2007.000
935.756;  446.250; 2481.000; 2316.000
935.994;  161.675; 1808.000; 1751.000
936.231;  343.900; 2890.000; 2950.000
936.469;  173.700; 2367.000; 2378.000
936.707;  171.325; 2220.000; 2167.000
936.945;  224.250; 2825.000; 2882.000
937.182;  189.500; 2679.000; 2741.000
937.420;  284.150; 3602.000; 3031.000
937.657;  398.625; 3365.000; 3478.000
937.895;  343.250; 3331.000; 3488.000
938.133;  304.625; 3540.000; 3528.000
938.370;  338.825; 3896.000; 4191.000
938.607;  410.675; 4488.000; 4205.000
938.845;  532.475; 5587.000; 5549.000
939.082;  485.925; 5387.000; 5177.000
939.320;  530.425; 5799.000; 5728.000
939.557;  637.425; 6549.000; 6491.000
939.794;  708.200; 7285.000; 7097.000
940.031;  876.900; 8421.000; 8368.000
940.269; 1103.725; 9552.000; 9107.000
940.506; 1109.575;10901.000;10507.000

