
Integration time [ms]: 100.000
Averaging Nr. [scans]: 40
Smoothing Nr. [pixels]: 0
Data measured with spectrometer [name]: 2101013U2
Wave   ;Sample   ;Dark     ;Reference
[nm]   ;[counts] ;[counts] ;[counts] 

394.013;   40.228; -450.257; -315.536
394.305;  184.351; -461.258; -419.536
394.596; 1084.848; -676.269; -527.514
394.887; 2804.290; -796.268; -654.518
395.178; 1058.495;  145.736;   11.476
395.470;   76.481; -210.263; -356.526
395.761;  169.005;  305.734;  394.479
396.052;  228.298; -545.284; -306.489
396.343;  219.718; -557.276; -454.503
396.634;   89.837; -200.279; -290.497
396.926;   92.862; -618.268; -565.517
397.217;   94.473;   11.725;  -17.504
397.508;   38.763; -366.273; -154.507
397.799;   36.812; -555.279; -571.497
398.090;   -7.569; -973.280; -902.495
398.381;  100.949;   11.708;  -11.473
398.672;  -10.400; -585.292; -742.473
398.963;   37.593; -348.279; -373.498
399.254;   86.434;   54.709; -209.475
399.545;  -32.324;-1017.266; -883.520
399.836;   48.482; -407.277; -343.501
400.127;   51.625; -205.295; -209.468
400.418;   47.883; -423.274; -392.506
400.709;   50.868; -359.281; -333.493
401.000;   47.413; -268.291; -309.476
401.290;  103.337;  225.698;  115.545
401.581;   59.831; -166.286; -228.485
401.872;   28.697; -542.298; -486.462
402.163;   42.743; -313.296; -252.467
402.454;   86.160; -123.291; -163.475
402.744;   63.434; -844.297; -813.465
403.035;  381.715; -226.293;  -86.471
403.326;  506.303; -366.292; -384.474
403.617;  343.967;  204.701;  165.539
403.907;  246.229; -593.283; -679.490
404.198; 2444.991; -545.307; -599.446
404.489; 6326.209; -618.283; -588.491
404.779; 2070.640; -618.302; -660.456
405.070;  222.319;  -67.304; -174.451
405.360;  343.917; -259.293; -238.472
405.651;  354.976;  125.699;   98.542
405.942;  151.426;  209.714;  127.516
406.232;  212.566; -432.285; -413.487
406.523;  417.035;  641.706;  758.530
406.813;   71.204; -579.286; -644.484
407.104;  307.198;  261.708;  144.527
407.394;  134.818; -604.299; -591.462
407.685;  144.390;  336.715;  222.513
407.975;   59.358; -400.283; -382.490
408.265;  100.899; -134.289; -190.478
408.556;   52.381; -472.291; -459.475
408.846;  159.236;  474.706;  429.530
409.137;   69.382;   -1.288; -216.480
409.427;   43.841; -193.285; -271.487
409.717;   23.591; -776.273; -692.508
410.007;  139.834;    4.715; -170.486
410.298;   87.728; -360.295; -342.469
410.588;   64.213; -495.285; -510.486
410.878;   15.718; -792.287; -873.482
411.168;  103.750; -481.298; -478.463
411.459;  105.452; -295.283; -242.489
411.749;   54.180; -609.292; -507.474
412.039;   55.381; -755.289; -386.480
412.329;  202.300;   40.722;  132.501
412.619;  199.204;  -62.286; -148.485
412.909;  358.952;  639.711;  594.521
413.199;  299.606; -130.280; -251.495
413.490;  377.892;  521.710;  352.523
413.780;  132.810;-1013.279; -913.496
414.070;  319.694;  -46.276;  235.497
414.360;  349.371; -729.278; -666.498
414.650;  409.164; -726.288; -688.482
414.940;  526.635; -538.280; -441.496
415.230;  941.586;   50.712;   74.519
415.520; 6163.047;  155.730;   66.486
415.809;24225.718; -305.281; -125.493
416.099;18868.034; -388.277; -229.501
416.389; 5292.306;  435.726;  236.494
416.679; 3134.060;   91.738;   85.473
416.969;  535.798; -527.287; -503.483
417.259;  460.787;  341.721;  171.503
417.549;  698.767;  522.718;  318.508
417.838; 1685.614; -205.268; -147.518
418.128; 5620.348;  650.710;  492.522
418.418; 4726.248; -491.272; -579.509
418.708; 3175.531;    9.726;  -48.506
418.997;11939.702; -474.275; -480.505
419.287;12468.963; -733.273; -790.507
419.577;11869.227; -160.283; -123.489
419.866;39177.182; -588.277; -498.501
420.156;39795.193; -242.270;  -55.513
420.446; 7138.877; -112.263;  -26.526
420.735;  807.187; -376.271; -446.512
421.025;  821.320; 1830.722;  315.502
421.314;  601.385; -203.271; -226.512
421.604; 1190.032;   89.732;  233.484
421.893;  680.282; -705.271; -602.511
422.183;  221.778; -487.263; -461.526
422.472;  352.008;  -36.271; -107.511
422.762;  425.407; -416.266; -379.521
423.051;  218.595; -916.276; -916.503
423.341;  291.339; -491.273; -439.507
423.630;  379.638; -121.265;   15.477
423.919;  367.401;   58.725;   49.495
424.209;  363.883;  -31.263;   56.473
424.498;  505.487;   68.732;  161.483
424.787; 1089.493; -535.267; -601.518
425.077; 3315.337;   34.735;   29.478
425.366; 4456.714; -734.262; -744.528
425.655;10028.315;  639.727;  259.493
425.945;22605.492; -313.247; -268.554
426.234;12543.811;  117.741;  300.467
426.523; 5136.866;  -86.259; -350.534
426.812; 7037.928;  107.734;  159.480
427.101;10455.278; -127.269; -323.515
427.390;13031.872;  -55.270;  -86.514
427.680; 2740.261; -624.257; -411.538
427.969;  462.972; -330.255; -301.540
428.258;  306.328; -385.257; -477.536
428.547;  508.877;  449.728;  397.490
428.836; 1080.063; -421.253; -398.543
429.125; 1551.043; -199.259;  -72.534
429.414;  748.261; -330.251; -294.548
429.703; 3176.686; -231.251; -213.548
429.992; 9510.914; -938.250; -828.549
430.281; 6257.171; -397.264; -331.524
430.570;  565.376;  -21.252;   32.454
430.859;  501.891;  279.741;  352.466
431.148;  418.988;  636.752;  631.446
431.437;  280.451;  391.748;  367.454
431.725;  132.604; -544.257; -481.536
432.014;  135.095; -845.253; -756.545
432.303;  361.038; -149.239; -105.569
432.592;  564.852; -460.263; -178.525
432.881; 1032.689; -601.248; -437.554
433.169; 6351.648; -343.255;  -61.540
433.458;12950.822;  445.765;  540.424
433.747; 5374.994; -397.261; -289.529
434.036;  838.864; -275.242; -280.564
434.324; 2060.926; -395.249; -379.551
434.613; 3681.908;   40.757;  159.437
434.902; 1208.379;  333.760;  439.433
435.190;  451.162;   75.761;  295.431
435.479;  254.615;  -52.245;   83.441
435.767;   93.248; -411.244; -427.561
436.056;  199.760; -340.242; -294.563
436.345;  362.781; -372.240; -223.568
436.633;  372.122;   60.750;  383.450
436.922;  237.533;  208.760;  414.432
437.210;  465.912; -194.236;    1.426
437.499; 1471.645; -583.235; -432.576
437.787; 1639.487; -339.236;  -10.574
438.075;  433.443;   56.761;  162.430
438.364;  591.445;  -44.238;  250.429
438.652;  347.425; -286.226; -138.592
438.941;  124.614;    3.770;  269.415
439.229;   -7.327; -665.252; -466.545
439.517;   31.179; -160.234;  -85.577
439.806;  -10.160; -501.225; -290.595
440.094;  155.761;  377.766;  650.421
440.382;  137.190; -653.233; -302.580
440.670;  151.395; -361.235; -285.576
440.959;   21.033; -347.223; -170.599
441.247;   61.925; -151.229; -109.587
441.535;   79.127; -266.235;   31.423
441.823;   15.208; -497.234; -305.578
442.111;  155.629;  173.771;  327.412
442.400;  421.064; -628.245; -335.559
442.688; 1125.911; -111.234; -620.579
442.976;  778.195; -786.213; -450.617
443.264;   59.572; -324.224; -364.597
443.552;   85.301; -258.226;   51.408
443.840;  144.176;  602.765;  876.423
444.128;  100.864;  265.767;  269.420
444.416;  -17.618; -694.228; -312.588
444.704;    6.837; -465.219;  -92.605
444.992;   56.854;   -0.226;  240.407
445.280;   36.465; -517.230;  -94.585
445.568;   17.924; -694.212; -396.618
445.856;  284.721; -174.221;  357.398
446.143;  623.433;  -54.220;   -7.604
446.431;  516.011;  -25.228;  625.411
446.719;  202.831;  489.783;  675.391
447.007;  175.809;  481.769;  705.416
447.295;  172.155;  597.777;  871.402
447.583;   70.723; -464.229;  -34.587
447.870;  121.918; -434.221; -202.601
448.158;  354.938; -104.230;  129.415
448.446;  246.009; -800.219; -338.604
448.733;  157.448;   13.776;  269.403
449.021;  231.323;   60.788;  341.382
449.309;  174.063; -296.210;  208.379
449.596;  207.153;  128.783;   59.392
449.884;  155.112; -571.222; -325.600
450.172;  139.466; -756.227; -406.590
450.459;  462.678;  645.786;  780.387
450.747; 2454.026; -411.218; -147.608
451.034; 7966.112;  493.772;  889.411
451.322; 6515.631; -413.214; -170.614
451.609;  542.975;  292.777;  508.403
451.897;  590.376; -550.203; -183.634
452.184; 1837.605; -622.223; -400.598
452.472; 1736.834;   97.792;  269.375
452.759;  332.835;  512.781;  864.395
453.047;  103.246; -407.212; -125.617
453.334;   45.793; -732.219; -216.606
453.621;   60.609; -438.214; -161.615
453.909;  105.493;   13.796;  384.368
454.196;   90.163; -299.199; -123.641
454.483;  200.814;  317.798;  540.364
454.771;  101.862; -215.208;  196.374
455.058;   42.616; -316.207;  102.374
455.345;  121.118;   71.807;  344.347
455.632;   85.344; -128.207;  235.373
455.919;   46.560;  -82.196;  182.354
456.207;  -58.983; -774.198; -450.642
456.494;  -20.124; -475.200;  -66.639
456.781;   -0.391; -399.202; -198.635
457.068;   38.300; -253.206;  -29.628
457.355;  -10.374; -698.206; -401.629
457.642;  -16.768; -552.205; -290.630
457.929;   -3.516; -778.194; -417.651
458.216;   52.671; -575.212; -354.617
458.503;  243.339; -173.193;  -19.652
458.790;  239.335; -864.208; -630.625
459.077;  259.814;  -77.202;  110.364
459.364;  811.977; -350.195; -210.649
459.651; 1730.873;  -46.206;  220.372
459.938;  784.626; -864.209; -665.623
460.225;  143.042;  132.799;  276.363
460.512;  -45.443; -836.197; -688.645
460.799;  103.425;  -32.218;  320.392
461.086;   53.630; -370.200; -251.640
461.372;   17.318; -509.198; -279.642
461.659;   77.237; -165.196;  108.354
461.946;   63.862; -445.193;  -54.651
462.233;  228.528;  842.800;  888.361
462.519;  337.825; -814.201; -464.639
462.806;  994.983; -768.197; -497.645
463.093;  887.308; -445.191;  -66.656
463.380;  -28.651; -920.186; -824.664
463.666;   47.260; -259.197;  -18.646
463.953;   91.222; -406.195; -243.648
464.239;  199.947; -173.195;  -77.648
464.526;  377.332;  413.806;  743.350
464.813;  320.519; -565.190; -304.658
465.099;  334.663;  606.807;  607.348
465.386;  309.992;  903.807;  921.348
465.672;    5.508; -694.197; -522.645
465.959;   -0.838; -598.188; -520.662
466.245;    1.517; -468.193; -359.652
466.532;   84.745; -109.195;   63.352
466.818;   47.748; -357.186; -216.664
467.104;  -24.087; -488.182; -415.672
467.391;  -18.204; -628.189; -459.658
467.677;   22.227; -289.186;    9.335
467.964;    4.053; -682.189; -471.660
468.250;   51.880; -331.186; -160.665
468.536;   78.447;   90.811;  180.341
468.822;  -35.158; -821.184; -574.668
469.109;  144.519;  351.827;  471.311
469.395;  190.602;  729.808;  787.346
469.681;  188.225;   46.811;  156.341
469.967; 1283.555; -699.188; -382.660
470.254; 2744.238; -494.188; -306.662
470.540; 1795.285; -601.196; -476.646
470.826;  264.749; -488.181; -397.675
471.112;  321.370;  288.816;  113.331
471.398;   85.075; -253.183;  -58.670
471.684;   22.128; -626.177; -447.680
471.970;  -10.847; -918.180; -981.675
472.256;   31.851; -521.192; -441.654
472.542;    0.105; -499.171; -434.691
472.828;   -1.191; -743.182; -607.672
473.114;   33.898; -380.166; -283.700
473.400;   -0.656; -504.175; -293.684
473.686;   22.629; -452.166; -400.701
473.972;   51.984; -230.174; -131.687
474.258;  -51.131; -925.173; -843.689
474.544;  215.019; -183.178;   -2.679
474.830;  326.446;  -65.175;   45.316
475.116;  513.571; -123.190; -196.658
475.401;  711.231; -558.180; -467.676
475.687;  223.630; -725.180; -718.676
475.973;   -5.983; -673.181; -770.673
476.259;  242.773;  736.825;  764.315
476.544;  358.036; -539.176; -437.682
476.830;  861.201; -398.172; -322.690
477.116;  771.759; -430.177; -336.682
477.401;  133.405;  346.820;  358.324
477.687;   -9.481; -289.175; -405.684
477.973;   46.196;   21.819;   28.326
478.258;  -14.650; -448.163; -348.706
478.544;   54.660;   21.815;   61.334
478.829;  -60.390; -818.171; -738.692
479.115;  -39.250; -749.172; -651.690
479.401;  -24.171; -444.174; -449.686
479.686;   36.429; -253.180;  -74.676
479.972;  -28.451; -886.178; -776.680
480.257;   25.024; -258.166;  -65.700
480.542;   -2.161; -614.170; -469.693
480.828;  232.092; 1288.824; 1392.317
481.113;  -29.585; -464.176; -426.683
481.399;   -1.177; -236.161; -202.711
481.684;  -50.701; -620.166; -462.700
481.969;   27.312; -158.159;  -73.713
482.255;   -4.225; -439.169; -285.695
482.540;  -10.425; -569.178; -441.680
482.825;   13.419; -395.187; -404.663
483.110;   89.203;  -85.169; -105.696
483.396;  195.158; -840.157; -652.718
483.681;  515.259;  543.826;  730.313
483.966;  161.431; -696.160; -700.712
484.251;    0.083; -404.174; -310.687
484.536;    6.634; -356.165; -378.703
484.822;    5.686; -205.173; -218.687
485.107;  -32.729; -599.152; -502.726
485.392;  121.515;  662.836;  541.296
485.677;   70.638;  354.832;  163.302
485.962;  117.956;  160.843;  270.283
486.247;   82.607;  -14.162;   -8.707
486.532;   47.150; -178.166; -325.701
486.817;  146.893;  381.839;  431.291
487.102;  106.554; -453.154; -514.722
487.387;  702.335; -637.156; -652.718
487.672; 1233.795; -154.164;  -38.705
487.957;  778.600; -394.160; -286.711
488.241;  205.613; -290.150; -314.729
488.526;  770.622; -280.152; -148.726
488.811; 1252.352; -881.177; -818.680
489.096;  918.582; -666.154; -702.723
489.381;  505.619;    3.847;  162.275
489.666;  392.973; -428.161; -510.710
489.950;  173.860;  558.846;  627.277
490.235;  -36.392; -480.151; -458.728
490.520;  -34.403; -756.161; -723.710
490.804;  -53.988; -827.156; -736.719
491.089;   11.953; -469.149; -299.732
491.374;   29.994; -132.164;  -75.704
491.658;  -12.385; -817.147; -717.735
491.943;  130.202; -657.152; -609.727
492.227;  227.050; -178.155;  -38.721
492.512;   47.580; -294.157; -341.717
492.797;  -68.128; -713.149; -716.731
493.081;  -64.583; -588.147; -598.735
493.366;  -38.652; -751.161; -635.711
493.650;  185.595;  831.859;  917.254
493.935;   31.864; -648.147; -447.734
494.219;  -38.468; -778.142; -687.743
494.503;  -46.158; -585.150; -487.730
494.788;   41.072;   46.842;   74.285
495.072;  101.014;  184.850;  434.271
495.356;  173.281; -463.148; -343.733
495.641;  444.149; -812.146; -736.736
495.925;  419.992; -976.156; -903.719
496.209;   35.153; -599.149; -451.732
496.494;  -46.292; -763.142; -544.744
496.778;   -0.346; -364.154; -360.722
497.062;  -76.609; -819.156; -627.719
497.346;  -20.649; -869.160; -640.711
497.631;  150.110;  580.852;  560.266
497.915;   77.034;  -64.145;  175.261
498.199;   21.233; -341.157; -277.718
498.483;   28.771; -562.152; -508.725
498.767;  183.515;  301.850;  300.271
499.051;  194.875; -126.149; -100.732
499.335;   17.174; -693.149; -739.731
499.619;  -28.004; -381.129; -423.767
499.903;    3.274; -272.155;  -65.721
500.187;   14.136; -588.153; -316.724
500.471;    9.976; -796.152; -595.727
500.755;   94.047;   62.839;  -96.710
501.039;   11.274; -270.155; -357.721
501.323;   76.697;  -21.141;  264.254
501.607;   16.625; -447.163; -503.706
501.891;  -15.616; -607.156; -512.718
502.174;  -39.004; -726.144; -585.741
502.458;   66.130;   89.849;  370.273
502.742;   32.296; -180.138; -191.751
503.026;  116.589; -412.147; -254.734
503.310;  198.035; -437.159; -375.713
503.593;  138.790; -464.147; -325.735
503.877;  108.811; -232.133; -156.760
504.161;  162.639;    2.847;  -50.724
504.444;  112.099; -841.158; -710.716
504.728;  459.993; -487.164; -522.704
505.012;  735.687; -257.150;  -76.729
505.295;  535.148; -417.161; -212.711
505.579;  558.041; -256.156; -496.719
505.862;  782.356; -555.145; -333.738
506.146;  790.388; -681.159; -758.714
506.429;  423.538;  568.841;  461.286
506.713;   72.984; -732.151; -667.728
506.996;  343.904;   90.846;  295.278
507.280;  350.938; -633.165; -474.703
507.563;  254.547; -469.155; -261.721
507.847;  111.637; -423.153; -112.724
508.130;   93.499; -665.161; -456.711
508.413;  129.895; -758.167; -577.700
508.697;  256.070; -151.167;   12.300
508.980;  155.388; -422.153; -312.724
509.263;    2.544; -466.155; -450.720
509.547;   17.737; -124.150;   82.271
509.830;   46.901; -172.160;  140.289
510.113;   74.266;  128.844;  298.281
510.396;   18.144; -530.152; -300.725
510.680;  108.907; -818.145; -812.738
510.963;  492.833;  184.846;  180.277
511.246;  401.994; -493.150; -357.730
511.529;  254.137; -482.145;  -83.739
511.812;  387.732; -250.134;   10.241
512.095;  279.731; -740.151; -396.728
512.378;   63.269; -317.147; -245.736
512.661;   33.353; -703.137; -623.753
512.944;   17.710; -750.142; -637.744
513.227;   66.751; -170.137; -171.752
513.510;   16.220; -479.144; -671.741
513.793;   14.251; -485.140; -435.747
514.076;  126.441;  -43.127;  -39.771
514.359;  111.454; -294.149; -135.732
514.642;   83.487; -442.142; -567.744
514.925;  795.250;  581.860;  561.253
515.208; 1041.579; -498.134; -443.758
515.491;  707.217; -276.133; -182.761
515.773;  397.299; -410.143; -337.742
516.056; 2215.960;  249.864;  409.246
516.339; 2939.464; -754.136; -652.755
516.622; 1852.792; -518.150; -488.730
516.904; 1064.856;  882.857;  975.257
517.187;  470.024; -730.138; -523.752
517.470;  372.255; -568.143; -510.743
517.752;  465.066; -624.136; -470.756
518.035;  338.687; -708.139; -725.749
518.318;  376.839; -799.136; -744.755
518.600; 2554.921; -300.132; -325.762
518.883; 3548.087;  310.858;   88.256
519.165; 1675.167; -585.138; -426.751
519.448;  371.971;  -61.132;  -19.762
519.730;  181.549; -573.126; -415.773
520.013;  279.089;  588.867;  664.240
520.295;  683.859;  -94.134;  -15.759
520.578; 1529.959; -335.131; -305.764
520.860; 1738.421; -254.132;   56.238
521.143;  929.718; -763.135; -584.756
521.425;  461.287; -251.125; -279.775
521.707;  720.817; -622.127; -380.771
521.990; 1858.192; -199.127;  167.229
522.272; 2125.353; -116.140;   -4.748
522.554;  921.200; -237.143; -157.742
522.836;  334.607;  -24.134;   99.241
523.119;  205.787; -496.148; -189.734
523.401;  141.315; -448.130; -314.766
523.683;   85.679; -865.137; -693.753
523.965;  296.572;  408.862;  260.248
524.247;  284.983;   54.878;  170.220
524.529;  213.534; -451.134; -367.759
524.812;  381.317;   -3.130;  191.234
525.094;  913.796; -773.138; -631.751
525.376; 1417.196; -143.124;   78.223
525.658;  858.786; -441.136; -339.754
525.940;   28.305; -805.131; -671.764
526.222;   24.464; -188.136;  -88.755
526.504;   91.078; -190.131;   32.237
526.786;  133.861; -960.133; -647.760
527.068;  262.026; -124.123;  -67.778
527.349;   84.857; -865.137; -774.754
527.631;  117.095; -137.132;   22.238
527.913;  148.416; -664.127; -450.771
528.195;  174.580; -761.125; -639.774
528.477;  265.804;  -93.134;  -30.758
528.759;  145.617; -648.130; -522.766
529.040;   68.225; -569.123; -293.778
529.322;   44.982; -235.125;  -10.774
529.604;  124.594;  -47.130;   93.233
529.886;  108.424; -546.126; -302.773
530.167;  105.936;  232.870;  192.235
530.449;   42.494;    1.853;   63.265
530.731;   26.482; -572.122; -459.779
531.012;   71.203; -513.120; -216.784
531.294;   68.766; -118.116;  -43.792
531.575;  164.912;  290.875;  538.225
531.857;   59.874; -548.135; -266.757
532.138;   92.795; -113.141;   40.254
532.420;  168.620;  294.865;  403.244
532.701;  185.264; -722.133; -751.760
532.983;  291.092;  232.867;  182.239
533.264;   90.922; -243.126;  175.228
533.546;  -34.136; -491.136; -508.755
533.827;   32.885;  173.867;   -1.759
534.109;   38.324; -352.135;  -80.757
534.390;   62.800; -725.132; -582.762
534.671;  253.620; -270.135;  -82.756
534.953;  146.278; -751.123; -611.779
535.234;   20.027; -426.117; -255.789
535.515;  -71.064; -891.119; -735.785
535.796;  -13.263; -431.128; -193.770
536.078; -125.630;-1050.124; -904.777
536.359;    9.403;  -22.123;    3.221
536.640;  -24.069; -480.125; -197.774
536.921;  149.175;  225.871;  143.232
537.202;  375.593;  -87.138;  -16.751
537.483;  491.283;  251.869;  377.236
537.764;  177.836;   17.870;   98.235
538.045;  -44.947; -543.134; -371.758
538.326;  -40.949; -596.129; -447.768
538.607;   22.568; -686.127; -476.771
538.888;  166.394;   98.879;    5.218
539.169;  192.238; -704.122; -535.781
539.450;  336.274;  236.871;   16.233
539.731;  216.398; -361.121; -182.783
540.012;  126.228;  199.880;  412.216
540.293;   92.315;   82.876;  158.224
540.574;  -10.363; -895.113; -717.796
540.855;  420.421;  435.879;  377.218
541.136;  507.961;   47.878;  139.220
541.416;  279.393; -161.130; -220.766
541.697;  210.104; -274.131; -170.763
541.978; 1110.697; -270.135; -315.757
542.259; 1380.517; -211.127; -236.771
542.539;  672.060; -191.116; -186.790
542.820;  177.961;  461.875;  480.225
543.101;  115.059;  -52.145;  -77.738
543.381;   27.592; -638.127; -591.771
543.662;  273.065;  159.873; -254.771
543.942;  595.488; -751.127; -830.770
544.223; 1103.637;  193.878;  161.219
544.504;  717.445; -275.124; -182.777
544.784;  622.373; -592.126; -408.773
545.065; 1676.589;  104.884; -254.791
545.345; 2047.511;  227.881;   14.215
545.626; 1348.461;  -14.113; -108.796
545.906;  901.636;   77.869;   98.235
546.186;  383.453;   92.874;  -95.773
546.467;  197.348;   99.877;  -95.778
546.747;  330.935;  264.884;  327.210
547.027;  398.294;   91.876;  111.223
547.308;  342.987; -376.127; -530.770
547.588;  417.552;  299.871;  371.232
547.868;  204.912;  458.870;  588.235
548.149;  212.521;  609.885;  593.207
548.429;  130.216; -347.127; -299.771
548.709;  212.452; -645.120; -461.784
548.989;  495.221;   84.882;   88.213
549.269; 2237.419;   10.868;  139.239
549.550; 5089.877;  215.877;  117.222
549.830; 4590.129; -758.111; -556.799
550.110;  911.887; -468.110; -320.801
550.390;  873.557; -128.122;  -56.779
550.670; 1180.682; -868.114; -783.795
550.950;  836.646; -509.121; -471.782
551.230;  182.867;  549.879;  460.218
551.510;   -3.805; -381.121; -326.782
551.790;   27.244; -173.109; -127.803
552.070;  266.023;  940.877; 1181.223
552.350;  439.440; -492.119; -377.786
552.630;  624.440;   -2.121;   77.219
552.909;  370.140;  181.884;   73.209
553.189;  249.051;  -49.132;   33.237
553.469;  202.815; -703.119; -514.786
553.749;  210.944; -469.127; -357.772
554.029;  163.381;   33.883;  -24.790
554.308;  152.701; -154.115;  -37.794
554.588;   68.411; -196.128; -204.770
554.868;   79.322; -366.121;  -47.782
555.147;  154.448; -114.115;  -46.793
555.427;  621.317; -260.116; -250.792
555.707; 4113.121; -284.115; -200.793
555.986; 4937.857; -719.111; -538.800
556.266; 2610.934;   23.884;   72.210
556.546;  119.345; -888.121; -675.782
556.825;  272.705; -657.114; -556.794
557.105; 1884.709; -125.128;   17.230
557.384; 2199.413;  122.884;  187.209
557.664;  876.591; -717.116; -508.792
557.943;  115.021; -557.121; -411.782
558.222;  197.424; -345.118; -344.788
558.502;  289.999; -116.115;  -76.793
558.781;  506.620;  194.885;  499.208
559.061;  416.498; -232.118; -227.788
559.340;  337.628;  302.883;  353.211
559.619;  757.959;   93.884;  148.210
559.899; 1088.255; -239.117; -266.789
560.178;  993.274; -778.115; -593.793
560.457; 3340.957; -623.117; -562.790
560.736; 4625.784; -472.111; -482.800
561.015; 3059.382; -500.128; -502.769
561.295;  393.789;  180.893;  215.193
561.574;  338.521;  119.885;  116.207
561.853;  509.773;  274.891;  303.197
562.132;  529.001;  -45.114;  182.206
562.411;  443.890;  396.879;  553.219
562.690;  147.994; -592.115; -458.792
562.969;  155.468;  472.888;  630.203
563.248;  501.838; 2966.878; 2487.219
563.527;  286.983; -290.111; -408.800
563.806;  411.266; -650.127; -521.771
564.085;  454.354; -297.105; -206.810
564.364;  257.633; -594.117; -405.790
564.643;  542.066; -276.121; -223.781
564.922; 1983.567;  221.890;  397.198
565.201; 1977.896; -640.109; -700.803
565.479;  853.568; -297.115; -219.792
565.758;  351.909; -810.128; -712.770
566.037;  489.372; -155.109; -100.803
566.316;  252.339; -286.116;  -28.791
566.595;   58.971;  -17.115;  -12.793
566.873;   97.135; -166.111;  -79.801
567.152;  -56.632; -490.113; -590.797
567.431;   10.560; -113.116;    6.210
567.709;   13.364; -344.107; -212.807
567.988;  275.755; -810.114; -769.794
568.266;  551.296; -160.115;  -68.793
568.545;  398.226; -644.100; -514.819
568.824;  609.892;  160.885;  356.208
569.102;  599.079; -351.114; -235.794
569.381;  231.717; -492.116; -407.792
569.659;  -49.611; -553.113; -553.796
569.938;   31.786; -743.122; -465.780
570.216;   98.500; -225.109; -225.804
570.494;  -30.967; -632.114; -572.795
570.773;   32.319;  202.879;  114.218
571.051;   23.901; -373.123; -357.778
571.330;   55.737; -221.113; -174.796
571.608;   38.468; -181.098; -173.823
571.886;  -70.248; -671.111; -581.799
572.164;  -64.303; -739.121; -621.782
572.443;  -39.267; -562.105; -512.811
572.721;  -38.143; -399.117; -289.790
572.999;  -19.474; -280.117; -168.788
573.277;   89.251;  379.894;  620.191
573.555;  299.753;   94.894;   37.190
573.834; 1451.250;  -86.117; -114.788
574.112; 1651.092;  880.893;  811.193
574.390;  521.484; -143.111;  -96.801
574.668;    3.444;  -91.112;  -61.797
574.946;   -8.446; -165.106; -187.810
575.224;    3.946;   71.891;  -16.803
575.502;  -29.914; -200.116; -204.791
575.780;  -88.530; -767.112; -829.798
576.058;  123.883; 1589.889; 1004.200
576.336;  -23.111; -210.110; -129.801
576.614;  -58.305; -511.112; -340.798
576.891;   46.700; -711.115; -823.794
577.169;  519.408; -158.108; -285.805
577.447;  600.741;  169.893;  202.193
577.725;  281.500;  629.888;  854.201
578.003;   -2.052;  -71.112; -371.798
578.280;   91.242; -208.104; -242.812
578.558;   65.149; -450.115; -422.793
578.836;  112.382; -210.114; -145.795
579.114;   36.444; -630.112; -670.797
579.391;   62.527;   -6.117;  -18.789
579.669;  -81.224; -595.114; -704.794
579.947;  194.613; -326.107; -127.806
580.224;  337.588; -692.107; -524.806
580.502;  332.517;  127.893;   76.193
580.779;   29.608;  -42.117;   75.210
581.057;  -71.725; -584.109; -470.804
581.334; -118.369; -726.102; -695.815
581.612;   41.279;   54.895;  511.190
581.889;  -34.730;  -83.101; -129.818
582.167;  -34.841; -298.099; -190.821
582.444; -102.511; -845.102; -814.817
582.721;   96.015;  657.899;  715.183
582.999;   47.606; -326.100; -167.821
583.276;  581.355; -812.123; -713.779
583.553;  740.285; -364.102; -294.816
583.831;  247.788; -607.104; -631.812
584.108;   54.906;  349.892;  174.195
584.385;    3.756; -122.102;  -98.815
584.662;  -76.715; -651.111; -828.801
584.940;   34.909;  204.889;  204.199
585.217;  -31.136;  -73.113; -303.796
585.494;   36.318;   71.890;  118.198
585.771;  223.976; -250.109; -354.804
586.048;  523.014; -196.113;  -76.796
586.325;  327.988; -721.110; -773.801
586.602;   82.492;  230.896;  213.188
586.879;  -40.072; -499.100; -580.820
587.156;   55.505; -156.105; -331.810
587.433;  -27.038; -701.102; -667.817
587.710;   67.571;  152.888;  234.202
587.987;  302.585; -264.105; -236.811
588.264;  825.797;  315.888;  387.202
588.541; 1388.994;  -61.104;   26.187
588.818; 2769.528;   72.892;  171.196
589.095; 2372.115; -163.104; -174.812
589.371;  392.174; -459.109; -414.804
589.648;   10.117; -581.107; -437.807
589.925;   31.108; -517.114; -621.795
590.202;   19.670; -741.112; -607.798
590.478;   76.987; -166.105;  -73.811
590.755;  280.534; -241.108; -132.806
591.032; 2647.240; -741.110; -699.802
591.308; 3576.908; -732.094; -790.831
591.585; 1854.189; -573.110; -560.802
591.862;  152.339;-1056.102; -950.817
592.138;   70.932; -475.108; -474.805
592.415;  160.093; -486.104; -495.813
592.691; 1524.991;  460.896;  518.188
592.968; 1940.170; -208.098; -123.824
593.244;  939.585; -695.116; -595.790
593.521;   58.489; -105.102;  -42.817
593.797;  -24.991; -810.122; -720.780
594.074;  322.358; -611.096; -588.826
594.350;  669.669;  828.905;  729.172
594.626;  305.310; -303.111; -283.801
594.903;  107.665; -643.101; -645.817
595.179;  184.422;  243.896;  418.187
595.455;    6.968; -136.107; -150.807
595.731;    0.598;  -19.103;  -38.814
596.008;  -31.720; -464.111; -434.800
596.284;   42.680; -187.100; -242.820
596.560;   70.415; -501.093; -493.833
596.836;  199.732; -173.105;  -70.810
597.112;  360.532; -582.108; -437.805
597.388;  301.056;  -49.097;  -48.826
597.665;  113.966;  437.887;  530.203
597.941;  -64.681; -572.089; -658.839
598.217;    5.118; -323.110; -293.802
598.493;  272.127;   61.891; -204.804
598.769;  528.474; -175.100;  -50.819
599.045;  318.885; -490.108; -562.806
599.321;   58.004; -193.100; -261.820
599.597;  151.802; -355.109; -476.804
599.872;  507.369;  409.896;  429.187
600.148;  381.832;  -61.097; -172.826
600.424;  304.665;   91.893;  202.193
600.700;  249.742; -170.107; -280.807
600.976;  119.677; -442.097; -464.825
601.252;  243.848; -226.109; -272.803
601.527;  227.795; -833.104; -840.813
601.803;  149.463; -453.105; -404.812
602.079;  181.124; -124.100; -118.819
602.354;  576.874; -620.092; -531.835
602.630;  868.614; -140.113; -482.796
602.906; 2427.445; -910.101; -863.818
603.181; 7043.965; -627.119; -534.786
603.457; 5978.605;   98.903; -278.826
603.733;  878.273; -605.120; -626.783
604.008; 1010.729; -245.106; -164.810
604.284; 3212.166; -636.101; -580.817
604.559; 2756.725;   -3.112;  -42.799
604.835;  512.657; -163.105; -225.810
605.110;  427.409; -732.099; -892.821
605.385;  702.917;  224.907;  267.167
605.661;  684.397; -625.095; -729.829
605.936; 1207.036; -664.108; -737.806
606.211; 1034.280;  -17.103; -170.815
606.487;  221.928; -329.114; -376.794
606.762;   19.340; -791.119; -745.786
607.037;  -18.343; -501.105; -433.810
607.313;  -65.660; -589.096; -574.828
607.588;    5.629; -375.106; -137.810
607.863;   38.644;  -28.101; -143.818
608.138;  192.367;  513.890;  516.198
608.413;   37.888; -576.099; -592.822
608.688;   45.357; -203.108; -267.805
608.964;  215.223; -509.106; -218.809
609.239;  267.279; -107.105; -212.810
609.514;  269.412;  281.895;  240.188
609.789;  673.117; -187.104; -716.812
610.064;  873.889; -435.096; -609.827
610.339;  919.324; -855.109; -799.804
610.614; 1241.929; -131.100; -315.820
610.889;  676.888;  215.895;  107.188
611.163;   36.938; -407.104; -591.812
611.438;   80.004;   81.886; -167.794
611.713;    1.391; -467.101; -499.817
611.988;   59.893; -144.101; -328.818
612.263;  -29.519; -771.102; -717.815
612.538;  236.738;  385.887;  251.204
612.812;  173.056; -832.100; -911.820
613.087;  154.168; -358.098; -338.823
613.362;  -42.357; -497.107; -557.807
613.637;   34.001;  261.897;  138.186
613.911;  -19.675; -256.092; -345.835
614.186;  136.591; -249.107; -292.807
614.460;  714.618; -842.081; -758.854
614.735;  856.992;  -55.087;  -17.843
615.010;  175.382;   43.912;  -82.841
615.284;  252.431;  360.892;  246.195
615.559;  385.449; -792.092; -955.835
615.833;  320.836;  -76.099;  -87.822
616.108;    7.111; -225.090; -390.837
616.382;  142.968;  274.913;  402.156
616.656;  158.711; -241.090; -232.837
616.931;  510.837; -785.099; -700.822
617.205; 1113.246; -973.104; -979.813
617.480; 1031.535;  -91.125;    6.225
617.754;  190.107; -396.125; -128.774
618.028;   30.478; -369.129; -382.768
618.302;   57.705;   73.892;  -25.805
618.577;  -44.023; -371.103; -518.815
618.851;  -56.230; -399.109; -600.803
619.125;  -54.441; -335.134; -378.759
619.399;  -36.729; -244.104; -374.813
619.673;  -31.057; -330.115; -515.792
619.947;  -48.768; -333.114; -448.795
620.222;  -23.339; -198.110; -204.801
620.496;   -1.654;  -47.121;  -96.782
620.770;   16.038; -187.122;  -93.781
621.044;  194.680;  323.895;  346.190
621.318;  768.524; -653.120; -614.783
621.592;  674.222; -430.121; -409.783
621.866;  376.000; -476.112; -572.799
622.140;   26.636; -207.116; -356.791
622.413;   56.680;  138.889;  112.200
622.687;  -44.559; -746.101; -492.817
622.961;   20.180; -130.108; -143.805
623.235;  -72.020; -633.111; -661.800
623.509; -102.463; -816.105; -848.811
623.783;   11.789;  -12.107;   48.193
624.056;  -18.175; -254.120; -280.783
624.330;   47.169;   63.888;   -3.797
624.604;   47.233; -271.116; -355.790
624.877;   71.591;  180.890;   26.198
625.151;   47.152; -249.114; -238.794
625.425;  -36.527; -150.103; -283.814
625.698;  -52.891; -367.119; -374.785
625.972; -102.032; -799.110; -765.802
626.245;   78.610;  685.884;  484.210
626.519;  -52.571; -426.120; -340.784
626.792;  -30.783; -192.107; -380.807
627.066; -101.369; -485.122; -662.779
627.339; -101.261; -736.110; -663.802
627.613;   23.853;  351.880;  148.216
627.886;   52.345;  187.891; -612.803
628.160;  -20.401;  312.880; -161.783
628.433;  -90.538; -695.125; -703.775
628.706;  -85.921; -517.120; -615.784
628.979;   24.919;  296.876;  117.223
629.253;  -94.011; -785.119; -833.786
629.526;  387.347; -334.126; -253.772
629.799;  361.251; -641.123; -479.778
630.072;  174.629; -497.128; -516.769
630.346;  -63.890;-1115.116;-1080.790
630.619;  489.518; -467.107; -545.808
630.892;  647.881;  709.889;  593.200
631.165;  358.721;  790.896;  679.187
631.438;  -91.578;-1092.112;-1055.798
631.711;   37.404;  453.877;  257.221
631.984;  -74.520; -523.117; -624.789
632.257;  -68.498; -636.117; -681.789
632.530;  -52.740; -412.119; -433.785
632.803;   13.350; -109.115;    7.207
633.076;  -62.827; -360.123; -422.777
633.349;   13.583;  173.872;  121.231
633.622;  -48.317; -187.119; -240.785
633.895; -124.125; -903.120; -823.783
634.167;  -82.526; -496.126; -525.773
634.440;    1.416;  -19.116; -137.792
634.713;   -8.787;  -22.119; -120.786
634.986;   83.548;  593.871;  453.233
635.258;  -87.252; -507.115; -597.793
635.531;  105.173;  742.882; -343.788
635.804;  -25.521; -303.117; -318.789
636.077;  -90.913; -830.116; -852.791
636.349;   -9.754; -586.115; -474.793
636.622;  383.296; 1695.874; 1392.228
636.894;  251.029; -474.120; -909.784
637.167;  156.465; -836.127; -789.771
637.439;   27.712; -278.128; -213.770
637.712;  -49.352; -312.126; -293.772
637.984;  -83.962; -635.116; -707.791
638.257;  393.073;  515.877;  488.222
638.529;  567.313; -881.125; -924.776
638.802;  258.054; -508.128; -449.769
639.074; -113.363; -927.122; -952.781
639.346; -129.500; -942.135; -930.757
639.619;  -11.039;  -79.142; -319.744
639.891;   -4.769;  -83.122; -168.779
640.163;  -92.817; -689.122; -756.780
640.435;   23.060;  273.878;  103.220
640.708;  -10.014;  -72.122; -132.780
640.980;  -24.887; -366.122; -362.781
641.252;  195.440;  -25.121;  -71.781
641.524; 1800.917;  580.879;  573.219
641.796; 1806.144;-1094.121; -907.782
642.068;  341.570; -191.121; -300.782
642.340;  -70.678; -486.121; -566.783
642.613;   46.174;  294.880;  323.217
642.885;  -96.799; -787.120; -878.783
643.157;  -42.797; -810.120; -658.784
643.428;   63.505;  170.880;  218.216
643.700;  -63.794; -498.120; -425.784
643.972;  -39.142;  -16.119; -133.785
644.244; -103.590; -474.119; -559.785
644.516;  -55.813; -250.119; -114.786
644.788;   58.964;  662.881;  548.214
645.060;  -15.010;  -12.119; -124.786
645.332; -101.833; -525.118; -535.787
645.603;   25.969;  479.882;  342.213
645.875;  -88.954; -334.118; -369.787
646.147;  161.673; 1487.882; 1242.212
646.418;  -72.075; -931.117; -918.788
646.690;  147.451; -714.117; -715.789
646.962;   55.778; -413.117; -451.789
647.233;  -18.020;   15.883;   11.211
647.505; -104.068; -595.117; -475.790
647.776;   12.084;  328.884;  229.210
648.048;    1.535; -248.116; -418.790
648.320;  -76.838; -752.116; -679.791
648.591; -151.511;-1055.116; -958.791
648.862;  -89.109; -505.116; -577.792
649.134;   25.893;  115.885;  198.208
649.405;  -55.506; -661.115; -618.792
649.677;  -40.279; -475.115; -598.793
649.948;  -13.377; -181.115; -296.793
650.219;    1.025;  -37.115; -147.793
650.491;  -87.698; -431.114; -520.794
650.762; -117.521; -705.114; -731.794
651.033;  -90.895; -437.114; -424.795
651.304;  -94.943; -743.114; -728.795
651.576;  -79.166; -680.114; -645.795
651.847;  -42.264; -250.113; -140.796
652.118;  -40.062;  -32.113; -189.796
652.389; -103.761; -639.113; -722.796
652.660;  -36.509; -147.113;  -89.797
652.931; -142.657; -897.112; -871.797
653.202; -101.655; -382.112; -541.798
653.473;  -60.228; -633.112; -533.798
653.744;  154.049; -595.112; -590.798
654.015;  134.350; -356.112; -303.799
654.286;  -73.273; -642.111; -663.799
654.557;  -46.596; -586.111; -521.799
654.828; -158.294;-1114.111;-1088.800
655.099;  -69.367; -404.111; -291.800
655.370;  -93.441; -427.111; -543.801
655.641; -117.564; -656.110; -714.801
655.911; -111.762; -618.110; -638.801
656.182;   39.790;  437.890;  387.198
656.453;   80.292;  830.890;  746.198
656.724;  -70.082; -466.110; -426.802
656.994;  -86.005; -553.109; -568.803
657.265; -101.228; -862.109; -873.803
657.536;  -92.576; -500.109; -377.804
657.806; -125.699; -561.109; -593.804
658.077; -129.847; -866.109; -950.804
658.347;  -84.871; -523.108; -598.805
658.618; -125.769; -646.108; -694.805
658.888;  -15.867;  -41.108;  112.195
659.159;  -85.315; -432.108; -548.806
659.429;  -20.588; -292.108; -349.806
659.700;    0.038; -435.107; -390.807
659.970;   -2.660; -370.107; -359.807
660.241;   22.842; -754.107; -921.807
660.511;  512.294; -147.107; -174.808
660.781;  101.296; -793.106; -748.808
661.052;  -59.452; -222.106; -381.808
661.322;  -30.351;   21.894;   -9.809
661.592;   12.176;  257.894;  148.191
661.862;  -80.147; -369.106; -382.810
662.133;  -99.720; -551.105; -502.810
662.403; -135.193; -770.105; -676.810
662.673;  -62.167; -256.105; -213.811
662.943; -107.990; -612.105; -551.811
663.213;  -15.013;  -85.105;  -81.811
663.483;  -89.286; -593.104; -568.812
663.753;  -42.734; -194.104; -152.812
664.023;  -30.708;   68.896;  -32.813
664.293;  -59.881; -319.104; -126.813
664.563; -117.054; -694.104; -648.813
664.833; -124.502; -743.103; -608.814
665.103; -138.075; -730.103; -793.814
665.373; -119.648; -766.103; -806.814
665.643; -102.872; -863.103; -918.815
665.913;   40.580; -534.103; -714.815
666.182;  142.457; -685.102; -719.816
666.452;  285.734;  -22.102;  -89.816
666.722;  -30.714; -724.102; -784.816
666.992; -119.613; -948.102; -921.817
667.261;  -94.561; -824.102; -808.817
667.531;  206.616;  134.899;   45.183
667.801;  530.643; -440.101; -412.818
668.070;  244.070;  714.899;  697.182
668.340; -107.678; -883.101; -840.819
668.609;   87.573;  588.900;  301.181
668.879;  -91.425; -490.100; -558.819
669.149;  -75.273; -539.100; -516.820
669.418; -113.171; -698.100; -726.820
669.688;  -19.694; -482.100; -666.820
669.957;   67.807; -423.099; -546.821
670.226;  -25.241; -268.099; -331.821
670.496; -110.964; -431.099; -635.822
670.765;  -89.237; -418.099; -501.822
671.034; -137.335; -872.099; -828.822
671.304;  -20.334;   55.902; -111.823
671.573; -137.907;-1085.098; -957.823
671.842;   90.470; -380.098; -294.823
672.112;   22.022; -692.098; -586.824
672.381;    3.674; -239.098; -214.824
672.650; -128.474;-1005.097;-1021.825
672.919;  -92.548; -631.097; -507.825
673.188; -100.171; -681.097; -878.825
673.457; -155.844;-1101.097;-1143.826
673.726;  -95.667; -579.096; -646.826
673.995;  -46.740; -533.096; -479.826
674.265;  -21.414; -263.096; -333.827
674.534;    3.513; -183.096; -235.827
674.802;   -9.860; -618.096; -703.828
675.071; 1050.542; -886.095; -801.828
675.340; 4073.494; -464.095; -339.828
675.609; 1354.471;  103.905;   82.171
675.878;   71.622; -949.095; -893.829
676.147;   26.324;  -26.095;   -8.829
676.416;   79.576; -210.094; -294.830
676.685;  765.353; 1000.906; -622.830
676.953;  101.955; -603.094; -452.831
677.222;  -34.719; -193.094; -273.831
677.491;  -31.417;  -24.094; -127.831
677.759;   -7.490;   11.907;  172.168
678.028;  -35.688; -279.093; -222.832
678.297;  -10.061;   71.907;  197.168
678.565; -155.235; -898.093; -944.833
678.834;  -63.008; -311.093; -268.833
679.102;  -94.981; -411.092; -391.834
679.371; -161.854; -898.092; -727.834
679.639; -146.902; -797.092; -786.834
679.908; -124.400; -794.092; -724.835
680.176; -151.049; -895.091; -941.835
680.445;  -76.897; -346.091; -352.835
680.713;  -22.445;  -58.091;  -23.836
680.982; -103.418; -523.091; -525.836
681.250; -102.341; -578.091; -507.837
681.518; -102.490; -534.090; -751.837
681.787;  -19.788; -204.090; -167.837
682.055;  -68.436; -490.090; -422.838
682.323; -162.409; -993.090; -992.838
682.591;   33.868; -216.090; -538.838
682.859;   83.170;    9.911;  -35.839
683.128;    6.696;  232.911;  497.161
683.396; -175.377;-1102.089;-1122.840
683.664;  -42.950; -241.089;   21.160
683.932;   -3.323;  144.911;  -76.840
684.200;  -94.796; -576.088; -320.841
684.468;  -24.245;  -73.088; -124.841
684.736;  -35.968; -214.088; -175.841
685.004; -125.516;-1024.088; -982.842
685.272;  -51.564; -880.088; -774.842
685.540;  -69.537; -499.087; -557.843
685.808;  -84.010; -651.087; -682.843
686.076; -103.984; -894.087; -969.843
686.343;  -63.982; -601.087; -815.844
686.611;   32.920; -195.087; -224.844
686.879;  485.097; -530.086; -553.844
687.147; 3409.174; -483.086; -480.845
687.414;  961.425;  -12.086; -169.845
687.682;    7.202; -658.086; -757.846
687.950;  321.529;  259.915;  263.154
688.217;   25.206; -792.085; -760.846
688.485;  -19.067; -632.085; -636.847
688.753;  538.534;  -11.085; -102.847
689.020;  174.436; -820.085; -851.847
689.288; -104.362; -853.084; -787.848
689.555;  -33.485; -195.084; -148.848
689.823;  -51.083; -241.084; -345.849
690.090;  -85.231; -546.084; -651.849
690.358; -153.955; -877.084; -897.849
690.625;    7.747;  120.917;   45.150
690.892;  -95.076; -403.083; -369.850
691.160;  -19.774;   72.917;  -35.850
691.427;   -4.022;  141.917;  130.149
691.694; -136.146; -855.083; -929.851
691.962; -140.619;-1177.082;-1060.852
692.229;   14.308;  127.918;   56.148
692.496;   76.485;  130.918;  -49.852
692.763;   13.687; -164.082; -201.853
693.031;  -64.336; -739.082; -716.853
693.298;  -38.285; -509.081; -368.853
693.565;  331.517; -155.081; -163.854
693.832; 1319.519;   -5.081;   -9.854
694.099;  145.396; -643.081; -642.855
694.366;  -63.552; -882.081; -896.855
694.633;  -50.176; -920.080; -633.855
694.900;  767.801; 4367.920; -114.856
695.167;  442.828; -214.080; -380.856
695.434;  123.305; -646.080; -623.856
695.701;  186.457;  121.921;  -61.857
695.968;  477.758; -365.079; -361.857
696.234;  983.460; -415.079; -646.858
696.501;10189.712; -776.079; -614.858
696.768; 5130.639; -554.079; -617.858
697.035;  293.466; -632.078; -667.859
697.302;   17.068; -448.078; -552.859
697.568;   11.319; -458.078; -497.859
697.835;  -42.104; -683.078; -624.860
698.102;  -20.227; -498.078; -407.860
698.368;   62.375;  384.923;  396.139
698.635;  -42.848;  -47.077; -424.861
698.901;  -25.447; -240.077; -348.861
699.168;   78.730; -534.077; -456.862
699.435;   75.032;  -72.077;  -13.862
699.701; -104.791; -868.076; -764.862
699.968;   16.586;  144.924; -441.863
700.234;  -92.762; -783.076; -822.863
700.500;  -68.686; -448.076; -539.864
700.767;    1.466;   -1.075;   26.136
701.033; -151.307;-1015.075; -963.864
701.299;  -59.205; -450.075; -483.865
701.566;  124.272;  950.925;  763.135
701.832;   21.298;  -31.075;  -76.865
702.098; -102.925;-1054.074;-1034.866
702.365;  -87.523;-1098.074;-1030.866
702.631;  -26.596;-1038.074;-1063.867
702.897; 1391.331; -765.074; -676.867
703.163; 2259.982;  348.926;  254.133
703.429;  144.709; -256.073; -273.868
703.695;  -39.489; -796.073; -792.868
703.961;   21.238; -214.073; -210.868
704.227;  -66.110; -630.073; -725.869
704.493;  121.842;  613.927;  510.131
704.759;  -30.032; -565.072; -540.870
705.025;   34.245; -203.072; -194.870
705.291;  -22.778; -666.072; -562.870
705.557;  185.749;  719.928;   34.129
705.823;    8.651; -742.072; -694.871
706.089;  131.052; -307.071; -326.871
706.355;  335.454; -315.071; -244.872
706.620; 5347.681; -776.071; -729.872
706.886; 7519.108; -309.071; -362.873
707.152;  709.285; -818.070; -973.873
707.418;  -24.038;-1153.070;-1186.873
707.683;   -8.037; -550.070; -530.874
707.949;  -53.160; -547.070; -578.874
708.215;    3.267; -129.070; -207.874
708.480;  -36.381; -520.069; -420.875
708.746;   86.071;   68.931;   28.125
709.011;  -67.578; -578.069; -612.876
709.277;  -71.376; -538.069; -543.876
709.542;  -62.099; -428.069; -387.876
709.808;   -2.372;  -59.068;   89.123
710.073;  -71.895; -577.068; -695.877
710.339;  -25.144; -242.068; -228.877
710.604;   76.858; -780.068; -845.878
710.869;  333.485; -277.068; -366.878
711.135;  -71.688; -715.067; -628.879
711.400;  -96.536; -507.067; -608.879
711.665;  -69.859; -404.067; -479.879
711.931;  -99.733; -661.067; -677.880
712.196; -115.706; -876.067; -954.880
712.461;  107.571; -402.066; -490.880
712.726;  147.398; -727.066; -771.881
712.991;  -93.375; -647.066; -664.881
713.256;  -50.424; -350.066; -332.882
713.521;  -65.797; -417.065; -381.882
713.787;  -63.495; -454.065; -472.882
714.052;  -30.093; -214.065; -400.883
714.317; -104.591;-1045.065; -981.883
714.581;  994.336; -374.065; -268.883
714.846; 1313.162; -822.064; -888.884
715.111;  125.264;  261.936;  257.116
715.376;  -23.859;  -86.064; -223.885
715.641;  -15.082; -365.064; -367.885
715.906;  290.495;   15.936; -551.885
716.171;  127.971;  221.937;  209.114
716.436;   43.048;  -78.063; -104.886
716.700; -112.550; -818.063; -692.886
716.965; -133.073; -794.063; -807.887
717.230;  -69.471; -339.063; -392.887
717.494;  -27.970;  -40.062; -134.888
717.759;  -93.068; -784.062; -640.888
718.024;   -6.291;  269.938;  250.112
718.288;   54.661;  685.938;  395.111
718.553; -156.987; -803.062; -977.889
718.817; -149.785; -883.061; -899.889
719.082;  -22.909; -115.061; -125.890
719.346; -138.357;-1000.061; -947.890
719.611;  -57.580; -300.061; -255.891
719.875;  -99.978; -568.060; -537.891
720.140;  -65.851; -453.060; -603.891
720.404;   40.475; -136.060; -249.892
720.668;  876.502; -475.060; -411.892
720.933;  328.154;  146.940;  137.108
721.197; -104.094; -667.059; -600.893
721.461; -136.642; -851.059; -826.893
721.725;  -15.915;  -21.059; -250.894
721.990;  -59.114; -284.059; -204.894
722.254;  -43.712;  -26.059; -108.894
722.518;  -74.685; -286.058; -442.895
722.782;  -97.583; -743.058; -594.895
723.046;  119.344;  614.942;  570.105
723.310;   25.995;  374.942;  210.104
723.574;  -97.878; -654.058; -614.896
723.838;  -96.251; -576.057; -642.897
724.102;  -41.799; -226.057; -239.897
724.366; -139.497;-1032.057; -978.897
724.630; -114.921; -749.057; -571.898
724.894;  -89.494; -722.057; -514.898
725.158;  -22.892;   38.944; -295.898
725.422;  -52.115; -394.056; -327.899
725.685;  -67.488; -441.056; -349.899
725.949;  -78.711; -566.056; -519.900
726.213;  -71.610; -732.056; -811.900
726.477;  171.367;-1020.055; -933.900
726.740;  147.694; -274.055; -104.901
727.004;  339.421; -384.055; -510.901
727.268; 3220.798; -442.055; -400.901
727.531;  862.874; -961.055; -775.902
727.795;  -54.524; -713.054; -673.902
728.059;  -55.322; -552.054; -557.903
728.322;  -62.220; -841.054; -669.903
728.586;   18.482; -692.054; -701.903
728.849;  -75.091; -695.053; -756.904
729.112; -124.715; -812.053; -912.904
729.376; -118.038; -959.053; -905.904
729.639;  -77.086; -536.053; -536.905
729.903; -112.384; -733.053; -699.905
730.166;  -62.657; -437.052; -399.906
730.429;  -24.356; -317.052; -468.906
730.693;  -58.679; -355.052; -894.906
730.956;  213.023;  810.948;  651.093
731.219;  723.425; -310.052; -103.907
731.482;  123.277;-1003.051; -894.907
731.745;   89.954; -794.051; -935.908
732.009;   18.580;  -30.051;   50.092
732.272;  -99.218; -904.051; -771.909
732.535;  -40.466; -300.051; -310.909
732.798; -166.089;-1083.050;-1166.909
733.061;  -66.887; -430.050; -456.910
733.324;   -1.586;   31.950; -180.910
733.587;   57.791;  290.950;  365.090
733.850;  -58.932; -973.049;-1050.911
734.113;   27.845;   33.951;   32.089
734.376;    2.347; -328.049; -447.912
734.639;  217.473; 1188.951; 1011.088
734.901;   69.150; -180.049; -402.912
735.164;  534.877; -883.048; -837.913
735.427; 1326.954; -166.048; -355.913
735.690;  110.531; -205.048; -234.913
735.952;  -35.667; -923.048; -925.914
736.215;  -39.666;-1113.048;-1009.914
736.478;   33.161; -771.047; -774.915
736.740;  225.688;   33.953;  129.085
737.003;  711.140; -658.047; -672.915
737.266; 4169.817;  -94.047;   46.084
737.528;  451.643; -682.047; -660.916
737.791;  336.820; -316.046; -327.916
738.053;  784.772;  465.954;  649.083
738.316;10791.149; -162.046; -136.917
738.578; 7416.251; -770.046; -736.918
738.841;  437.203; -382.046; -446.918
739.103;  176.354; -875.045; -777.918
739.365;  515.156;   79.955;  -69.919
739.628;    4.133; -884.045; -805.919
739.890;  -30.890; -758.045; -710.919
740.152;  -54.563; -692.044; -754.920
740.414;  -16.212; -408.044; -359.920
740.677;  -63.060; -785.044; -634.921
740.939;  -45.833; -587.044; -487.921
741.201;  280.719; -432.044; -572.921
741.463;   24.721; -689.043; -745.922
741.725;   -2.653;  -21.043; -199.922
741.987;   55.374;  220.957;  116.078
742.249;  -13.474; -751.043; -859.923
742.511;  212.603; -703.043; -794.923
742.773;    6.455; -546.042; -546.924
743.035;  146.707;  796.958;  533.076
743.297;  -34.592; -963.042;-1013.924
743.559;  750.235; -278.042; -262.925
743.821;   68.012; -735.042; -744.925
744.083;    3.214;  -44.041; -149.925
744.345; -105.159; -869.041; -892.926
744.607;   22.492;   75.959;  122.074
744.868;  -62.031; -490.041; -554.927
745.130; -106.229; -994.041;-1008.927
745.392;   16.448;   -1.040;  -44.927
745.653;   -7.075; -411.040; -378.928
745.915;  147.252;  896.960;  631.072
746.177;   51.778;   35.960;  -43.928
746.438;   -5.595; -428.040; -543.929
746.700;  -47.493; -947.039; -988.929
746.961;  -10.441; -659.039; -740.930
747.223;  136.811; -190.039;  -74.930
747.484;   88.012; -391.039; -471.930
747.746;  138.939;  -23.038; -106.931
748.007;  123.041; -647.038; -689.931
748.269;  307.193; -468.038; -440.931
748.530;  489.820; -852.038; -638.932
748.791;  260.921; -354.038; -420.932
749.053;  440.798;  286.963;  163.067
749.314;  456.425; -236.037; -169.933
749.575;  497.852; -945.037; -905.933
749.836;  853.004; -217.037;   86.066
750.098; 2502.556;  -60.037;  -21.934
750.359;37303.582;  414.964;  555.066
750.620; 9295.709; -121.036; -220.935
750.881; 1035.836; -585.036; -513.935
751.142; 1383.913; -950.036; -938.936
751.403;16948.715; -789.036; -705.936
751.664; 7264.191;-1034.035; -999.936
751.925;  502.543; -175.035; -262.937
752.186;  281.345; -298.035; -278.937
752.447;  140.522; -590.035; -445.937
752.708;   55.149; -532.035; -648.938
752.969;    2.426; -566.034; -576.938
753.230;  -14.173; -777.034; -672.939
753.491;  -13.246; -650.034; -631.939
753.751;   60.806;  109.966;   19.061
754.012;  100.158;  258.967;  181.060
754.273;   41.110; -174.033;  -71.940
754.534;   -1.689; -487.033; -580.940
754.794;  -84.562; -926.033; -911.941
755.055;  141.440; 1051.967;  881.059
755.316;  -56.583; -700.032; -566.942
755.576;  -27.256; -606.032; -576.942
755.837;  -48.380; -527.032; -695.942
756.097;  -34.378; -530.032; -564.943
756.358;  -88.551; -725.032; -770.943
756.618;  -51.024; -705.031; -641.943
756.879;   -3.022; -254.031; -349.944
757.139; -122.895;-1098.031;-1116.944
757.400;  -72.194; -538.031; -553.945
757.660;   -5.167; -365.031; -401.945
757.920;    9.385; -266.030; -228.945
758.181;  -22.913; -468.030; -351.946
758.441; -108.636; -870.030; -809.946
758.701;  -33.160; -308.030; -215.946
758.961;  -37.683; -220.030; -278.947
759.222;  -53.581; -574.029; -502.947
759.482;  -86.754; -683.029; -723.948
759.742;  -84.902; -706.029; -547.948
760.002;    2.925;  -83.029; -143.948
760.262;   25.626;   50.972;  182.051
760.522;  -56.697; -498.028; -574.949
760.782;  -60.745; -738.028; -612.949
761.042;  -24.218; -618.028; -573.950
761.302;   51.734;   55.972;  -18.950
761.562;   49.510; -164.027; -154.951
761.822;   82.237; -710.027; -551.951
762.082;  -35.311;-1104.027;-1093.951
762.342;   70.041; -328.027; -403.952
762.601;   71.493; -567.027; -506.952
762.861;  369.494; -281.026; -207.952
763.121;  407.221; -406.026; -411.953
763.381; 7456.598; -499.026; -485.953
763.640; 8002.425; -139.026; -307.954
763.900;  353.827; -242.026; -203.954
764.160;   82.529; -458.025; -491.954
764.419;  -19.095; -726.025; -782.955
764.679;  -83.068; -795.025; -726.955
764.939;    0.059; -124.025; -210.955
765.198;  -78.239; -608.025; -563.956
765.458;  -77.712; -710.024; -612.956
765.717;  -84.936; -454.024; -590.957
765.976;  -55.809; -428.024; -411.957
766.236;  -77.482; -475.024; -610.957
766.495;   15.745;  260.977;   73.042
766.755;  -96.478;-1090.023; -987.958
767.014;   -9.151; -594.023; -665.958
767.273;  -53.125; -373.023; -397.959
767.533;  -46.873; -228.023; -307.959
767.792;  -30.871; -151.022; -188.960
768.051;  -60.644; -228.022; -276.960
768.310;  -82.217; -546.022; -650.960
768.569;  -10.566; -161.022;    4.039
768.828;  -45.839; -285.022; -363.961
769.088; -112.512;-1050.021; -942.961
769.347;  -96.235; -755.021; -599.962
769.606;  -98.558; -876.021; -857.962
769.865; -130.732;-1016.021;-1033.963
770.124;   13.570; -411.021; -336.963
770.383;  -61.403; -778.020; -910.963
770.641;   -7.326; -398.020; -400.964
770.900;  -77.149; -953.020; -846.964
771.159;  -46.897; -851.020; -951.964
771.418;  -21.046; -917.020; -779.965
771.677;  112.031; -224.019; -293.965
771.936;  117.383; -794.019; -865.966
772.194; 2152.985; -465.019; -437.966
772.453;10707.687; -213.019; -391.966
772.712;  741.588;  416.982;  329.033
772.970;  115.690;   32.982;   63.033
773.229;   82.117;  -22.018;  102.033
773.488;  -93.906; -814.018; -770.968
773.746;   63.346;  296.982;  335.032
774.005;  -10.977;  190.983;  -22.969
774.263;   23.174;  243.983;  177.031
774.522;  -59.724; -422.017; -548.969
774.780;  -82.522; -484.017; -417.970
775.039;  -96.595; -551.017; -531.970
775.297;  -37.643; -135.016; -351.970
775.555; -105.042; -489.016; -612.971
775.814; -130.865; -618.016; -570.971
776.072; -124.413; -749.016; -740.971
776.330;  -98.311; -630.016; -520.972
776.589; -117.284; -703.015; -721.972
776.847; -109.007; -645.015; -624.973
777.105; -171.831;-1016.015;-1032.973
777.363;  -94.229; -459.015; -454.973
777.621; -141.577; -660.015; -717.974
777.879;  -11.475;  -42.014;   32.026
778.138; -111.848; -554.014; -717.974
778.396; -106.647; -585.014; -526.975
778.654; -167.045;-1015.014; -970.975
778.912;  -76.318; -269.014; -371.976
779.170; -130.441; -880.013; -803.976
779.427; -152.939; -922.013; -897.976
779.685; -134.088; -880.013; -832.977
779.943;  -83.911; -654.013; -593.977
780.201; -166.059; -964.012; -883.978
780.459; -113.732; -651.012; -610.978
780.717;  -97.105; -440.012; -390.978
780.974;  -98.503; -449.012; -490.979
781.232;  -74.152; -358.012; -338.979
781.490;  -73.950; -551.011; -472.979
781.747;  -96.898; -555.011; -476.980
782.005;   25.404;  462.989;  254.020
782.263; -170.444; -542.011;-1004.981
782.520;  -79.018; -326.011; -501.981
782.778; -179.091;-1013.010;-1051.981
783.035; -163.614; -962.010; -938.982
783.293;  -77.537; -248.010; -206.982
783.550;  -58.860; -134.010; -198.982
783.808; -135.183; -764.010; -776.983
784.065; -167.432; -745.009; -874.983
784.322;  -50.980;   25.991;  -86.984
784.580; -157.528; -915.009; -771.984
784.837;  -95.251; -392.009; -466.984
785.094; -124.949; -783.009; -762.985
785.352;  -71.123; -304.008; -404.985
785.609; -107.521; -934.008; -839.985
785.866;  -91.669; -345.008; -401.986
786.123;  -59.542; -639.008; -583.986
786.380; -115.940; -665.008; -604.987
786.637;  -45.039; -225.007; -380.987
786.895;  -10.962; -456.007; -543.987
787.152;  -42.885; -135.007; -267.988
787.409;  -53.783; -123.007; -225.988
787.666;  -93.831; -299.006; -378.988
787.923; -123.029; -616.006; -695.989
788.179; -102.403; -551.006; -584.989
788.436; -116.426; -585.006; -585.990
788.693;  -35.849;  -92.006;  -87.990
788.950;  153.053; -125.005; -112.990
789.207;  224.155; -381.005; -372.991
789.464;  -56.194; -161.005; -301.991
789.720;  -10.917;  150.995;  110.009
789.977; -176.590;-1003.005; -671.992
790.234;  -32.463;   44.996;  -66.992
790.490; -156.386; -884.004;-1031.993
790.747;  -14.384;  -85.004;   22.007
791.004;  -15.558; -426.004; -348.993
791.260;  -85.781; -430.004; -560.994
791.517; -109.979; -843.003; -788.994
791.773;  -43.377; -379.003; -342.994
792.030; -120.775; -596.003; -660.995
792.286; -109.924; -686.003; -636.995
792.543;  -31.622;  -74.002; -159.995
792.799;  -61.495; -584.002; -382.996
793.055; -156.393;-1179.002;-1210.996
793.312; -104.216; -827.002; -816.997
793.568;  -68.790; -746.002; -599.997
793.824;   12.437; -226.001; -284.997
794.081;   13.764; -447.001; -508.998
794.337;   54.391; -664.001; -561.998
794.593; 1343.318; -319.001; -271.999
794.849; 6498.095; -746.001; -772.999
795.105;  326.271; -270.000; -261.999
795.361;    8.148; -490.000; -457.000
795.617;  -68.725; -875.000; -945.000
795.873;  -42.600; -360.000; -407.000
796.129;  -41.350; -368.000; -306.000
796.385;  -19.375; -124.000; -156.000
796.641;   56.825;  412.000;  550.000
796.897;  -87.775; -666.000; -635.000
797.153;   70.125;  453.000;  357.000
797.409; -117.200; -785.000; -868.000
797.665;  -76.275; -625.000; -732.000
797.921;  -95.375; -775.000; -762.000
798.176;  -63.375; -744.000; -747.000
798.432;  -54.700; -824.000; -596.000
798.688;  -81.800;-1174.000;-1078.000
798.943;   76.625; -165.000; -147.000
799.199;  -19.375;-1005.000; -959.000
799.455;  220.650;  369.000;  316.000
799.710;  123.950; -813.000; -380.000
799.966;  284.550; -162.000; -160.000
800.221;  466.150; -638.000; -721.000
800.477;10497.150; -743.000; -710.000
800.732; 9048.100; -773.000; -800.000
800.988;  593.900;  205.000;  -19.000
801.243; 1688.750; -454.000; -344.000
801.498; 7246.600; -814.000; -739.000
801.754;  402.575; -289.000; -163.000
802.009;   72.075; -257.000; -335.000
802.264;  -51.600; -967.000;-1033.000
802.520;    8.400;  222.000;   -3.000
802.775;  -58.475; -524.000; -359.000
803.030;   51.500;  395.000;  356.000
803.285; -120.025; -840.000; -903.000
803.540;  -73.025; -686.000; -699.000
803.795;  -37.200; -648.000; -583.000
804.051;  -47.250; -279.000; -346.000
804.306;   21.500;  168.000;  128.000
804.561;  145.375;  451.000;  362.000
804.816;  119.750;  714.000;  861.000
805.071;   -1.575; -185.000; -280.000
805.325;  214.850; -257.000; -427.000
805.580;  -93.750; -841.000; -877.000
805.835;   -8.325; -204.000; -297.000
806.090;  -80.575; -760.000; -676.000
806.345;  -33.475; -344.000; -264.000
806.600;  -32.425; -549.000; -632.000
806.854;  -36.975; -408.000; -538.000
807.109;  -19.275; -493.000; -577.000
807.364;   -9.350; -407.000; -328.000
807.618;   -3.650; -415.000; -381.000
807.873;   57.975; -470.000; -494.000
808.128;  107.600; -257.000; -518.000
808.382;  100.375; -224.000; -332.000
808.637;   69.975; -440.000; -511.000
808.891;  185.350; -257.000; -180.000
809.146;  106.675; -902.000; -794.000
809.400;  248.375; -848.000; -923.000
809.654;  335.450; -779.000; -551.000
809.909;  499.750; -841.000; -927.000
810.163; 6885.150; -813.000; -651.000
810.418;17433.275; -940.000; -861.000
810.672; 1058.500; -685.000; -690.000
810.926;  700.450; -993.000; -973.000
811.180; 1382.425; -439.000; -372.000
811.434;31187.175;  240.000;  135.000
811.689;12265.950; -231.000; -365.000
811.943;  612.250; -936.000; -953.000
812.197;  325.375; -893.000; -671.000
812.451;  129.925; -379.000; -514.000
812.705;  -39.725; -809.000; -619.000
812.959;  -19.050; -263.000; -388.000
813.213;   -6.950; -283.000; -209.000
813.467;   60.125;  470.000;  253.000
813.721; -111.925; -764.000; -792.000
813.975; -124.250; -826.000; -877.000
814.229;   45.425;  430.000;  353.000
814.482;  -70.675; -517.000; -566.000
814.736; -121.975; -766.000; -744.000
814.990; -142.525; -779.000; -872.000
815.244;  -38.775; -228.000; -285.000
815.497; -105.300; -636.000; -601.000
815.751;  -19.400; -141.000;   82.000
816.005;  -91.150; -470.000; -586.000
816.258;  -72.825; -510.000; -363.000
816.512; -100.975; -693.000; -610.000
816.766;    7.775;  121.000;  157.000
817.019;   17.300;  148.000;  149.000
817.273; -121.375;-1000.000; -802.000
817.526;  -40.500; -206.000; -173.000
817.779;  -29.125;-1049.000; -960.000
818.033;  -88.750; -693.000; -807.000
818.286; -118.900; -725.000; -792.000
818.540;  -89.800; -403.000; -403.000
818.793;  -78.050; -402.000; -489.000
819.046; -118.675; -582.000; -520.000
819.299;  -33.900; -157.000; -166.000
819.553; -124.975; -552.000; -592.000
819.806; -166.775;-1016.000; -838.000
820.059;  -68.975; -334.000; -354.000
820.312;   17.000;  152.000;  185.000
820.565;  -27.975;  110.000;  -27.000
820.818;  -51.575;  -59.000; -173.000
821.071; -181.500;-1041.000; -957.000
821.324;  -90.300; -536.000; -540.000
821.577; -105.900; -457.000; -483.000
821.830;  -68.150; -270.000; -172.000
822.083; -137.450; -733.000; -288.000
822.336;  -50.850; -261.000; -167.000
822.589; -156.800; -805.000; -688.000
822.842; -150.775; -875.000; -770.000
823.094; -182.150;-1076.000;-1114.000
823.347; -128.950; -925.000; -729.000
823.600;   18.750;  402.000;  187.000
823.853;  -56.775; -311.000; -267.000
824.105;  -80.000; -331.000; -575.000
824.358; -114.075; -617.000; -716.000
824.611;    7.550;  234.000;   40.000
824.863;  -58.675; -612.000; -591.000
825.116;   36.850;  -33.000;   27.000
825.368;   67.925; -366.000; -372.000
825.621;  156.950; -186.000; -240.000
825.873;   79.350; -704.000; -737.000
826.126;  581.325; -669.000; -641.000
826.378;11599.175; -389.000; -505.000
826.630; 2771.125; -890.000; -898.000
826.883;   24.150; -754.000; -693.000
827.135;   32.850; -279.000; -270.000
827.387; -120.075; -893.000; -839.000
827.639;  -36.675;  -86.000;   32.000
827.892; -128.475; -742.000; -582.000
828.144; -155.025; -848.000; -804.000
828.396;  -48.000;  104.000;  -80.000
828.648; -114.875; -440.000; -333.000
828.900; -148.225; -702.000; -795.000
829.152; -127.800; -684.000; -683.000
829.404;  -58.050; -215.000; -267.000
829.656;  -51.375;  321.000;  214.000
829.908;  -28.950;  393.000;  229.000
830.160; -179.250;-1064.000;-1047.000
830.412;  -94.800; -481.000; -430.000
830.664; -126.600; -557.000; -665.000
830.916;  -87.600; -268.000; -206.000
831.167; -183.050;-1073.000; -951.000
831.419; -119.025; -623.000; -566.000
831.671; -159.375; -764.000; -809.000
831.923;  -84.900; -311.000; -447.000
832.174;  -83.500; -273.000; -331.000
832.426; -119.800; -493.000; -582.000
832.678; -191.400;-1043.000;-1091.000
832.929; -169.225; -947.000; -935.000
833.181;  -75.150; -575.000; -677.000
833.432;  -48.700;  -59.000; -186.000
833.684;  -27.025;  112.000;  -27.000
833.935; -121.300; -610.000; -566.000
834.187; -142.625; -829.000; -823.000
834.438;  -51.825;  -58.000;  -25.000
834.689;  -70.025; -255.000; -123.000
834.941;  -54.400; -343.000; -244.000
835.192; -112.825; -590.000; -533.000
835.443; -100.575; -419.000; -506.000
835.695;  -19.275;  138.000;  -16.000
835.946;  -82.300; -608.000; -378.000
836.197; -107.825; -599.000; -622.000
836.448;  -85.325; -528.000; -395.000
836.699;  -58.275; -253.000; -341.000
836.950;  -13.050;   72.000;    7.000
837.201; -158.850;-1003.000; -987.000
837.452;  -52.675; -356.000; -170.000
837.703; -119.650; -791.000; -737.000
837.954;  -29.600; -205.000; -365.000
838.205;  -96.975;-1029.000;-1008.000
838.456;  165.250; -196.000; -282.000
838.707;    0.275; -423.000; -519.000
838.958;    5.275; -634.000; -647.000
839.209;  273.925;   18.000;   40.000
839.460;  104.125; -439.000; -201.000
839.710;  164.500; -135.000; -297.000
839.961;  417.925;  730.000;  612.000
840.212;  361.000; -382.000; -497.000
840.462; 1138.850; -328.000; -277.000
840.713;18089.075; -571.000; -536.000
840.964; 7119.775;  -62.000; -143.000
841.214;  507.550; -384.000; -624.000
841.465;  576.250; -214.000; -141.000
841.715;  510.375; -417.000; -380.000
841.966;  682.775; -746.000; -685.000
842.216; 9502.950; -330.000; -431.000
842.466;35631.300; -169.000; -313.000
842.717; 1950.150; -964.000; -952.000
842.967;  335.325; -635.000; -641.000
843.217;  274.575;   20.000;   28.000
843.468;   82.775; -104.000; -132.000
843.718;  -50.925; -718.000; -726.000
843.968;  -80.925; -837.000; -765.000
844.218;   18.500; -315.000; -262.000
844.469;  -47.325; -577.000; -561.000
844.719; -115.150; -537.000; -682.000
844.969;  -96.475; -550.000; -580.000
845.219; -152.450; -814.000; -862.000
845.469;  -89.075; -392.000; -342.000
845.719; -150.250; -792.000; -884.000
845.969;  -27.325;  119.000;  174.000
846.219; -117.125; -738.000; -720.000
846.469;    8.250;  464.000;  432.000
846.718;  -62.625; -115.000;   31.000
846.968; -133.700; -827.000; -827.000
847.218;  -44.075; -224.000; -371.000
847.468;    3.950; -586.000; -555.000
847.718; -151.325; -827.000; -798.000
847.967; -128.600; -826.000; -915.000
848.217;  -92.300; -449.000; -569.000
848.467;  -77.100; -405.000; -376.000
848.716; -107.150; -708.000; -725.000
848.966;   10.850; -372.000; -358.000
849.215;  -64.825; -428.000; -419.000
849.465;  -84.975; -785.000; -615.000
849.714; -145.000;-1132.000;-1150.000
849.964;  -67.325; -551.000; -613.000
850.213;  -18.650; -393.000; -355.000
850.463;   73.900;  137.000;  340.000
850.712;   -7.750; -542.000; -567.000
850.961;    7.950; -739.000; -678.000
851.211;   99.400; -513.000; -504.000
851.460;  140.650; -635.000; -650.000
851.709;  570.825;  -25.000;   18.000
851.958;10409.225; -912.000; -750.000
852.208;12549.025; -859.000; -879.000
852.457;  460.500; -181.000;  -13.000
852.706;   48.150; -791.000; -823.000
852.955;    2.050; -507.000; -528.000
853.204;  -73.700; -521.000; -461.000
853.453;  -83.100; -418.000; -458.000
853.702; -128.775; -660.000; -750.000
853.951; -119.000; -532.000; -520.000
854.200; -120.375; -613.000; -562.000
854.449; -137.125; -695.000; -661.000
854.698; -103.400; -340.000; -279.000
854.946;  -71.500; -181.000; -284.000
855.195; -154.975; -843.000; -868.000
855.444;  -91.525; -395.000; -420.000
855.693; -129.000; -345.000; -432.000
855.941; -115.725; -387.000; -516.000
856.190;  -64.650; -256.000; -382.000
856.439; -136.675; -652.000; -703.000
856.687;  -62.475;  -99.000;  -72.000
856.936; -107.675; -621.000; -323.000
857.184; -194.250;-1067.000;-1020.000
857.433; -114.850; -423.000; -512.000
857.681; -177.350; -989.000; -953.000
857.930;  -86.600; -282.000; -433.000
858.178; -171.800; -856.000; -929.000
858.427; -159.050; -802.000; -781.000
858.675; -128.825; -377.000; -544.000
858.923; -117.475; -527.000; -819.000
859.172; -191.000;-1094.000;-1070.000
859.420;  -92.475; -339.000; -239.000
859.668; -138.300; -624.000; -628.000
859.916;  -36.925;  109.000;  115.000
860.164; -128.875; -699.000; -603.000
860.413;  288.200; -878.000; -696.000
860.661;  209.225; -709.000; -577.000
860.909;  -74.650; -339.000; -325.000
861.157;  -94.725; -277.000; -444.000
861.405; -125.975; -534.000; -670.000
861.653;   -1.150;  310.000;  310.000
861.901;  183.700; -543.000; -613.000
862.149;   -7.275; -801.000; -824.000
862.396;  -73.900; -297.000; -187.000
862.644; -108.750; -368.000; -347.000
862.892;  -30.850;   98.000;  138.000
863.140; -133.250; -549.000; -530.000
863.388; -159.225; -815.000; -759.000
863.635; -131.375; -642.000; -601.000
863.883;   -9.475;  231.000;  190.000
864.131; -119.400; -288.000; -357.000
864.378; -140.300; -675.000; -540.000
864.626; -104.425; -347.000; -415.000
864.873; -117.825; -556.000; -505.000
865.121; -145.000; -714.000; -799.000
865.368;  -60.600; -173.000;   75.000
865.616;  -52.475;  -33.000;  -40.000
865.863;  -86.475; -462.000; -506.000
866.111; -132.525; -795.000; -824.000
866.358;   13.350; -426.000; -420.000
866.605; 2107.000;  -64.000; -804.000
866.853; 2143.725; -621.000; -537.000
867.100;  -63.475; -728.000; -775.000
867.347; -107.500; -672.000; -611.000
867.594;  -84.325; -740.000; -714.000
867.841;   79.875;   97.000;   17.000
868.089; -149.625; -746.000; -698.000
868.336; -114.600; -477.000; -420.000
868.583; -146.925; -637.000; -741.000
868.830;  -56.550; -131.000; -170.000
869.077; -180.900; -859.000; -787.000
869.324; -123.800; -502.000; -458.000
869.571; -140.350; -398.000; -430.000
869.818; -135.700; -485.000; -439.000
870.065; -117.225; -439.000; -513.000
870.311; -111.500; -456.000; -542.000
870.558; -111.075; -332.000; -311.000
870.805;  -77.000; -320.000; -384.000
871.052; -114.225; -494.000; -369.000
871.298;  -52.050; -204.000; -131.000
871.545;  -75.550; -151.000; -185.000
871.792;  -94.000; -173.000; -222.000
872.038;  -81.450;   43.000; -126.000
872.285; -125.525; -496.000; -387.000
872.532; -109.250; -357.000; -387.000
872.778;  -14.475;  556.000;  403.000
873.025; -109.675; -384.000; -359.000
873.271;   13.475;  501.000;  578.000
873.517;  -29.150; -133.000; -209.000
873.764;  -38.000; -193.000;  -80.000
874.010;  -76.675; -143.000; -230.000
874.257;  -57.300;  123.000;   90.000
874.503; -135.775; -579.000; -479.000
874.749;  -70.950;   31.000;  275.000
874.995;  -79.175;  -80.000;  -20.000
875.242; -126.675; -540.000; -478.000
875.488; -121.150; -414.000; -439.000
875.734;  -62.275; -106.000; -234.000
875.980;  202.950; -872.000;-1032.000
876.226;  385.350; -157.000; -255.000
876.472;  -15.050;  343.000;  237.000
876.718;  -51.900;  184.000;  158.000
876.964;  -45.475;   56.000;   55.000
877.210; -144.350; -547.000; -677.000
877.456; -147.375; -630.000; -557.000
877.702; -174.100; -821.000; -832.000
877.948; -109.775; -377.000; -497.000
878.193;    5.950;  361.000;  255.000
878.439;  -95.025; -487.000; -472.000
878.685; -104.900; -272.000; -343.000
878.931; -139.450; -618.000; -676.000
879.176;  -77.550; -201.000; -201.000
879.422; -198.825; -933.000; -820.000
879.668;   60.175;   10.000;   79.000
879.913;  136.850;   53.000;  137.000
880.159;  -65.200; -112.000;  -17.000
880.404;  -73.950; -152.000; -162.000
880.650;  -56.975;   91.000;  141.000
880.895; -177.775; -670.000; -710.000
881.141; -141.425; -454.000; -428.000
881.386; -160.300; -503.000; -658.000
881.631;  -87.425; -311.000; -166.000
881.877;  -49.400;  112.000;  -13.000
882.122; -142.875; -684.000; -600.000
882.367; -104.450; -136.000; -186.000
882.612;  -80.075;  -80.000; -176.000
882.858; -179.150; -877.000; -823.000
883.103;  -95.450; -297.000; -267.000
883.348; -159.900; -759.000; -852.000
883.593; -145.400; -677.000; -602.000
883.838;  -66.050; -311.000;  -24.000
884.083;   14.550;  353.000;  288.000
884.328; -105.525; -564.000; -545.000
884.573;  -54.600; -196.000; -143.000
884.818;  193.550; -694.000; -531.000
885.063;  174.050; -348.000; -315.000
885.308; -108.325; -475.000; -398.000
885.553;  -14.400;  245.000;  325.000
885.797; -131.900; -545.000; -615.000
886.042;  -65.100;    8.000;   58.000
886.287;  -99.500; -253.000; -211.000
886.532;  -57.300;   26.000;  204.000
886.776; -103.450; -407.000; -525.000
887.021; -148.725; -621.000; -574.000
887.265; -162.700; -685.000; -689.000
887.510; -149.800; -557.000; -496.000
887.755;  -96.700; -194.000; -164.000
887.999; -157.000; -552.000; -575.000
888.244;  -80.400;  -58.000;  161.000
888.488;    1.725;  371.000;  393.000
888.732; -132.450; -368.000; -520.000
888.977; -136.875; -622.000; -567.000
889.221; -167.175; -683.000; -659.000
889.465; -132.425; -422.000; -566.000
889.710;  -80.000;  -56.000; -299.000
889.954;   -4.925;  579.000;  467.000
890.198; -161.125; -584.000; -707.000
890.442; -162.250; -716.000; -712.000
890.687; -181.700; -800.000; -753.000
890.931; -102.975; -273.000; -210.000
891.175; -146.975; -502.000; -500.000
891.419;  -85.950; -105.000; -110.000
891.663; -102.875; -239.000; -112.000
891.907; -173.775; -801.000; -545.000
892.151; -192.225; -920.000; -815.000
892.395; -121.700; -274.000; -387.000
892.638;  -33.625;  408.000;  291.000
892.882; -177.925; -780.000; -867.000
893.126;   10.100;  758.000;  558.000
893.370;  -95.825; -167.000; -168.000
893.614; -152.075; -714.000; -715.000
893.857;  -97.500; -183.000; -197.000
894.101; -138.475; -527.000; -631.000
894.345;  -52.950;  300.000;  150.000
894.588;    6.875;  569.000;  380.000
894.832;  -91.250; -178.000;  -84.000
895.075;  -91.500;   15.000;  -92.000
895.319; -122.075; -552.000; -420.000
895.563; -136.375; -413.000; -353.000
895.806; -155.675; -628.000; -741.000
896.049;  -78.200; -576.000; -368.000
896.293;   97.325;  527.000;  405.000
896.536;  -69.500; -465.000; -468.000
896.779;  -68.025; -149.000;   -1.000
897.023; -151.875; -751.000; -714.000
897.266;  -36.475;  325.000;  269.000
897.509; -187.350; -900.000; -901.000
897.752;  -62.250;  149.000;  171.000
897.996; -204.125; -972.000; -864.000
898.239;  -47.025;  168.000;  102.000
898.482; -136.825; -431.000; -453.000
898.725;  -43.675;  101.000;   53.000
898.968; -164.925; -609.000; -744.000
899.211; -105.575; -513.000; -361.000
899.454; -127.675; -633.000; -539.000
899.697;  -88.050;   90.000;  -43.000
899.940; -184.750; -761.000; -757.000
900.182;  -95.100; -335.000; -405.000
900.425;  -95.875; -150.000; -298.000
900.668;  -31.025;  491.000;  350.000
900.911; -104.750; -292.000; -345.000
901.154;  -54.050;  141.000;   -3.000
901.396; -142.100; -407.000; -412.000
901.639; -145.125; -430.000; -496.000
901.882; -194.650; -790.000; -809.000
902.124;  -84.550;  -29.000; -143.000
902.367; -139.525; -315.000; -361.000
902.609; -145.200; -476.000; -453.000
902.852;  -99.650; -108.000; -260.000
903.094; -131.800; -458.000; -337.000
903.337;  -70.875;  -26.000;   53.000
903.579; -112.150; -228.000; -441.000
903.821; -163.450; -597.000; -744.000
904.064;  -71.325;   85.000;  127.000
904.306; -101.625; -126.000; -166.000
904.548; -106.125; -152.000; -366.000
904.790; -121.025; -195.000; -340.000
905.033; -130.250; -625.000; -577.000
905.275; -144.300; -513.000; -524.000
905.517;   52.500;  468.000;  256.000
905.759;  -81.750; -667.000; -761.000
906.001; -100.500; -322.000; -369.000
906.243;  -61.525; -162.000; -224.000
906.485;  119.800; -265.000; -207.000
906.727;  107.750; -499.000; -542.000
906.969;  -18.700;  -30.000; -135.000
907.211;  113.325; -316.000; -382.000
907.453;  296.925; -188.000; -237.000
907.695;    0.625; -158.000; -385.000
907.936;   42.875;  818.000;  706.000
908.178;  -69.575;   92.000; -135.000
908.420;  -64.000; -111.000; -162.000
908.662; -152.700; -633.000; -682.000
908.903;  -98.975; -208.000; -123.000
909.145;  -70.875; -240.000; -305.000
909.386;    0.025;  315.000;  280.000
909.628;   31.550;  363.000;  397.000
909.870;  -12.400;   29.000;  264.000
910.111; -111.625; -809.000; -949.000
910.353;   -8.150; -123.000; -161.000
910.594;  -12.000; -574.000; -606.000
910.835;   75.400; -265.000; -326.000
911.077;  131.825; -503.000; -604.000
911.318;  290.825; -505.000; -471.000
911.559;  452.900; -577.000; -880.000
911.801; 1328.275; -284.000; -280.000
912.042;10508.625;  -50.000; -159.000
912.283;26596.550;  404.000;  371.000
912.524; 3991.150; -396.000; -457.000
912.765;  473.800; -193.000;   79.000
913.006;  225.750; -307.000; -338.000
913.247;   39.325; -270.000; -290.000
913.488;  -10.025;  -43.000;   30.000
913.729;  -96.050; -373.000; -373.000
913.970;  -82.300;  -96.000; -292.000
914.211;  -70.175; -160.000; -198.000
914.452;  -71.950; -118.000;  -11.000
914.693;   -2.400;  510.000;  592.000
914.934;   -4.700;  510.000;  440.000
915.175;  -68.000;   53.000;  -95.000
915.415;  -90.075; -137.000;   27.000
915.656;  -64.925;  -28.000;  192.000
915.897; -104.975; -252.000;  -82.000
916.137;  -76.450;   74.000;   -9.000
916.378; -145.250; -573.000; -517.000
916.619;  -85.100; -159.000;  -63.000
916.859;  -30.225;  303.000;  330.000
917.100;  124.525; 1655.000; 1070.000
917.340;   48.875;  930.000;  728.000
917.581;   55.575;  965.000;  789.000
917.821;  -42.250; -171.000;  143.000
918.061;    2.900; -199.000;  -72.000
918.302;  -67.725; -152.000; -211.000
918.542;  -32.050;  -22.000;    3.000
918.782;   16.250;  369.000;  377.000
919.023;  116.325;  360.000;  427.000
919.263; 1352.250; 8131.000;  202.000
919.503; 1134.225; -137.000;  -54.000
919.743;  646.775;  390.000;  266.000
919.983;  260.375; -134.000;  -26.000
920.223;   61.850;  135.000;   14.000
920.463;  141.925;  631.000;  554.000
920.703;  116.200;   84.000;   39.000
920.943;  152.600; -110.000;   90.000
921.183;  211.300; -414.000; -405.000
921.423;  502.650;  307.000;  546.000
921.663;  703.650; -174.000; -257.000
921.903; 1554.950;  237.000;  173.000
922.143; 8592.000;  372.000;  389.000
922.383;32902.150;  158.000;  115.000
922.622;10915.450; -120.000;  -15.000
922.862; 1179.975;  796.000;  785.000
923.102;  436.100;  -51.000;   33.000
923.341;  185.000;   59.000;   74.000
923.581;   61.775;  450.000;  360.000
923.821;   19.575;  301.000;  398.000
924.060;  -17.025;  351.000;  193.000
924.300;  -64.275;  -16.000; -128.000
924.539;  -31.075;  584.000;  473.000
924.779;   20.200;  812.000;  597.000
925.018;  -55.525;  247.000;  353.000
925.257;  -11.400;  595.000;  666.000
925.497;  -61.450;  447.000;  412.000
925.736;  -92.075;  -35.000;  102.000
925.975;   -7.050;  687.000;  669.000
926.214;   21.725;  907.000;  850.000
926.454;    1.150;  706.000;  757.000
926.693;  -32.125;  419.000;  543.000
926.932;   27.425; 1021.000;  825.000
927.171;   67.925; 1107.000; 1044.000
927.410;   59.125; 1144.000;  967.000
927.649;   17.575;  924.000;  742.000
927.888;  -20.125;  590.000;  564.000
928.127;  -19.750;  680.000;  678.000
928.366;   16.975;  842.000;  826.000
928.605;   33.525;  831.000;  737.000
928.844;  225.475; 1451.000; 1393.000
929.083;  608.950;  770.000;  613.000
929.321;  317.750; 1335.000; 1359.000
929.560;   96.125; 1158.000; 1122.000
929.799;  -36.125;  574.000;  475.000
930.038;   92.000; 1025.000; 1394.000
930.276;  -69.325;  334.000;  397.000
930.515;   -2.750;  827.000;  681.000
930.753;  -32.575;  614.000;  589.000
930.992;  -22.425;  664.000;  717.000
931.230;  -15.825;  847.000;  847.000
931.469;  158.500; 2162.000;  892.000
931.707;   65.900;  840.000;  751.000
931.946;   49.300; 1278.000; 1344.000
932.184;   44.775; 1437.000; 1175.000
932.423;   49.800; 1265.000;  963.000
932.661;   98.225; 1296.000; 1428.000
932.899;   33.225;  987.000;  821.000
933.137;    2.575;  754.000;  564.000
933.376;  147.950; 1664.000; 1335.000
933.614;  165.525; 1759.000; 1196.000
933.852;   55.525; 1357.000; 1171.000
934.090;  125.050; 1722.000; 1747.000
934.328;  107.900; 1252.000; 1457.000
934.566;   96.250; 1431.000; 1110.000
934.804;  136.625; 1263.000; 1309.000
935.042;  409.650; 1861.000; 1850.000
935.280; 1697.575; 2088.000; 2063.000
935.518; 1587.525; 2113.000; 2007.000
935.756;  348.600; 2481.000; 2316.000
935.994;  162.950; 1808.000; 1751.000
936.231;  340.575; 2890.000; 2950.000
936.469;  197.150; 2367.000; 2378.000
936.707;  169.250; 2220.000; 2167.000
936.945;  223.400; 2825.000; 2882.000
937.182;  191.600; 2679.000; 2741.000
937.420;  288.800; 3602.000; 3031.000
937.657;  433.225; 3365.000; 3478.000
937.895;  340.950; 3331.000; 3488.000
938.133;  325.525; 3540.000; 3528.000
938.370;  346.900; 3896.000; 4191.000
938.607;  405.400; 4488.000; 4205.000
938.845;  552.125; 5587.000; 5549.000
939.082;  490.125; 5387.000; 5177.000
939.320;  528.275; 5799.000; 5728.000
939.557;  652.850; 6549.000; 6491.000
939.794;  735.200; 7285.000; 7097.000
940.031;  911.700; 8421.000; 8368.000
940.269; 1131.775; 9552.000; 9107.000
940.506; 1145.350;10901.000;10507.000

