
Integration time [ms]: 200.000
Averaging Nr. [scans]: 10
Smoothing Nr. [pixels]: 0
Data measured with spectrometer [name]: 2101013U2
Wave   ;Sample   ;Dark     ;Reference
[nm]   ;[counts] ;[counts] ;[counts] 

394.013;  -81.726; -450.257; -315.536
394.305; -164.826; -461.258; -419.536
394.596; -160.636; -676.269; -527.514
394.887; -199.835; -796.268; -654.518
395.178;  -10.931;  145.736;   11.476
395.470;  -76.630; -210.263; -356.526
395.761;  124.567;  305.734;  394.479
396.052; -127.849; -545.284; -306.489
396.343; -134.642; -557.276; -454.503
396.634;  -80.645; -200.279; -290.497
396.926; -129.635; -618.268; -565.517
397.217;  -32.641;   11.725;  -17.504
397.508;  -79.540; -366.273; -154.507
397.799; -181.145; -555.279; -571.497
398.090; -242.545; -973.280; -902.495
398.381;  -32.656;   11.708;  -11.473
398.672; -190.356; -585.292; -742.473
398.963;  -97.344; -348.279; -373.498
399.254;   23.345;   54.709; -209.475
399.545; -248.233;-1017.266; -883.520
399.836;  -70.343; -407.277; -343.501
400.127;  -53.959; -205.295; -209.468
400.418;  -60.440; -423.274; -392.506
400.709;  -85.947; -359.281; -333.493
401.000;  -70.055; -268.291; -309.476
401.290;   48.035;  225.698;  115.545
401.581;  -22.050; -166.286; -228.485
401.872; -144.261; -542.298; -486.462
402.163;  -90.159; -313.296; -252.467
402.454;  -61.355; -123.291; -163.475
402.744; -226.560; -844.297; -813.465
403.035;  -87.457; -226.293;  -86.471
403.326;  -97.356; -366.292; -384.474
403.617;   39.538;  204.701;  165.539
403.907; -145.448; -593.283; -679.490
404.198; -166.770; -545.307; -599.446
404.489; -164.448; -618.283; -588.491
404.779; -184.565; -618.302; -660.456
405.070;   -0.767;  -67.304; -174.451
405.360;  -91.657; -259.293; -238.472
405.651;   51.437;  125.699;   98.542
405.942;   55.249;  209.714;  127.516
406.232; -150.349; -432.285; -413.487
406.523;  203.842;  641.706;  758.530
406.813; -161.751; -579.286; -644.484
407.104;   88.744;  261.708;  144.527
407.394; -202.862; -604.299; -591.462
407.685;   42.250;  336.715;  222.513
407.975; -127.448; -400.283; -382.490
408.265;  -53.454; -134.289; -190.478
408.556; -129.955; -472.291; -459.475
408.846;  168.042;  474.706;  429.530
409.137;  -35.853;   -1.288; -216.480
409.427; -109.949; -193.285; -271.487
409.717; -203.539; -776.273; -692.508
410.007;    1.050;    4.715; -170.486
410.298;  -84.158; -360.295; -342.469
410.588; -140.450; -495.285; -510.486
410.878; -216.952; -792.287; -873.482
411.168; -118.361; -481.298; -478.463
411.459;  -65.948; -295.283; -242.489
411.749; -169.256; -609.292; -507.474
412.039; -194.153; -755.289; -386.480
412.329;   59.956;   40.722;  132.501
412.619;  -48.251;  -62.286; -148.485
412.909;  168.947;  639.711;  594.521
413.199;  -36.545; -130.280; -251.495
413.490;  131.846;  521.710;  352.523
413.780; -245.845;-1013.279; -913.496
414.070;   35.958;  -46.276;  235.497
414.360; -173.944; -729.278; -666.498
414.650; -192.652; -726.288; -688.482
414.940; -130.545; -538.280; -441.496
415.230;   15.848;   50.712;   74.519
415.520;   54.464;  155.730;   66.486
415.809;  -57.047; -305.281; -125.493
416.099;  -87.743; -388.277; -229.501
416.389;  144.460;  435.726;  236.494
416.679;   55.470;   91.738;   85.473
416.969; -140.751; -527.287; -503.483
417.259;   66.255;  341.721;  171.503
417.549;  115.953;  522.718;  318.508
417.838;  -44.235; -205.268; -147.518
418.128;  145.646;  650.710;  492.522
418.418; -166.539; -491.272; -579.509
418.708;   19.460;    9.726;  -48.506
418.997; -107.341; -474.275; -480.505
419.287; -222.140; -733.273; -790.507
419.577;  -53.048; -160.283; -123.489
419.866; -157.543; -588.277; -498.501
420.156;  -12.937; -242.270;  -55.513
420.446;  -65.331; -112.263;  -26.526
420.735; -119.537; -376.271; -446.512
421.025;  551.156; 1830.722;  315.502
421.314;  -64.837; -203.271; -226.512
421.604;   18.165;   89.732;  233.484
421.893; -179.438; -705.271; -602.511
422.183; -151.331; -487.263; -461.526
422.472;  -22.338;  -36.271; -107.511
422.762; -122.033; -416.266; -379.521
423.051; -279.842; -916.276; -916.503
423.341; -155.240; -491.273; -439.507
423.630;  -19.732; -121.265;   15.477
423.919;   -5.141;   58.725;   49.495
424.209;  -19.430;  -31.263;   56.473
424.498;    7.765;   68.732;  161.483
424.787; -133.634; -535.267; -601.518
425.077;   -3.732;   34.735;   29.478
425.366; -201.330; -734.262; -744.528
425.655;  210.760;  639.727;  259.493
425.945;  -69.817; -313.247; -268.554
426.234;   33.173;  117.741;  300.467
426.523;  -73.327;  -86.259; -350.534
426.812;   61.467;  107.734;  159.480
427.101;  -13.336; -127.269; -323.515
427.390;    3.264;  -55.270;  -86.514
427.680; -145.825; -624.257; -411.538
427.969; -117.724; -330.255; -301.540
428.258; -148.126; -385.257; -477.536
428.547;   60.262;  449.728;  397.490
428.836; -116.022; -421.253; -398.543
429.125;  -66.827; -199.259;  -72.534
429.414; -104.420; -330.251; -294.548
429.703;  -68.120; -231.251; -213.548
429.992; -289.620; -938.250; -828.549
430.281; -151.931; -397.264; -331.524
430.570;   16.079;  -21.252;   32.454
430.859;   53.473;  279.741;  352.466
431.148;  174.583;  636.752;  631.446
431.437;   82.879;  391.748;  367.454
431.725; -145.226; -544.257; -481.536
432.014; -270.621; -845.253; -756.545
432.303;  -23.610; -149.239; -105.569
432.592; -127.531; -460.263; -178.525
432.881; -216.017; -601.248; -437.554
433.169; -105.324; -343.255;  -61.540
433.458;  123.594;  445.765;  540.424
433.747; -125.829; -397.261; -289.529
434.036; -110.412; -275.242; -280.564
434.324; -185.018; -395.249; -379.551
434.613;   22.287;   40.757;  159.437
434.902;   87.289;  333.760;  439.433
435.190;   20.390;   75.761;  295.431
435.479;  -33.314;  -52.245;   83.441
435.767; -129.214; -411.244; -427.561
436.056; -134.312; -340.242; -294.563
436.345; -131.510; -372.240; -223.568
436.633;   48.481;   60.750;  383.450
436.922;   87.090;  208.760;  414.432
437.210;  -78.707; -194.236;    1.426
437.499; -193.606; -583.235; -432.576
437.787;  -61.807; -339.236;  -10.574
438.075;  -35.809;   56.761;  162.430
438.364;   -0.609;  -44.238;  250.429
438.652;  -83.198; -286.226; -138.592
438.941;  -21.102;    3.770;  269.415
439.229; -198.721; -665.252; -466.545
439.517;  -85.906; -160.234;  -85.577
439.806; -145.797; -501.225; -290.595
440.094;   88.795;  377.766;  650.421
440.382; -162.004; -653.233; -302.580
440.670; -118.806; -361.235; -285.576
440.959; -154.995; -347.223; -170.599
441.247;  -90.501; -151.229; -109.587
441.535;  -73.106; -266.235;   31.423
441.823; -160.005; -497.234; -305.578
442.111;   50.200;  173.771;  327.412
442.400; -194.914; -628.245; -335.559
442.688;  -57.505; -111.234; -620.579
442.976; -235.286; -786.213; -450.617
443.264; -166.496; -324.224; -364.597
443.552;  -76.998; -258.226;   51.408
443.840;  172.994;  602.765;  876.423
444.128;   76.296;  265.767;  269.420
444.416; -204.000; -694.228; -312.588
444.704; -132.992; -465.219;  -92.605
444.992;  -57.098;   -0.226;  240.407
445.280; -139.902; -517.230;  -94.585
445.568; -188.186; -694.212; -396.618
445.856;  -41.494; -174.221;  357.398
446.143;  -65.792;  -54.220;   -7.604
446.431;   -8.700;  -25.228;  625.411
446.719;  139.610;  489.783;  675.391
447.007;  109.598;  481.769;  705.416
447.295;  147.505;  597.777;  871.402
447.583; -115.501; -464.229;  -34.587
447.870; -132.394; -434.221; -202.601
448.158;  -21.002; -104.230;  129.415
448.446; -229.592; -800.219; -338.604
448.733;   -2.796;   13.776;  269.403
449.021;   -9.786;   60.788;  341.382
449.309;  -50.484; -296.210;  208.379
449.596;   37.709;  128.783;   59.392
449.884; -193.495; -571.222; -325.600
450.172; -239.599; -756.227; -406.590
450.459;  157.012;  645.786;  780.387
450.747; -153.691; -411.218; -147.608
451.034;  173.400;  493.772;  889.411
451.322; -128.088; -413.214; -170.614
451.609;   28.104;  292.777;  508.403
451.897; -139.278; -550.203; -183.634
452.184; -199.795; -622.223; -400.598
452.472;  -18.782;   97.792;  269.375
452.759;  144.508;  512.781;  864.395
453.047; -152.386; -407.212; -125.617
453.334; -190.392; -732.219; -216.606
453.621; -159.087; -438.214; -161.615
453.909;  -17.079;   13.796;  384.368
454.196;  -73.074; -299.199; -123.641
454.483;    8.923;  317.798;  540.364
454.771;  -76.782; -215.208;  196.374
455.058;  -96.582; -316.207;  102.374
455.345;   28.731;   71.807;  344.347
455.632;  -43.881; -128.207;  235.373
455.919;  -22.972;  -82.196;  182.354
456.207; -248.674; -774.198; -450.642
456.494; -159.776; -475.200;  -66.639
456.781; -128.277; -399.202; -198.635
457.068;  -63.281; -253.206;  -29.628
457.355; -197.981; -698.206; -401.629
457.642; -156.180; -552.205; -290.630
457.929; -189.170; -778.194; -417.651
458.216; -169.386; -575.212; -354.617
458.503;  -65.269; -173.193;  -19.652
458.790; -243.982; -864.208; -630.625
459.077;  -61.577;  -77.202;  110.364
459.364; -123.471; -350.195; -210.649
459.651;  -23.381;  -46.206;  220.372
459.938; -286.483; -864.209; -665.623
460.225;  -11.477;  132.799;  276.363
460.512; -286.172; -836.197; -688.645
460.799;   15.209;  -32.218;  320.392
461.086; -109.975; -370.200; -251.640
461.372; -155.074; -509.198; -279.642
461.659;  -32.072; -165.196;  108.354
461.946; -124.870; -445.193;  -54.651
462.233;  229.125;  842.800;  888.361
462.519; -261.376; -814.201; -464.639
462.806; -223.972; -768.197; -497.645
463.093; -137.867; -445.191;  -66.656
463.380; -292.863; -920.186; -824.664
463.666;  -57.972; -259.197;  -18.646
463.953; -104.971; -406.195; -243.648
464.239;  -85.071; -173.195;  -77.648
464.526;   94.730;  413.806;  743.350
464.813; -145.066; -565.190; -304.658
465.099;  114.731;  606.807;  607.348
465.386;  179.831;  903.807;  921.348
465.672; -231.472; -694.197; -522.645
465.959; -200.164; -598.188; -520.662
466.245; -135.769; -468.193; -359.652
466.532;  -20.971; -109.195;   63.352
466.818; -114.063; -357.186; -216.664
467.104; -183.659; -488.182; -415.672
467.391; -188.966; -628.189; -459.658
467.677;  -95.263; -289.186;    9.335
467.964; -205.965; -682.189; -471.660
468.250; -125.063; -331.186; -160.665
468.536;   12.934;   90.811;  180.341
468.822; -233.862; -821.184; -574.668
469.109;  106.049;  351.827;  471.311
469.395;  179.232;  729.808;  787.346
469.681;   32.034;   46.811;  156.341
469.967; -214.565; -699.188; -382.660
470.254;  -94.364; -494.188; -306.662
470.540; -203.972; -601.196; -476.646
470.826; -166.158; -488.181; -397.675
471.112;  -15.461;  288.816;  113.331
471.398;  -71.061; -253.183;  -58.670
471.684; -164.055; -626.177; -447.680
471.970; -296.458; -918.180; -981.675
472.256; -158.068; -521.192; -441.654
472.542; -161.050; -499.171; -434.691
472.828; -224.260; -743.182; -607.672
473.114; -136.346; -380.166; -283.700
473.400; -176.654; -504.175; -293.684
473.686; -122.045; -452.166; -400.701
473.972;  -76.952; -230.174; -131.687
474.258; -281.151; -925.173; -843.689
474.544;  -42.256; -183.178;   -2.679
474.830;   -8.254;  -65.175;   45.316
475.116; -106.866; -123.190; -196.658
475.401; -150.358; -558.180; -467.676
475.687; -240.058; -725.180; -718.676
475.973; -196.159; -673.181; -770.673
476.259;  169.447;  736.825;  764.315
476.544; -163.455; -539.176; -437.682
476.830; -133.751; -398.172; -322.690
477.116;  -57.055; -430.177; -336.682
477.401;   86.542;  346.820;  358.324
477.687; -119.954; -289.175; -405.684
477.973;    0.141;   21.819;   28.326
478.258; -127.843; -448.163; -348.706
478.544;  -53.162;   21.815;   61.334
478.829; -242.250; -818.171; -738.692
479.115; -186.351; -749.172; -651.690
479.401; -101.553; -444.174; -449.686
479.686;  -81.558; -253.180;  -74.676
479.972; -250.656; -886.178; -776.680
480.257;  -81.946; -258.166;  -65.700
480.542; -152.149; -614.170; -469.693
480.828;  352.246; 1288.824; 1392.317
481.113; -161.554; -464.176; -426.683
481.399; -102.641; -236.161; -202.711
481.684; -177.546; -620.166; -462.700
481.969;  -42.739; -158.159;  -73.713
482.255; -142.548; -439.169; -285.695
482.540; -182.956; -569.178; -441.680
482.825; -154.664; -395.187; -404.663
483.110;  -36.348;  -85.169; -105.696
483.396; -225.337; -840.157; -652.718
483.681;  178.848;  543.826;  730.313
483.966; -246.840; -696.160; -700.712
484.251; -124.152; -404.174; -310.687
484.536; -126.845; -356.165; -378.703
484.822; -124.952; -205.173; -218.687
485.107; -160.833; -599.152; -502.726
485.392;  148.956;  662.836;  541.296
485.677;    2.353;  354.832;  163.302
485.962;   41.362;  160.843;  270.283
486.247;   -7.942;  -14.162;   -8.707
486.532; -112.946; -178.166; -325.701
486.817;   79.959;  381.839;  431.291
487.102; -190.435; -453.154; -514.722
487.387; -207.237; -637.156; -652.718
487.672;  -34.644; -154.164;  -38.705
487.957;  -89.841; -394.160; -286.711
488.241;  -85.332; -290.150; -314.729
488.526;  -98.733; -280.152; -148.726
488.811; -296.155; -881.177; -818.680
489.096; -228.935; -666.154; -702.723
489.381;  -34.334;    3.847;  162.275
489.666; -149.841; -428.161; -510.710
489.950;  174.165;  558.846;  627.277
490.235; -173.732; -480.151; -458.728
490.520; -216.141; -756.161; -723.710
490.804; -235.137; -827.156; -736.719
491.089; -117.830; -469.149; -299.732
491.374;  -30.544; -132.164;  -75.704
491.658; -213.529; -817.147; -717.735
491.943; -189.333; -657.152; -609.727
492.227;  -69.936; -178.155;  -38.721
492.512; -127.538; -294.157; -341.717
492.797; -215.831; -713.149; -716.731
493.081; -217.429; -588.147; -598.735
493.366; -218.041; -751.161; -635.711
493.650;  209.876;  831.859;  917.254
493.935; -172.529; -648.147; -447.734
494.219; -214.425; -778.142; -687.743
494.503; -192.831; -585.150; -487.730
494.788;   -7.138;   46.842;   74.285
495.072;   65.568;  184.850;  434.271
495.356; -128.630; -463.148; -343.733
495.641; -267.128; -812.146; -736.736
495.925; -266.536; -976.156; -903.719
496.209; -155.230; -599.149; -451.732
496.494; -216.625; -763.142; -544.744
496.778; -113.435; -364.154; -360.722
497.062; -237.136; -819.156; -627.719
497.346; -251.640; -869.160; -640.711
497.631;  114.570;  580.852;  560.266
497.915;  -14.527;  -64.145;  175.261
498.199; -129.937; -341.157; -277.718
498.483; -151.934; -562.152; -508.725
498.767;   66.968;  301.850;  300.271
499.051;  -53.031; -126.149; -100.732
499.335; -231.731; -693.149; -739.731
499.619; -158.213; -381.129; -423.767
499.903;  -89.736; -272.155;  -65.721
500.187; -180.634; -588.153; -316.724
500.471; -252.033; -796.152; -595.727
500.755;  -51.641;   62.839;  -96.710
501.039; -110.836; -270.155; -357.721
501.323;   31.877;  -21.141;  264.254
501.607; -116.643; -447.163; -503.706
501.891; -161.737; -607.156; -512.718
502.174; -195.926; -726.144; -585.741
502.458;   32.267;   89.849;  370.273
502.742;  -65.121; -180.138; -191.751
503.026; -145.829; -412.147; -254.734
503.310; -118.940; -437.159; -375.713
503.593; -145.729; -464.147; -325.735
503.877;  -67.217; -232.133; -156.760
504.161;  -78.534;    2.847;  -50.724
504.444; -272.538; -841.158; -710.716
504.728; -183.244; -487.164; -522.704
505.012;  -78.532; -257.150;  -76.729
505.295; -120.841; -417.161; -212.711
505.579;  -77.036; -256.156; -496.719
505.862; -169.727; -555.145; -333.738
506.146; -211.939; -681.159; -758.714
506.429;   89.561;  568.841;  461.286
506.713; -224.432; -732.151; -667.728
506.996;    5.765;   90.846;  295.278
507.280; -216.044; -633.165; -474.703
507.563; -117.436; -469.155; -261.721
507.847; -179.834; -423.153; -112.724
508.130; -187.241; -665.161; -456.711
508.413; -192.246; -758.167; -577.700
508.697;  -24.246; -151.167;   12.300
508.980; -135.634; -422.153; -312.724
509.263; -154.836; -466.155; -450.720
509.547;  -57.032; -124.150;   82.271
509.830;  -15.140; -172.160;  140.289
510.113;   23.164;  128.844;  298.281
510.396; -154.734; -530.152; -300.725
510.680; -242.227; -818.145; -812.738
510.963;   24.465;  184.846;  180.277
511.246; -167.031; -493.150; -357.730
511.529; -121.427; -482.145;  -83.739
511.812;  -65.617; -250.134;   10.241
512.095; -182.332; -740.151; -396.728
512.378;  -97.729; -317.147; -245.736
512.661; -201.520; -703.137; -623.753
512.944; -193.125; -750.142; -637.744
513.227;  -81.420; -170.137; -171.752
513.510; -142.426; -479.144; -671.741
513.793; -163.723; -485.140; -435.747
514.076;  -41.011;  -43.127;  -39.771
514.359;  -93.530; -294.149; -135.732
514.642; -175.024; -442.142; -567.744
514.925;  138.477;  581.860;  561.253
515.208; -175.618; -498.134; -443.758
515.491;  -98.716; -276.133; -182.761
515.773; -147.026; -410.143; -337.742
516.056;   45.780;  249.864;  409.246
516.339; -268.419; -754.136; -652.755
516.622; -147.831; -518.150; -488.730
516.904;  271.475;  882.857;  975.257
517.187; -237.421; -730.138; -523.752
517.470; -137.925; -568.143; -510.743
517.752; -203.719; -624.136; -470.756
518.035; -199.922; -708.139; -725.749
518.318; -253.019; -799.136; -744.755
518.600; -125.116; -300.132; -325.762
518.883;   38.776;  310.858;   88.256
519.165; -188.021; -585.138; -426.751
519.448;  -66.416;  -61.132;  -19.762
519.730; -200.911; -573.126; -415.773
520.013;  130.483;  588.867;  664.240
520.295;  -53.817;  -94.134;  -15.759
520.578; -120.815; -335.131; -305.764
520.860;  -66.916; -254.132;   56.238
521.143; -232.219; -763.135; -584.756
521.425;  -95.309; -251.125; -279.775
521.707; -174.811; -622.127; -380.771
521.990;  -27.711; -199.127;  167.229
522.272;  -56.923; -116.140;   -4.748
522.554; -118.926; -237.143; -157.742
522.836;  -82.917;  -24.134;   99.241
523.119; -142.729; -496.148; -189.734
523.401; -157.314; -448.130; -314.766
523.683; -266.520; -865.137; -693.753
523.965;   42.679;  408.862;  260.248
524.247;    2.293;   54.878;  170.220
524.529; -189.417; -451.134; -367.759
524.812;  -51.814;   -3.130;  191.234
525.094; -270.421; -773.138; -631.751
525.376;  -60.408; -143.124;   78.223
525.658; -168.019; -441.136; -339.754
525.940; -264.715; -805.131; -671.764
526.222; -111.419; -188.136;  -88.755
526.504;  -62.215; -190.131;   32.237
526.786; -288.417; -960.133; -647.760
527.068;  -91.408; -124.123;  -67.778
527.349; -282.920; -865.137; -774.754
527.631;  -46.916; -137.132;   22.238
527.913; -216.211; -664.127; -450.771
528.195; -250.910; -761.125; -639.774
528.477;  -75.118;  -93.134;  -30.758
528.759; -224.714; -648.130; -522.766
529.040; -172.508; -569.123; -293.778
529.322;  -89.210; -235.125;  -10.774
529.604;  -35.714;  -47.130;   93.233
529.886; -164.811; -546.126; -302.773
530.167;    4.086;  232.870;  192.235
530.449;   -1.029;    1.853;   63.265
530.731; -213.007; -572.122; -459.779
531.012; -187.105; -513.120; -216.784
531.294;  -41.001; -118.116;  -43.792
531.575;   87.791;  290.875;  538.225
531.857; -189.318; -548.135; -266.757
532.138; -110.323; -113.141;   40.254
532.420;  -15.318;  294.865;  403.244
532.701; -266.217; -722.133; -751.760
532.983;   46.584;  232.867;  182.239
533.264;  -51.811; -243.126;  175.228
533.546; -142.619; -491.136; -508.755
533.827;  -25.917;  173.867;   -1.759
534.109; -167.518; -352.135;  -80.757
534.390; -221.816; -725.132; -582.762
534.671;  -93.319; -270.135;  -82.756
534.953; -243.908; -751.123; -611.779
535.234; -162.103; -426.117; -255.789
535.515; -277.704; -891.119; -735.785
535.796; -145.312; -431.128; -193.770
536.078; -321.508;-1050.124; -904.777
536.359;  -71.408;  -22.123;    3.221
536.640; -140.910; -480.125; -197.774
536.921;    3.887;  225.871;  143.232
537.202;  -78.821;  -87.138;  -16.751
537.483;   43.685;  251.869;  377.236
537.764;  -41.214;   17.870;   98.235
538.045; -198.118; -543.134; -371.758
538.326; -209.713; -596.129; -447.768
538.607; -222.011; -686.127; -476.771
538.888;  -67.306;   98.879;    5.218
539.169; -228.807; -704.122; -535.781
539.450;   -7.913;  236.871;   16.233
539.731; -137.706; -361.121; -182.783
540.012;   14.495;  199.880;  412.216
540.293;  -33.409;   82.876;  158.224
540.574; -321.999; -895.113; -717.796
540.855;   62.694;  435.879;  377.218
541.136;   17.593;   47.878;  139.220
541.416;  -83.614; -161.130; -220.766
541.697; -158.015; -274.131; -170.763
541.978; -130.918; -270.135; -315.757
542.259; -125.411; -211.127; -236.771
542.539; -133.402; -191.116; -186.790
542.820;   76.391;  461.875;  480.225
543.101;  -92.727;  -52.145;  -77.738
543.381; -256.211; -638.127; -591.771
543.662;  -28.911;  159.873; -254.771
543.942; -286.512; -751.127; -830.770
544.223;  -23.007;  193.878;  161.219
544.504; -132.208; -275.124; -182.777
544.784; -199.311; -592.126; -408.773
545.065; -122.002;  104.884; -254.791
545.345;  -67.804;  227.881;   14.215
545.626;  -51.699;  -14.113; -108.796
545.906;  -34.714;   77.869;   98.235
546.186; -109.110;   92.874;  -95.773
546.467;  -82.208;   99.877;  -95.778
546.747;   43.298;  264.884;  327.210
547.027;  -15.709;   91.876;  111.223
547.308; -187.012; -376.127; -530.770
547.588;   46.087;  299.871;  371.232
547.868;   79.286;  458.870;  588.235
548.149;  104.999;  609.885;  593.207
548.429;  -90.611; -347.127; -299.771
548.709; -229.705; -645.120; -461.784
548.989;  -34.303;   84.882;   88.213
549.269; -144.216;   10.868;  139.239
549.550;  -35.608;  215.877;  117.222
549.830; -255.198; -758.111; -556.799
550.110; -167.997; -468.110; -320.801
550.390; -119.107; -128.122;  -56.779
550.670; -289.500; -868.114; -783.795
550.950; -205.106; -509.121; -471.782
551.230;  112.194;  549.879;  460.218
551.510; -168.906; -381.121; -326.782
551.790;  -68.196; -173.109; -127.803
552.070;  250.392;  940.877; 1181.223
552.350; -150.104; -492.119; -377.786
552.630;   -2.206;   -2.121;   77.219
552.909;   42.999;  181.884;   73.209
553.189;  -88.115;  -49.132;   33.237
553.469; -225.404; -703.119; -514.786
553.749; -223.311; -469.127; -357.772
554.029;  -52.602;   33.883;  -24.790
554.308;  -94.300; -154.115;  -37.794
554.588; -118.112; -196.128; -204.770
554.868; -142.306; -366.121;  -47.782
555.147; -115.901; -114.115;  -46.793
555.427; -138.901; -260.116; -250.792
555.707; -100.701; -284.115; -200.793
555.986; -240.797; -719.111; -538.800
556.266;  -30.202;   23.884;   72.210
556.546; -287.006; -888.121; -675.782
556.825; -246.100; -657.114; -556.794
557.105; -100.212; -125.128;   17.230
557.384;  -11.102;  122.884;  187.209
557.664; -236.501; -717.116; -508.792
557.943; -206.906; -557.121; -411.782
558.222; -137.303; -345.118; -344.788
558.502;  -81.601; -116.115;  -76.793
558.781;   52.099;  194.885;  499.208
559.061; -136.403; -232.118; -227.788
559.340;   31.497;  302.883;  353.211
559.619;  -31.402;   93.884;  148.210
559.899; -138.202; -239.117; -266.789
560.178; -231.901; -778.115; -593.793
560.457; -252.602; -623.117; -562.790
560.736; -193.397; -472.111; -482.800
561.015; -218.812; -500.128; -502.769
561.295;  -30.994;  180.893;  215.193
561.574;  -32.501;  119.885;  116.207
561.853;   58.604;  274.891;  303.197
562.132;  -39.200;  -45.114;  182.206
562.411;   72.494;  396.879;  553.219
562.690; -206.801; -592.115; -458.792
562.969;  130.101;  472.888;  630.203
563.248;  805.693; 2966.878; 2487.219
563.527; -157.697; -290.111; -408.800
563.806; -254.911; -650.127; -521.771
564.085;  -71.892; -297.105; -206.810
564.364; -184.502; -594.117; -405.790
564.643; -139.306; -276.121; -223.781
564.922;   35.704;  221.890;  397.198
565.201; -219.696; -640.109; -700.803
565.479; -121.401; -297.115; -219.792
565.758; -253.912; -810.128; -712.770
566.037; -104.496; -155.109; -100.803
566.316; -105.002; -286.116;  -28.791
566.595;  -63.101;  -17.115;  -12.793
566.873;  104.603; -166.111;  -79.801
567.152; -196.799; -490.113; -590.797
567.431;  -53.402; -113.116;    6.210
567.709;  -93.594; -344.107; -212.807
567.988; -268.000; -810.114; -769.794
568.266;  -70.501; -160.115;  -68.793
568.545; -194.988; -644.100; -514.819
568.824;   21.299;  160.885;  356.208
569.102; -140.900; -351.114; -235.794
569.381; -188.701; -492.116; -407.792
569.659; -232.299; -553.113; -553.796
569.938; -236.107; -743.122; -465.780
570.216; -117.995; -225.109; -225.804
570.494; -241.900; -632.114; -572.795
570.773;   26.994;  202.879;  114.218
571.051; -147.108; -373.123; -357.778
571.330;  -74.599; -221.113; -174.796
571.608; -105.586; -181.098; -173.823
571.886; -253.398; -671.111; -581.799
572.164; -253.306; -739.121; -621.782
572.443; -173.992; -562.105; -512.811
572.721; -144.502; -399.117; -289.790
572.999; -125.703; -280.117; -168.788
573.277;   89.307;  379.894;  620.191
573.555;  -64.893;   94.894;   37.190
573.834; -110.703;  -86.117; -114.788
574.112;  196.406;  880.893;  811.193
574.390;  -89.397; -143.111;  -96.801
574.668;  -91.999;  -91.112;  -61.797
574.946; -132.993; -165.106; -187.810
575.224;  -39.796;   71.891;  -16.803
575.502; -129.002; -200.116; -204.791
575.780; -245.798; -767.112; -829.798
576.058;  263.103; 1589.889; 1004.200
576.336; -109.697; -210.110; -129.801
576.614; -180.698; -511.112; -340.798
576.891; -247.700; -711.115; -823.794
577.169; -149.195; -158.108; -285.805
577.447;   59.706;  169.893;  202.193
577.725;  151.702;  629.888;  854.201
578.003; -124.498;  -71.112; -371.798
578.280;  -89.591; -208.104; -242.812
578.558; -197.201; -450.115; -422.793
578.836; -125.600; -210.114; -145.795
579.114; -225.199; -630.112; -670.797
579.391;  -54.203;   -6.117;  -18.789
579.669; -241.000; -595.114; -704.794
579.947; -126.294; -326.107; -127.806
580.224; -208.694; -692.107; -524.806
580.502;  -44.194;  127.893;   76.193
580.779;  -30.902;  -42.117;   75.210
581.057; -206.095; -584.109; -470.804
581.334; -250.190; -726.102; -695.815
581.612;   14.908;   54.895;  511.190
581.889; -114.988;  -83.101; -129.818
582.167; -102.387; -298.099; -190.821
582.444; -273.889; -845.102; -814.817
582.721;  150.611;  657.899;  715.183
582.999;  -63.787; -326.100; -167.821
583.276; -263.807; -812.123; -713.779
583.553; -140.589; -364.102; -294.816
583.831; -240.692; -607.104; -631.812
584.108;   14.705;  349.892;  174.195
584.385; -108.790; -122.102;  -98.815
584.662; -254.897; -651.111; -828.801
584.940;   -3.197;  204.889;  204.199
585.217; -112.799;  -73.113; -303.796
585.494;  -17.896;   71.890;  118.198
585.771; -131.595; -250.109; -354.804
586.048;  -82.199; -196.113;  -76.796
586.325; -269.697; -721.110; -773.801
586.602;    1.309;  230.896;  213.188
586.879; -227.388; -499.100; -580.820
587.156;  -83.492; -156.105; -331.810
587.433; -251.989; -701.102; -667.817
587.710;  -30.098;  152.888;  234.202
587.987; -140.292; -264.105; -236.811
588.264;   56.302;  315.888;  387.202
588.541;  -50.591;  -61.104;   26.187
588.818;  -50.295;   72.892;  171.196
589.095;  -92.591; -163.104; -174.812
589.371; -208.796; -459.109; -414.804
589.648; -209.594; -581.107; -437.807
589.925; -212.800; -517.114; -621.795
590.202; -237.898; -741.112; -607.798
590.478;  -80.292; -166.105;  -73.811
590.755; -118.594; -241.108; -132.806
591.032; -260.196; -741.110; -699.802
591.308; -295.182; -732.094; -790.831
591.585; -187.296; -573.110; -560.802
591.862; -327.189;-1056.102; -950.817
592.138; -172.495; -475.108; -474.805
592.415; -192.791; -486.104; -495.813
592.691;  123.209;  460.896;  518.188
592.968; -128.586; -208.098; -123.824
593.244; -246.902; -695.116; -595.790
593.521;  -91.889; -105.102;  -42.817
593.797; -272.607; -810.122; -720.780
594.074; -235.785; -611.096; -588.826
594.350;  163.217;  828.905;  729.172
594.626; -127.897; -303.111; -283.801
594.903; -229.889; -643.101; -645.817
595.179;   17.909;  243.896;  418.187
595.455;  -92.294; -136.107; -150.807
595.731;  -99.691;  -19.103;  -38.814
596.008; -172.297; -464.111; -434.800
596.284;  -87.687; -187.100; -242.820
596.560; -201.381; -501.093; -493.833
596.836; -114.992; -173.105;  -70.810
597.112; -201.395; -582.108; -437.805
597.388;  -93.285;  -49.097;  -48.826
597.665;   42.401;  437.887;  530.203
597.941; -239.178; -572.089; -658.839
598.217; -107.196; -323.110; -293.802
598.493; -108.495;   61.891; -204.804
598.769; -117.288; -175.100;  -50.819
599.045; -219.094; -490.108; -562.806
599.321; -159.587; -193.100; -261.820
599.597; -146.695; -355.109; -476.804
599.872;   68.509;  409.896;  429.187
600.148;  -85.885;  -61.097; -172.826
600.424;   20.606;   91.893;  202.193
600.700;  -77.094; -170.107; -280.807
600.976; -170.785; -442.097; -464.825
601.252; -122.696; -226.109; -272.803
601.527; -299.291; -833.104; -840.813
601.803; -155.192; -453.105; -404.812
602.079;  -93.488; -124.100; -118.819
602.354; -194.980; -620.092; -531.835
602.630; -125.199; -140.113; -482.796
602.906; -291.088; -910.101; -863.818
603.181; -191.204; -627.119; -534.786
603.457;  -35.085;   98.903; -278.826
603.733; -232.106; -605.120; -626.783
604.008;  -93.192; -245.106; -164.810
604.284; -209.789; -636.101; -580.817
604.559;  -44.098;   -3.112;  -42.799
604.835; -116.192; -163.105; -225.810
605.110; -258.887; -732.099; -892.821
605.385;   70.419;  224.907;  267.167
605.661; -249.783; -625.095; -729.829
605.936; -245.494; -664.108; -737.806
606.211;  -52.890;  -17.103; -170.815
606.487; -148.000; -329.114; -376.794
606.762; -260.404; -791.119; -745.786
607.037; -187.792; -501.105; -433.810
607.313; -203.084; -589.096; -574.828
607.588;  -99.893; -375.106; -137.810
607.863;  -91.388;  -28.101; -143.818
608.138;   85.304;  513.890;  516.198
608.413; -209.287; -576.099; -592.822
608.688; -124.495; -203.108; -267.805
608.964; -152.193; -509.106; -218.809
609.239;  -75.692; -107.105; -212.810
609.514;   25.308;  281.895;  240.188
609.789; -249.291; -187.104; -716.812
610.064; -153.984; -435.096; -609.827
610.339; -280.796; -855.109; -799.804
610.614; -131.387; -131.100; -315.820
610.889;   -0.492;  215.895;  107.188
611.163; -196.892; -407.104; -591.812
611.438;  -93.800;   81.886; -167.794
611.713; -205.389; -467.101; -499.817
611.988; -109.289; -144.101; -328.818
612.263; -239.690; -771.102; -717.815
612.538;   74.301;  385.887;  251.204
612.812; -271.087; -832.100; -911.820
613.087; -147.986; -358.098; -338.823
613.362; -184.894; -497.107; -557.807
613.637;   -0.590;  261.897;  138.186
613.911;  -68.980; -256.092; -345.835
614.186; -124.494; -249.107; -292.807
614.460; -291.571; -842.081; -758.854
614.735;  -69.176;  -55.087;  -17.843
615.010;  -31.477;   43.912;  -82.841
615.284;   26.705;  360.892;  246.195
615.559; -277.180; -792.092; -955.835
615.833;  -83.787;  -76.099;  -87.822
616.108;  -99.879; -225.090; -390.837
616.382;   58.824;  274.913;  402.156
616.656;  -83.679; -241.090; -232.837
616.931; -290.187; -785.099; -700.822
617.205; -347.091; -973.104; -979.813
617.480;  -88.110;  -91.125;    6.225
617.754; -142.310; -396.125; -128.774
618.028; -153.713; -369.129; -382.768
618.302;  -42.495;   73.892;  -25.805
618.577; -182.190; -371.103; -518.815
618.851; -179.596; -399.109; -600.803
619.125; -172.217; -335.134; -378.759
619.399; -118.791; -244.104; -374.813
619.673; -154.601; -330.115; -515.792
619.947; -174.800; -333.114; -448.795
620.222; -109.897; -198.110; -204.801
620.496;  -78.806;  -47.121;  -96.782
620.770;  -93.907; -187.122;  -93.781
621.044;   74.008;  323.895;  346.190
621.318; -198.006; -653.120; -614.783
621.592; -129.206; -430.121; -409.783
621.866; -207.598; -476.112; -572.799
622.140;  -85.002; -207.116; -356.791
622.413;    8.103;  138.889;  112.200
622.687; -179.289; -746.101; -492.817
622.961;  -37.795; -130.108; -143.805
623.235; -241.297; -633.111; -661.800
623.509; -275.892; -816.105; -848.811
623.783;   -8.694;  -12.107;   48.193
624.056; -112.905; -254.120; -280.783
624.330;   10.401;   63.888;   -3.797
624.604;  -74.202; -271.116; -355.790
624.877;   -4.096;  180.890;   26.198
625.151; -107.800; -249.114; -238.794
625.425;  -94.791; -150.103; -283.814
625.698; -164.305; -367.119; -374.785
625.972; -254.996; -799.110; -765.802
626.245;   95.998;  685.884;  484.210
626.519; -130.205; -426.120; -340.784
626.792;  -70.794; -192.107; -380.807
627.066; -200.107; -485.122; -662.779
627.339; -244.497; -736.110; -663.802
627.613;   47.895;  351.880;  148.216
627.886;    8.304;  187.891; -612.803
628.160; -107.006;  312.880; -161.783
628.433; -263.009; -695.125; -703.775
628.706; -196.305; -517.120; -615.784
628.979;   34.891;  296.876;  117.223
629.253; -284.004; -785.119; -833.786
629.526; -112.111; -334.126; -253.772
629.799; -191.708; -641.123; -479.778
630.072; -189.713; -497.128; -516.769
630.346; -345.502;-1115.116;-1080.790
630.619; -146.794; -467.107; -545.808
630.892;  121.803;  709.889;  593.200
631.165;  197.109;  790.896;  679.187
631.438; -347.198;-1092.112;-1055.798
631.711;   76.092;  453.877;  257.221
631.984; -176.002; -523.117; -624.789
632.257; -215.703; -636.117; -681.789
632.530; -146.104; -412.119; -433.785
632.803;   55.300; -109.115;    7.207
633.076; -137.908; -360.123; -422.777
633.349;    9.988;  173.872;  121.231
633.622; -105.305; -187.119; -240.785
633.895; -317.505; -903.120; -823.783
634.167; -150.311; -496.126; -525.773
634.440;  -36.201;  -19.116; -137.792
634.713;  -19.404;  -22.119; -120.786
634.986;  137.387;  593.871;  453.233
635.258; -190.201; -507.115; -597.793
635.531;  153.897;  742.882; -343.788
635.804; -117.603; -303.117; -318.789
636.077; -278.402; -830.116; -852.791
636.349; -174.801; -586.115; -474.793
636.622;  511.389; 1695.874; 1392.228
636.894; -178.105; -474.120; -909.784
637.167; -244.911; -836.127; -789.771
637.439;  -91.612; -278.128; -213.770
637.712; -148.211; -312.126; -293.772
637.984; -226.302; -635.116; -707.791
638.257;  142.392;  515.877;  488.222
638.529; -294.609; -881.125; -924.776
638.802; -192.813; -508.128; -449.769
639.074; -312.007; -927.122; -952.781
639.346; -309.018; -942.135; -930.757
639.619;  -13.424;  -79.142; -319.744
639.891;  -82.107;  -83.122; -168.779
640.163; -223.907; -689.122; -756.780
640.435;   13.993;  273.878;  103.220
640.708;  -42.507;  -72.122; -132.780
640.980; -129.607; -366.122; -362.781
641.252;  -16.806;  -25.121;  -71.781
641.524;  136.794;  580.879;  573.219
641.796; -314.406;-1094.121; -907.782
642.068; -104.306; -191.121; -300.782
642.340; -168.106; -486.121; -566.783
642.613;   61.494;  294.880;  323.217
642.885; -237.905; -787.120; -878.783
643.157; -256.405; -810.120; -658.784
643.428;   48.595;  170.880;  218.216
643.700; -167.205; -498.120; -425.784
643.972;  -75.805;  -16.119; -133.785
644.244; -179.504; -474.119; -559.785
644.516; -115.804; -250.119; -114.786
644.788;  129.596;  662.881;  548.214
645.060;  -28.804;  -12.119; -124.786
645.332; -197.304; -525.118; -535.787
645.603;  108.796;  479.882;  342.213
645.875; -117.203; -334.118; -369.787
646.147;  372.497; 1487.882; 1242.212
646.418; -309.303; -931.117; -918.788
646.690; -230.603; -714.117; -715.789
646.962; -175.403; -413.117; -451.789
647.233;  -16.602;   15.883;   11.211
647.505; -173.602; -595.117; -475.790
647.776;   80.398;  328.884;  229.210
648.048; -108.002; -248.116; -418.790
648.320; -253.702; -752.116; -679.791
648.591; -305.002;-1055.116; -958.791
648.862; -154.801; -505.116; -577.792
649.134;  -10.001;  115.885;  198.208
649.405; -200.901; -661.115; -618.792
649.677; -190.201; -475.115; -598.793
649.948;  -95.801; -181.115; -296.793
650.219;  -36.400;  -37.115; -147.793
650.491; -138.200; -431.114; -520.794
650.762; -230.700; -705.114; -731.794
651.033; -157.700; -437.114; -424.795
651.304; -279.800; -743.114; -728.795
651.576; -195.800; -680.114; -645.795
651.847;  -74.499; -250.113; -140.796
652.118;  -50.199;  -32.113; -189.796
652.389; -185.399; -639.113; -722.796
652.660;  -42.199; -147.113;  -89.797
652.931; -301.799; -897.112; -871.797
653.202; -159.698; -382.112; -541.798
653.473; -193.898; -633.112; -533.798
653.744; -187.598; -595.112; -590.798
654.015; -133.898; -356.112; -303.799
654.286; -195.498; -642.111; -663.799
654.557; -186.098; -586.111; -521.799
654.828; -340.997;-1114.111;-1088.800
655.099; -131.197; -404.111; -291.800
655.370; -182.497; -427.111; -543.801
655.641; -239.097; -656.110; -714.801
655.911; -230.197; -618.110; -638.801
656.182;   66.404;  437.890;  387.198
656.453;  202.004;  830.890;  746.198
656.724; -151.196; -466.110; -426.802
656.994; -170.496; -553.109; -568.803
657.265; -285.496; -862.109; -873.803
657.536; -164.496; -500.109; -377.804
657.806; -200.895; -561.109; -593.804
658.077; -259.395; -866.109; -950.804
658.347; -152.895; -523.108; -598.805
658.618; -245.495; -646.108; -694.805
658.888;  -32.095;  -41.108;  112.195
659.159; -184.494; -432.108; -548.806
659.429; -134.594; -292.108; -349.806
659.700; -155.194; -435.107; -390.807
659.970; -149.294; -370.107; -359.807
660.241; -262.594; -754.107; -921.807
660.511;  -58.994; -147.107; -174.808
660.781; -229.493; -793.106; -748.808
661.052; -110.793; -222.106; -381.808
661.322;  -30.393;   21.894;   -9.809
661.592;   23.607;  257.894;  148.191
661.862; -153.993; -369.106; -382.810
662.133; -200.792; -551.105; -502.810
662.403; -229.292; -770.105; -676.810
662.673;  -83.692; -256.105; -213.811
662.943; -187.692; -612.105; -551.811
663.213;  -58.392;  -85.105;  -81.811
663.483; -167.092; -593.104; -568.812
663.753; -102.091; -194.104; -152.812
664.023;   -9.491;   68.896;  -32.813
664.293; -102.491; -319.104; -126.813
664.563; -214.991; -694.104; -648.813
664.833; -254.991; -743.103; -608.814
665.103; -243.790; -730.103; -793.814
665.373; -258.990; -766.103; -806.814
665.643; -299.890; -863.103; -918.815
665.913; -212.890; -534.103; -714.815
666.182; -251.990; -685.102; -719.816
666.452;  -83.489;  -22.102;  -89.816
666.722; -256.189; -724.102; -784.816
666.992; -312.689; -948.102; -921.817
667.261; -253.789; -824.102; -808.817
667.531;  -50.789;  134.899;   45.183
667.801; -152.189; -440.101; -412.818
668.070;  165.512;  714.899;  697.182
668.340; -264.288; -883.101; -840.819
668.609;  111.212;  588.900;  301.181
668.879; -217.288; -490.100; -558.819
669.149; -192.588; -539.100; -516.820
669.418; -207.387; -698.100; -726.820
669.688; -192.887; -482.100; -666.820
669.957; -203.687; -423.099; -546.821
670.226; -123.687; -268.099; -331.821
670.496; -199.887; -431.099; -635.822
670.765; -159.587; -418.099; -501.822
671.034; -269.686; -872.099; -828.822
671.304;  -22.286;   55.902; -111.823
671.573; -344.886;-1085.098; -957.823
671.842; -113.386; -380.098; -294.823
672.112; -207.986; -692.098; -586.824
672.381; -129.685; -239.098; -214.824
672.650; -307.685;-1005.097;-1021.825
672.919; -202.585; -631.097; -507.825
673.188; -251.285; -681.097; -878.825
673.457; -378.885;-1101.097;-1143.826
673.726; -214.885; -579.096; -646.826
673.995; -137.184; -533.096; -479.826
674.265; -129.884; -263.096; -333.827
674.534; -109.884; -183.096; -235.827
674.802; -170.784; -618.096; -703.828
675.071; -259.784; -886.095; -801.828
675.340; -164.983; -464.095; -339.828
675.609;    5.917;  103.905;   82.171
675.878; -275.083; -949.095; -893.829
676.147;  -33.983;  -26.095;   -8.829
676.416;  -97.183; -210.094; -294.830
676.685;  302.617; 1000.906; -622.830
676.953; -193.782; -603.094; -452.831
677.222;  -96.282; -193.094; -273.831
677.491;  -32.882;  -24.094; -127.831
677.759;  -41.582;   11.907;  172.168
678.028;  -93.082; -279.093; -222.832
678.297;  -28.281;   71.907;  197.168
678.565; -276.681; -898.093; -944.833
678.834;  -88.881; -311.093; -268.833
679.102; -119.781; -411.092; -391.834
679.371; -313.281; -898.092; -727.834
679.639; -295.681; -797.092; -786.834
679.908; -239.980; -794.092; -724.835
680.176; -289.580; -895.091; -941.835
680.445; -150.080; -346.091; -352.835
680.713;  -15.380;  -58.091;  -23.836
680.982; -208.180; -523.091; -525.836
681.250; -205.079; -578.091; -507.837
681.518; -212.579; -534.090; -751.837
681.787;  -79.479; -204.090; -167.837
682.055; -176.279; -490.090; -422.838
682.323; -299.479; -993.090; -992.838
682.591;  -89.579; -216.090; -538.838
682.859;  -56.778;    9.911;  -35.839
683.128;   21.622;  232.911;  497.161
683.396; -316.878;-1102.089;-1122.840
683.664;  -73.078; -241.089;   21.160
683.932;   21.222;  144.911;  -76.840
684.200; -171.477; -576.088; -320.841
684.468;  -56.077;  -73.088; -124.841
684.736; -110.477; -214.088; -175.841
685.004; -301.477;-1024.088; -982.842
685.272; -259.077; -880.088; -774.842
685.540; -170.777; -499.087; -557.843
685.808; -255.676; -651.087; -682.843
686.076; -300.876; -894.087; -969.843
686.343; -219.076; -601.087; -815.844
686.611;  -37.576; -195.087; -224.844
686.879; -174.276; -530.086; -553.844
687.147; -172.575; -483.086; -480.845
687.414;  -72.875;  -12.086; -169.845
687.682; -242.475; -658.086; -757.846
687.950;   44.725;  259.915;  263.154
688.217; -258.275; -792.085; -760.846
688.485; -199.375; -632.085; -636.847
688.753;  -64.074;  -11.085; -102.847
689.020; -287.974; -820.085; -851.847
689.288; -270.274; -853.084; -787.848
689.555;  -91.174; -195.084; -148.848
689.823; -101.374; -241.084; -345.849
690.090; -201.073; -546.084; -651.849
690.358; -322.373; -877.084; -897.849
690.625;    9.427;  120.917;   45.150
690.892; -191.773; -403.083; -369.850
691.160;  -41.073;   72.917;  -35.850
691.427;   15.327;  141.917;  130.149
691.694; -298.272; -855.083; -929.851
691.962; -339.972;-1177.082;-1060.852
692.229;  -28.572;  127.918;   56.148
692.496;   -9.472;  130.918;  -49.852
692.763;  -87.672; -164.082; -201.853
693.031; -212.671; -739.082; -716.853
693.298; -199.571; -509.081; -368.853
693.565; -101.971; -155.081; -163.854
693.832;  -60.371;   -5.081;   -9.854
694.099; -200.571; -643.081; -642.855
694.366; -295.371; -882.081; -896.855
694.633; -272.970; -920.080; -633.855
694.900; 1325.630; 4367.920; -114.856
695.167;  -44.270; -214.080; -380.856
695.434; -203.570; -646.080; -623.856
695.701;   10.230;  121.921;  -61.857
695.968; -152.469; -365.079; -361.857
696.234; -197.969; -415.079; -646.858
696.501; -217.669; -776.079; -614.858
696.768; -216.869; -554.079; -617.858
697.035; -228.169; -632.078; -667.859
697.302; -205.469; -448.078; -552.859
697.568; -148.568; -458.078; -497.859
697.835; -231.268; -683.078; -624.860
698.102; -155.968; -498.078; -407.860
698.368;   85.232;  384.923;  396.139
698.635; -135.968;  -47.077; -424.861
698.901; -103.667; -240.077; -348.861
699.168; -144.567; -534.077; -456.862
699.435;  -94.467;  -72.077;  -13.862
699.701; -316.767; -868.076; -764.862
699.968; -130.367;  144.924; -441.863
700.234; -252.467; -783.076; -822.863
700.500; -160.966; -448.076; -539.864
700.767;  -24.666;   -1.075;   26.136
701.033; -300.066;-1015.075; -963.864
701.299; -179.266; -450.075; -483.865
701.566;  196.234;  950.925;  763.135
701.832;    1.135;  -31.075;  -76.865
702.098; -305.365;-1054.074;-1034.866
702.365; -341.565;-1098.074;-1030.866
702.631; -321.565;-1038.074;-1063.867
702.897; -200.865; -765.074; -676.867
703.163;   40.235;  348.926;  254.133
703.429;  -91.764; -256.073; -273.868
703.695; -225.464; -796.073; -792.868
703.961;  -76.564; -214.073; -210.868
704.227; -191.564; -630.073; -725.869
704.493;  148.236;  613.927;  510.131
704.759; -196.063; -565.072; -540.870
705.025;  -79.263; -203.072; -194.870
705.291; -167.263; -666.072; -562.870
705.557;  182.637;  719.928;   34.129
705.823; -219.563; -742.072; -694.871
706.089; -148.263; -307.071; -326.871
706.355;  -98.562; -315.071; -244.872
706.620; -252.562; -776.071; -729.872
706.886; -133.162; -309.071; -362.873
707.152; -279.962; -818.070; -973.873
707.418; -381.262;-1153.070;-1186.873
707.683; -175.461; -550.070; -530.874
707.949; -212.861; -547.070; -578.874
708.215; -113.461; -129.070; -207.874
708.480; -170.661; -520.069; -420.875
708.746;  -18.361;   68.931;   28.125
709.011; -209.161; -578.069; -612.876
709.277; -188.260; -538.069; -543.876
709.542; -145.960; -428.069; -387.876
709.808;  -68.460;  -59.068;   89.123
710.073; -207.760; -577.068; -695.877
710.339; -129.160; -242.068; -228.877
710.604; -262.459; -780.068; -845.878
710.869; -131.759; -277.068; -366.878
711.135; -200.459; -715.067; -628.879
711.400; -187.759; -507.067; -608.879
711.665; -147.059; -404.067; -479.879
711.931; -238.059; -661.067; -677.880
712.196; -267.558; -876.067; -954.880
712.461; -155.058; -402.066; -490.880
712.726; -258.858; -727.066; -771.881
712.991; -220.458; -647.066; -664.881
713.256; -141.258; -350.066; -332.882
713.521; -179.357; -417.065; -381.882
713.787; -149.257; -454.065; -472.882
714.052; -135.057; -214.065; -400.883
714.317; -349.157;-1045.065; -981.883
714.581; -152.157; -374.065; -268.883
714.846; -298.657; -822.064; -888.884
715.111;   45.744;  261.936;  257.116
715.376;  -75.356;  -86.064; -223.885
715.641; -153.156; -365.064; -367.885
715.906; -144.456;   15.936; -551.885
716.171;   13.144;  221.937;  209.114
716.436;  -42.555;  -78.063; -104.886
716.700; -232.055; -818.063; -692.886
716.965; -268.855; -794.063; -807.887
717.230; -134.555; -339.063; -392.887
717.494;  -46.655;  -40.062; -134.888
717.759; -225.854; -784.062; -640.888
718.024;   11.046;  269.938;  250.112
718.288;  154.146;  685.938;  395.111
718.553; -272.354; -803.062; -977.889
718.817; -305.354; -883.061; -899.889
719.082;  -32.154; -115.061; -125.890
719.346; -311.753;-1000.061; -947.890
719.611;  -66.353; -300.061; -255.891
719.875; -213.053; -568.060; -537.891
720.140; -169.353; -453.060; -603.891
720.404;  -99.153; -136.060; -249.892
720.668; -148.352; -475.060; -411.892
720.933;  -11.152;  146.940;  137.108
721.197; -246.552; -667.059; -600.893
721.461; -290.552; -851.059; -826.893
721.725;    8.448;  -21.059; -250.894
721.990; -104.752; -284.059; -204.894
722.254;  -50.951;  -26.059; -108.894
722.518; -167.451; -286.058; -442.895
722.782; -208.351; -743.058; -594.895
723.046;  157.749;  614.942;  570.105
723.310;   58.049;  374.942;  210.104
723.574; -199.250; -654.058; -614.896
723.838; -196.150; -576.057; -642.897
724.102;  -66.850; -226.057; -239.897
724.366; -274.850;-1032.057; -978.897
724.630; -231.650; -749.057; -571.898
724.894; -207.250; -722.057; -514.898
725.158;  -74.049;   38.944; -295.898
725.422; -126.549; -394.056; -327.899
725.685; -167.949; -441.056; -349.899
725.949; -227.149; -566.056; -519.900
726.213; -258.649; -732.056; -811.900
726.477; -316.048;-1020.055; -933.900
726.740;  -67.048; -274.055; -104.901
727.004; -164.348; -384.055; -510.901
727.268; -186.448; -442.055; -400.901
727.531; -274.348; -961.055; -775.902
727.795; -224.048; -713.054; -673.902
728.059; -190.347; -552.054; -557.903
728.322; -224.747; -841.054; -669.903
728.586; -183.347; -692.054; -701.903
728.849; -233.347; -695.053; -756.904
729.112; -252.847; -812.053; -912.904
729.376; -281.546; -959.053; -905.904
729.639; -172.046; -536.053; -536.905
729.903; -237.346; -733.053; -699.905
730.166; -133.946; -437.052; -399.906
730.429; -133.146; -317.052; -468.906
730.693; -151.146; -355.052; -894.906
730.956;  171.355;  810.948;  651.093
731.219;  -68.045; -310.052; -103.907
731.482; -315.945;-1003.051; -894.907
731.745; -278.445; -794.051; -935.908
732.009;  -37.545;  -30.051;   50.092
732.272; -236.244; -904.051; -771.909
732.535; -111.144; -300.051; -310.909
732.798; -371.044;-1083.050;-1166.909
733.061; -130.644; -430.050; -456.910
733.324;    0.956;   31.950; -180.910
733.587;  101.256;  290.950;  365.090
733.850; -208.243; -973.049;-1050.911
734.113;    8.957;   33.951;   32.089
734.376; -170.243; -328.049; -447.912
734.639;  324.357; 1188.951; 1011.088
734.901; -103.643; -180.049; -402.912
735.164; -278.842; -883.048; -837.913
735.427;  -50.842; -166.048; -355.913
735.690; -110.942; -205.048; -234.913
735.952; -318.542; -923.048; -925.914
736.215; -314.942;-1113.048;-1009.914
736.478; -261.342; -771.047; -774.915
736.740;  -29.141;   33.953;  129.085
737.003; -206.841; -658.047; -672.915
737.266;  213.159;  -94.047;   46.084
737.528; -220.941; -682.047; -660.916
737.791; -141.541; -316.046; -327.916
738.053;   80.760;  465.954;  649.083
738.316;  -82.940; -162.046; -136.917
738.578; -245.640; -770.046; -736.918
738.841; -129.840; -382.046; -446.918
739.103; -219.240; -875.045; -777.918
739.365;  -22.140;   79.955;  -69.919
739.628; -263.539; -884.045; -805.919
739.890; -220.639; -758.045; -710.919
740.152; -239.839; -692.044; -754.920
740.414; -160.639; -408.044; -359.920
740.677; -216.939; -785.044; -634.921
740.939; -235.238; -587.044; -487.921
741.201; -174.138; -432.044; -572.921
741.463; -221.138; -689.043; -745.922
741.725;  -53.638;  -21.043; -199.922
741.987;    8.262;  220.957;  116.078
742.249; -265.938; -751.043; -859.923
742.511; -236.837; -703.043; -794.923
742.773; -163.637; -546.042; -546.924
743.035;  126.663;  796.958;  533.076
743.297; -336.937; -963.042;-1013.924
743.559;  -70.737; -278.042; -262.925
743.821; -272.336; -735.042; -744.925
744.083; -139.236;  -44.041; -149.925
744.345; -286.036; -869.041; -892.926
744.607;    2.364;   75.959;  122.074
744.868; -198.636; -490.041; -554.927
745.130; -338.736; -994.041;-1008.927
745.392;   -6.235;   -1.040;  -44.927
745.653; -143.035; -411.040; -378.928
745.915;  168.965;  896.960;  631.072
746.177;  -60.335;   35.960;  -43.928
746.438; -181.835; -428.040; -543.929
746.700; -307.834; -947.039; -988.929
746.961; -268.034; -659.039; -740.930
747.223;  -65.434; -190.039;  -74.930
747.484; -179.534; -391.039; -471.930
747.746;  -51.034;  -23.038; -106.931
748.007; -258.334; -647.038; -689.931
748.269; -130.633; -468.038; -440.931
748.530; -183.433; -852.038; -638.932
748.791; -157.633; -354.038; -420.932
749.053;   40.167;  286.963;  163.067
749.314;  -71.733; -236.037; -169.933
749.575; -286.932; -945.037; -905.933
749.836;  -53.332; -217.037;   86.066
750.098;  -60.032;  -60.037;  -21.934
750.359;   85.468;  414.964;  555.066
750.620;  -41.532; -121.036; -220.935
750.881; -221.532; -585.036; -513.935
751.142; -312.731; -950.036; -938.936
751.403; -247.831; -789.036; -705.936
751.664; -340.431;-1034.035; -999.936
751.925;  -87.331; -175.035; -262.937
752.186;  -88.531; -298.035; -278.937
752.447; -192.430; -590.035; -445.937
752.708; -206.630; -532.035; -648.938
752.969; -222.030; -566.034; -576.938
753.230; -279.430; -777.034; -672.939
753.491; -235.230; -650.034; -631.939
753.751;  -20.630;  109.966;   19.061
754.012;   53.471;  258.967;  181.060
754.273;  -55.929; -174.033;  -71.940
754.534; -196.329; -487.033; -580.940
754.794; -292.329; -926.033; -911.941
755.055;  216.471; 1051.967;  881.059
755.316; -195.628; -700.032; -566.942
755.576; -186.328; -606.032; -576.942
755.837; -179.828; -527.032; -695.942
756.097; -195.428; -530.032; -564.943
756.358; -254.128; -725.032; -770.943
756.618; -217.928; -705.031; -641.943
756.879;  -89.927; -254.031; -349.944
757.139; -353.927;-1098.031;-1116.944
757.400; -203.227; -538.031; -553.945
757.660; -119.627; -365.031; -401.945
757.920;  -87.027; -266.030; -228.945
758.181; -132.026; -468.030; -351.946
758.441; -289.626; -870.030; -809.946
758.701; -142.326; -308.030; -215.946
758.961; -114.926; -220.030; -278.947
759.222; -202.226; -574.029; -502.947
759.482; -224.126; -683.029; -723.948
759.742; -233.725; -706.029; -547.948
760.002;  -80.425;  -83.029; -143.948
760.262;  -38.325;   50.972;  182.051
760.522; -188.925; -498.028; -574.949
760.782; -223.825; -738.028; -612.949
761.042; -190.424; -618.028; -573.950
761.302;  -15.824;   55.972;  -18.950
761.562;  -22.824; -164.027; -154.951
761.822; -184.224; -710.027; -551.951
762.082; -367.324;-1104.027;-1093.951
762.342; -141.124; -328.027; -403.952
762.601; -177.623; -567.027; -506.952
762.861; -102.623; -281.026; -207.952
763.121; -137.023; -406.026; -411.953
763.381; -158.123; -499.026; -485.953
763.640;  -82.023; -139.026; -307.954
763.900; -115.222; -242.026; -203.954
764.160; -141.722; -458.025; -491.954
764.419; -245.122; -726.025; -782.955
764.679; -246.222; -795.025; -726.955
764.939;  -74.622; -124.025; -210.955
765.198; -233.722; -608.025; -563.956
765.458; -220.421; -710.024; -612.956
765.717; -229.521; -454.024; -590.957
765.976; -160.221; -428.024; -411.957
766.236; -182.521; -475.024; -610.957
766.495;  -24.621;  260.977;   73.042
766.755; -307.820;-1090.023; -987.958
767.014; -195.320; -594.023; -665.958
767.273; -150.920; -373.023; -397.959
767.533; -152.220; -228.023; -307.959
767.792;  -46.820; -151.022; -188.960
768.051; -134.920; -228.022; -276.960
768.310; -200.319; -546.022; -650.960
768.569;  -38.519; -161.022;    4.039
768.828; -119.019; -285.022; -363.961
769.088; -333.919;-1050.021; -942.961
769.347; -248.719; -755.021; -599.962
769.606; -296.618; -876.021; -857.962
769.865; -317.918;-1016.021;-1033.963
770.124; -120.318; -411.021; -336.963
770.383; -269.118; -778.020; -910.963
770.641; -207.118; -398.020; -400.964
770.900; -303.517; -953.020; -846.964
771.159; -307.817; -851.020; -951.964
771.418; -285.017; -917.020; -779.965
771.677;  -90.517; -224.019; -293.965
771.936; -266.217; -794.019; -865.966
772.194; -264.317; -465.019; -437.966
772.453; -123.516; -213.019; -391.966
772.712;   54.184;  416.982;  329.033
772.970;  -10.616;   32.982;   63.033
773.229;  -19.616;  -22.018;  102.033
773.488; -267.216; -814.018; -770.968
773.746;   46.385;  296.982;  335.032
774.005;   -8.415;  190.983;  -22.969
774.263;   30.085;  243.983;  177.031
774.522; -203.815; -422.017; -548.969
774.780; -153.215; -484.017; -417.970
775.039; -178.915; -551.017; -531.970
775.297;  -48.214; -135.016; -351.970
775.555; -188.314; -489.016; -612.971
775.814; -246.414; -618.016; -570.971
776.072; -214.814; -749.016; -740.971
776.330; -179.614; -630.016; -520.972
776.589; -254.913; -703.015; -721.972
776.847; -257.513; -645.015; -624.973
777.105; -343.613;-1016.015;-1032.973
777.363; -159.613; -459.015; -454.973
777.621; -252.113; -660.015; -717.974
777.879;  -14.913;  -42.014;   32.026
778.138; -197.512; -554.014; -717.974
778.396; -199.212; -585.014; -526.975
778.654; -335.612;-1015.014; -970.975
778.912; -122.312; -269.014; -371.976
779.170; -259.312; -880.013; -803.976
779.427; -308.011; -922.013; -897.976
779.685; -322.911; -880.013; -832.977
779.943; -237.311; -654.013; -593.977
780.201; -321.911; -964.012; -883.978
780.459; -234.611; -651.012; -610.978
780.717; -139.911; -440.012; -390.978
780.974; -183.810; -449.012; -490.979
781.232; -113.210; -358.012; -338.979
781.490; -235.710; -551.011; -472.979
781.747; -180.110; -555.011; -476.980
782.005;   48.890;  462.989;  254.020
782.263; -337.809; -542.011;-1004.981
782.520; -141.909; -326.011; -501.981
782.778; -328.109;-1013.010;-1051.981
783.035; -320.109; -962.010; -938.982
783.293;  -99.109; -248.010; -206.982
783.550;  -66.909; -134.010; -198.982
783.808; -250.608; -764.010; -776.983
784.065; -312.708; -745.009; -874.983
784.322;  -73.808;   25.991;  -86.984
784.580; -274.208; -915.009; -771.984
784.837; -178.008; -392.009; -466.984
785.094; -273.207; -783.009; -762.985
785.352; -160.707; -304.008; -404.985
785.609; -289.007; -934.008; -839.985
785.866; -119.207; -345.008; -401.986
786.123; -231.107; -639.008; -583.986
786.380; -228.307; -665.008; -604.987
786.637; -128.306; -225.007; -380.987
786.895; -184.506; -456.007; -543.987
787.152;  -71.806; -135.007; -267.988
787.409;  -53.006; -123.007; -225.988
787.666; -166.706; -299.006; -378.988
787.923; -208.805; -616.006; -695.989
788.179; -177.805; -551.006; -584.989
788.436; -215.305; -585.006; -585.990
788.693;  -76.105;  -92.006;  -87.990
788.950;  -76.105; -125.005; -112.990
789.207; -188.205; -381.005; -372.991
789.464;  -75.604; -161.005; -301.991
789.720;   -9.404;  150.995;  110.009
789.977; -317.204;-1003.005; -671.992
790.234;  -65.404;   44.996;  -66.992
790.490; -328.604; -884.004;-1031.993
790.747;  -70.203;  -85.004;   22.007
791.004; -130.603; -426.004; -348.993
791.260; -155.403; -430.004; -560.994
791.517; -240.903; -843.003; -788.994
791.773; -183.203; -379.003; -342.994
792.030; -256.403; -596.003; -660.995
792.286; -233.302; -686.003; -636.995
792.543;  -35.702;  -74.002; -159.995
792.799; -134.302; -584.002; -382.996
793.055; -377.002;-1179.002;-1210.996
793.312; -314.202; -827.002; -816.997
793.568; -236.701; -746.002; -599.997
793.824;  -83.201; -226.001; -284.997
794.081; -191.501; -447.001; -508.998
794.337; -187.101; -664.001; -561.998
794.593; -111.801; -319.001; -271.999
794.849; -271.301; -746.001; -772.999
795.105; -160.400; -270.000; -261.999
795.361; -152.100; -490.000; -457.000
795.617; -297.700; -875.000; -945.000
795.873; -179.600; -360.000; -407.000
796.129; -133.700; -368.000; -306.000
796.385;  -86.400; -124.000; -156.000
796.641;   87.100;  412.000;  550.000
796.897; -225.800; -666.000; -635.000
797.153;   83.000;  453.000;  357.000
797.409; -269.200; -785.000; -868.000
797.665; -251.500; -625.000; -732.000
797.921; -279.000; -775.000; -762.000
798.176; -278.400; -744.000; -747.000
798.432; -279.500; -824.000; -596.000
798.688; -365.600;-1174.000;-1078.000
798.943;  -69.300; -165.000; -147.000
799.199; -301.500;-1005.000; -959.000
799.455;   75.800;  369.000;  316.000
799.710; -262.400; -813.000; -380.000
799.966; -116.600; -162.000; -160.000
800.221; -227.300; -638.000; -721.000
800.477; -241.400; -743.000; -710.000
800.732; -287.000; -773.000; -800.000
800.988;   -4.300;  205.000;  -19.000
801.243; -138.100; -454.000; -344.000
801.498; -279.400; -814.000; -739.000
801.754; -112.900; -289.000; -163.000
802.009; -115.700; -257.000; -335.000
802.264; -330.400; -967.000;-1033.000
802.520;  -83.500;  222.000;   -3.000
802.775; -167.500; -524.000; -359.000
803.030;   63.100;  395.000;  356.000
803.285; -269.600; -840.000; -903.000
803.540; -235.200; -686.000; -699.000
803.795; -232.700; -648.000; -583.000
804.051;  -89.200; -279.000; -346.000
804.306;    2.900;  168.000;  128.000
804.561;   76.300;  451.000;  362.000
804.816;  220.700;  714.000;  861.000
805.071;  -97.800; -185.000; -280.000
805.325; -160.800; -257.000; -427.000
805.580; -318.100; -841.000; -877.000
805.835; -111.200; -204.000; -297.000
806.090; -227.400; -760.000; -676.000
806.345; -120.700; -344.000; -264.000
806.600; -216.800; -549.000; -632.000
806.854; -187.400; -408.000; -538.000
807.109; -153.200; -493.000; -577.000
807.364; -115.500; -407.000; -328.000
807.618; -194.400; -415.000; -381.000
807.873; -229.900; -470.000; -494.000
808.128;  -85.400; -257.000; -518.000
808.382; -134.100; -224.000; -332.000
808.637; -168.700; -440.000; -511.000
808.891;  -78.800; -257.000; -180.000
809.146; -324.300; -902.000; -794.000
809.400; -285.300; -848.000; -923.000
809.654; -229.000; -779.000; -551.000
809.909; -298.400; -841.000; -927.000
810.163; -239.000; -813.000; -651.000
810.418; -326.400; -940.000; -861.000
810.672; -237.300; -685.000; -690.000
810.926; -305.000; -993.000; -973.000
811.180; -191.800; -439.000; -372.000
811.434;   23.300;  240.000;  135.000
811.689; -147.600; -231.000; -365.000
811.943; -318.100; -936.000; -953.000
812.197; -275.200; -893.000; -671.000
812.451; -200.900; -379.000; -514.000
812.705; -284.700; -809.000; -619.000
812.959; -248.000; -263.000; -388.000
813.213; -108.000; -283.000; -209.000
813.467;   67.000;  470.000;  253.000
813.721; -262.500; -764.000; -792.000
813.975; -264.600; -826.000; -877.000
814.229;   17.200;  430.000;  353.000
814.482; -178.900; -517.000; -566.000
814.736; -273.200; -766.000; -744.000
814.990; -282.300; -779.000; -872.000
815.244; -101.000; -228.000; -285.000
815.497; -201.600; -636.000; -601.000
815.751;  -55.300; -141.000;   82.000
816.005; -206.500; -470.000; -586.000
816.258; -154.700; -510.000; -363.000
816.512; -267.900; -693.000; -610.000
816.766;  -27.400;  121.000;  157.000
817.019;   13.900;  148.000;  149.000
817.273; -316.400;-1000.000; -802.000
817.526;  -72.600; -206.000; -173.000
817.779; -330.300;-1049.000; -960.000
818.033; -273.800; -693.000; -807.000
818.286; -254.400; -725.000; -792.000
818.540; -179.700; -403.000; -403.000
818.793; -169.100; -402.000; -489.000
819.046; -220.800; -582.000; -520.000
819.299;  -69.900; -157.000; -166.000
819.553; -190.700; -552.000; -592.000
819.806; -296.200;-1016.000; -838.000
820.059; -139.300; -334.000; -354.000
820.312;   -0.200;  152.000;  185.000
820.565;  -24.800;  110.000;  -27.000
820.818;  -88.100;  -59.000; -173.000
821.071; -339.500;-1041.000; -957.000
821.324; -222.800; -536.000; -540.000
821.577; -199.200; -457.000; -483.000
821.830; -126.700; -270.000; -172.000
822.083; -267.300; -733.000; -288.000
822.336; -107.700; -261.000; -167.000
822.589; -263.300; -805.000; -688.000
822.842; -313.500; -875.000; -770.000
823.094; -362.100;-1076.000;-1114.000
823.347; -276.800; -925.000; -729.000
823.600;   -3.700;  402.000;  187.000
823.853; -114.600; -311.000; -267.000
824.105; -164.500; -331.000; -575.000
824.358; -290.300; -617.000; -716.000
824.611;  -19.900;  234.000;   40.000
824.863; -217.200; -612.000; -591.000
825.116;  -34.500;  -33.000;   27.000
825.368; -176.800; -366.000; -372.000
825.621; -124.900; -186.000; -240.000
825.873; -248.700; -704.000; -737.000
826.126; -220.500; -669.000; -641.000
826.378; -162.800; -389.000; -505.000
826.630; -292.400; -890.000; -898.000
826.883; -255.800; -754.000; -693.000
827.135; -140.600; -279.000; -270.000
827.387; -282.400; -893.000; -839.000
827.639;  -69.000;  -86.000;   32.000
827.892; -247.700; -742.000; -582.000
828.144; -286.700; -848.000; -804.000
828.396;  -80.600;  104.000;  -80.000
828.648; -186.100; -440.000; -333.000
828.900; -272.500; -702.000; -795.000
829.152; -226.100; -684.000; -683.000
829.404;  -99.500; -215.000; -267.000
829.656;   57.200;  321.000;  214.000
829.908;  -18.400;  393.000;  229.000
830.160; -325.000;-1064.000;-1047.000
830.412; -179.500; -481.000; -430.000
830.664; -230.900; -557.000; -665.000
830.916; -129.300; -268.000; -206.000
831.167; -357.000;-1073.000; -951.000
831.419; -202.200; -623.000; -566.000
831.671; -274.400; -764.000; -809.000
831.923; -172.100; -311.000; -447.000
832.174; -121.600; -273.000; -331.000
832.426; -240.300; -493.000; -582.000
832.678; -372.900;-1043.000;-1091.000
832.929; -327.400; -947.000; -935.000
833.181; -229.100; -575.000; -677.000
833.432;  -91.300;  -59.000; -186.000
833.684;  -32.000;  112.000;  -27.000
833.935; -206.400; -610.000; -566.000
834.187; -264.100; -829.000; -823.000
834.438;  -79.000;  -58.000;  -25.000
834.689;  -96.400; -255.000; -123.000
834.941; -103.200; -343.000; -244.000
835.192; -216.800; -590.000; -533.000
835.443; -221.100; -419.000; -506.000
835.695;  -15.800;  138.000;  -16.000
835.946; -184.300; -608.000; -378.000
836.197; -230.800; -599.000; -622.000
836.448; -215.900; -528.000; -395.000
836.699; -143.400; -253.000; -341.000
836.950;  -45.300;   72.000;    7.000
837.201; -357.200;-1003.000; -987.000
837.452; -119.300; -356.000; -170.000
837.703; -281.500; -791.000; -737.000
837.954; -146.500; -205.000; -365.000
838.205; -352.900;-1029.000;-1008.000
838.456; -131.200; -196.000; -282.000
838.707; -199.300; -423.000; -519.000
838.958; -262.600; -634.000; -647.000
839.209;  -58.700;   18.000;   40.000
839.460; -138.500; -439.000; -201.000
839.710;  -94.300; -135.000; -297.000
839.961;   90.400;  730.000;  612.000
840.212; -190.500; -382.000; -497.000
840.462; -155.300; -328.000; -277.000
840.713; -211.700; -571.000; -536.000
840.964; -110.500;  -62.000; -143.000
841.214; -192.500; -384.000; -624.000
841.465;  -77.500; -214.000; -141.000
841.715; -155.600; -417.000; -380.000
841.966; -284.900; -746.000; -685.000
842.216; -191.400; -330.000; -431.000
842.466;  -99.900; -169.000; -313.000
842.717; -336.600; -964.000; -952.000
842.967; -219.900; -635.000; -641.000
843.217;  -88.700;   20.000;   28.000
843.468;  -37.300; -104.000; -132.000
843.718; -261.700; -718.000; -726.000
843.968; -286.700; -837.000; -765.000
844.218; -126.900; -315.000; -262.000
844.469; -214.500; -577.000; -561.000
844.719; -241.800; -537.000; -682.000
844.969; -236.200; -550.000; -580.000
845.219; -290.400; -814.000; -862.000
845.469; -161.500; -392.000; -342.000
845.719; -269.100; -792.000; -884.000
845.969;  -25.800;  119.000;  174.000
846.219; -250.400; -738.000; -720.000
846.469;   57.800;  464.000;  432.000
846.718;  -98.900; -115.000;   31.000
846.968; -317.000; -827.000; -827.000
847.218; -107.400; -224.000; -371.000
847.468; -224.400; -586.000; -555.000
847.718; -297.600; -827.000; -798.000
847.967; -302.100; -826.000; -915.000
848.217; -176.200; -449.000; -569.000
848.467; -122.500; -405.000; -376.000
848.716; -242.500; -708.000; -725.000
848.966; -168.500; -372.000; -358.000
849.215; -160.300; -428.000; -419.000
849.465; -271.800; -785.000; -615.000
849.714; -384.100;-1132.000;-1150.000
849.964; -219.600; -551.000; -613.000
850.213; -166.600; -393.000; -355.000
850.463;   26.500;  137.000;  340.000
850.712; -230.400; -542.000; -567.000
850.961; -247.100; -739.000; -678.000
851.211; -195.400; -513.000; -504.000
851.460; -239.200; -635.000; -650.000
851.709;  -17.600;  -25.000;   18.000
851.958; -283.100; -912.000; -750.000
852.208; -300.000; -859.000; -879.000
852.457; -107.200; -181.000;  -13.000
852.706; -295.700; -791.000; -823.000
852.955; -203.100; -507.000; -528.000
853.204; -216.100; -521.000; -461.000
853.453; -208.500; -418.000; -458.000
853.702; -283.100; -660.000; -750.000
853.951; -191.700; -532.000; -520.000
854.200; -224.100; -613.000; -562.000
854.449; -255.300; -695.000; -661.000
854.698; -174.900; -340.000; -279.000
854.946; -100.700; -181.000; -284.000
855.195; -261.700; -843.000; -868.000
855.444; -163.300; -395.000; -420.000
855.693; -234.100; -345.000; -432.000
855.941; -218.600; -387.000; -516.000
856.190; -105.300; -256.000; -382.000
856.439; -260.100; -652.000; -703.000
856.687;  -45.400;  -99.000;  -72.000
856.936; -173.400; -621.000; -323.000
857.184; -321.600;-1067.000;-1020.000
857.433; -161.900; -423.000; -512.000
857.681; -318.900; -989.000; -953.000
857.930; -127.600; -282.000; -433.000
858.178; -324.900; -856.000; -929.000
858.427; -284.300; -802.000; -781.000
858.675; -206.800; -377.000; -544.000
858.923; -184.400; -527.000; -819.000
859.172; -358.700;-1094.000;-1070.000
859.420; -152.400; -339.000; -239.000
859.668; -232.900; -624.000; -628.000
859.916;  -38.000;  109.000;  115.000
860.164; -245.500; -699.000; -603.000
860.413; -294.200; -878.000; -696.000
860.661; -250.700; -709.000; -577.000
860.909; -145.400; -339.000; -325.000
861.157; -134.100; -277.000; -444.000
861.405; -264.100; -534.000; -670.000
861.653;   64.300;  310.000;  310.000
861.901; -233.000; -543.000; -613.000
862.149; -278.100; -801.000; -824.000
862.396; -124.500; -297.000; -187.000
862.644; -110.000; -368.000; -347.000
862.892;  -19.700;   98.000;  138.000
863.140; -196.200; -549.000; -530.000
863.388; -275.800; -815.000; -759.000
863.635; -216.300; -642.000; -601.000
863.883;   25.200;  231.000;  190.000
864.131; -187.300; -288.000; -357.000
864.378; -246.900; -675.000; -540.000
864.626; -145.700; -347.000; -415.000
864.873; -188.400; -556.000; -505.000
865.121; -253.800; -714.000; -799.000
865.368;  -71.900; -173.000;   75.000
865.616;  -78.000;  -33.000;  -40.000
865.863; -185.500; -462.000; -506.000
866.111; -298.800; -795.000; -824.000
866.358; -149.300; -426.000; -420.000
866.605;  -72.200;  -64.000; -804.000
866.853; -200.600; -621.000; -537.000
867.100; -263.200; -728.000; -775.000
867.347; -264.700; -672.000; -611.000
867.594; -276.900; -740.000; -714.000
867.841;   -4.400;   97.000;   17.000
868.089; -264.300; -746.000; -698.000
868.336; -197.200; -477.000; -420.000
868.583; -244.000; -637.000; -741.000
868.830;  -64.800; -131.000; -170.000
869.077; -272.300; -859.000; -787.000
869.324; -236.200; -502.000; -458.000
869.571; -208.400; -398.000; -430.000
869.818; -217.200; -485.000; -439.000
870.065; -195.800; -439.000; -513.000
870.311; -179.900; -456.000; -542.000
870.558; -164.000; -332.000; -311.000
870.805; -160.600; -320.000; -384.000
871.052; -165.500; -494.000; -369.000
871.298; -137.500; -204.000; -131.000
871.545;  -61.400; -151.000; -185.000
871.792; -132.500; -173.000; -222.000
872.038;  -56.200;   43.000; -126.000
872.285; -217.600; -496.000; -387.000
872.532; -176.400; -357.000; -387.000
872.778;   54.300;  556.000;  403.000
873.025; -152.000; -384.000; -359.000
873.271;  107.200;  501.000;  578.000
873.517;  -66.900; -133.000; -209.000
873.764;  -82.900; -193.000;  -80.000
874.010; -116.300; -143.000; -230.000
874.257;  -41.900;  123.000;   90.000
874.503; -218.600; -579.000; -479.000
874.749;  -66.200;   31.000;  275.000
874.995; -100.100;  -80.000;  -20.000
875.242; -206.300; -540.000; -478.000
875.488; -181.700; -414.000; -439.000
875.734;  -98.100; -106.000; -234.000
875.980; -329.900; -872.000;-1032.000
876.226; -134.400; -157.000; -255.000
876.472;   15.500;  343.000;  237.000
876.718;  -33.500;  184.000;  158.000
876.964;  -40.100;   56.000;   55.000
877.210; -256.600; -547.000; -677.000
877.456; -239.200; -630.000; -557.000
877.702; -312.200; -821.000; -832.000
877.948; -180.400; -377.000; -497.000
878.193;   41.900;  361.000;  255.000
878.439; -186.700; -487.000; -472.000
878.685; -147.200; -272.000; -343.000
878.931; -240.500; -618.000; -676.000
879.176; -112.700; -201.000; -201.000
879.422; -322.200; -933.000; -820.000
879.668;  -31.000;   10.000;   79.000
879.913;  -48.400;   53.000;  137.000
880.159; -116.900; -112.000;  -17.000
880.404;  -66.700; -152.000; -162.000
880.650;  -49.100;   91.000;  141.000
880.895; -285.000; -670.000; -710.000
881.141; -186.000; -454.000; -428.000
881.386; -248.900; -503.000; -658.000
881.631; -178.500; -311.000; -166.000
881.877;  -56.700;  112.000;  -13.000
882.122; -253.800; -684.000; -600.000
882.367; -117.200; -136.000; -186.000
882.612; -121.700;  -80.000; -176.000
882.858; -279.200; -877.000; -823.000
883.103; -174.900; -297.000; -267.000
883.348; -279.700; -759.000; -852.000
883.593; -272.300; -677.000; -602.000
883.838;  -98.800; -311.000;  -24.000
884.083;   23.400;  353.000;  288.000
884.328; -154.500; -564.000; -545.000
884.573; -102.800; -196.000; -143.000
884.818; -243.500; -694.000; -531.000
885.063; -176.900; -348.000; -315.000
885.308; -185.200; -475.000; -398.000
885.553;    2.500;  245.000;  325.000
885.797; -230.800; -545.000; -615.000
886.042;  -66.300;    8.000;   58.000
886.287; -105.200; -253.000; -211.000
886.532;  -52.500;   26.000;  204.000
886.776; -138.700; -407.000; -525.000
887.021; -236.700; -621.000; -574.000
887.265; -257.800; -685.000; -689.000
887.510; -225.900; -557.000; -496.000
887.755; -140.000; -194.000; -164.000
887.999; -207.200; -552.000; -575.000
888.244;  -72.900;  -58.000;  161.000
888.488;   19.100;  371.000;  393.000
888.732; -193.300; -368.000; -520.000
888.977; -254.700; -622.000; -567.000
889.221; -302.800; -683.000; -659.000
889.465; -209.100; -422.000; -566.000
889.710; -120.100;  -56.000; -299.000
889.954;   97.200;  579.000;  467.000
890.198; -240.200; -584.000; -707.000
890.442; -275.400; -716.000; -712.000
890.687; -301.900; -800.000; -753.000
890.931; -145.600; -273.000; -210.000
891.175; -228.200; -502.000; -500.000
891.419;  -95.100; -105.000; -110.000
891.663; -104.800; -239.000; -112.000
891.907; -285.700; -801.000; -545.000
892.151; -279.300; -920.000; -815.000
892.395; -153.300; -274.000; -387.000
892.638;   29.800;  408.000;  291.000
892.882; -330.000; -780.000; -867.000
893.126;  107.200;  758.000;  558.000
893.370; -127.600; -167.000; -168.000
893.614; -237.900; -714.000; -715.000
893.857; -149.300; -183.000; -197.000
894.101; -227.600; -527.000; -631.000
894.345;  -39.200;  300.000;  150.000
894.588;   88.400;  569.000;  380.000
894.832;  -86.000; -178.000;  -84.000
895.075; -106.700;   15.000;  -92.000
895.319; -199.400; -552.000; -420.000
895.563; -201.800; -413.000; -353.000
895.806; -251.300; -628.000; -741.000
896.049; -186.400; -576.000; -368.000
896.293;   43.400;  527.000;  405.000
896.536; -201.100; -465.000; -468.000
896.779; -102.800; -149.000;   -1.000
897.023; -278.500; -751.000; -714.000
897.266;  -15.500;  325.000;  269.000
897.509; -349.700; -900.000; -901.000
897.752;  -40.100;  149.000;  171.000
897.996; -339.600; -972.000; -864.000
898.239;  -34.100;  168.000;  102.000
898.482; -202.000; -431.000; -453.000
898.725;  -86.000;  101.000;   53.000
898.968; -281.800; -609.000; -744.000
899.211; -210.900; -513.000; -361.000
899.454; -231.700; -633.000; -539.000
899.697;  -72.900;   90.000;  -43.000
899.940; -273.800; -761.000; -757.000
900.182; -125.800; -335.000; -405.000
900.425; -141.400; -150.000; -298.000
900.668;    2.800;  491.000;  350.000
900.911; -170.900; -292.000; -345.000
901.154;  -46.800;  141.000;   -3.000
901.396; -212.500; -407.000; -412.000
901.639; -234.000; -430.000; -496.000
901.882; -327.100; -790.000; -809.000
902.124; -130.000;  -29.000; -143.000
902.367; -191.600; -315.000; -361.000
902.609; -222.000; -476.000; -453.000
902.852; -137.600; -108.000; -260.000
903.094; -199.000; -458.000; -337.000
903.337;  -49.600;  -26.000;   53.000
903.579; -173.400; -228.000; -441.000
903.821; -255.200; -597.000; -744.000
904.064;  -67.600;   85.000;  127.000
904.306; -131.000; -126.000; -166.000
904.548; -157.300; -152.000; -366.000
904.790; -157.600; -195.000; -340.000
905.033; -239.700; -625.000; -577.000
905.275; -240.000; -513.000; -524.000
905.517;  -10.100;  468.000;  256.000
905.759; -299.600; -667.000; -761.000
906.001; -213.800; -322.000; -369.000
906.243; -144.400; -162.000; -224.000
906.485; -140.600; -265.000; -207.000
906.727; -228.000; -499.000; -542.000
906.969; -138.500;  -30.000; -135.000
907.211; -198.200; -316.000; -382.000
907.453; -134.700; -188.000; -237.000
907.695; -174.500; -158.000; -385.000
907.936;  100.100;  818.000;  706.000
908.178;  -90.100;   92.000; -135.000
908.420; -128.200; -111.000; -162.000
908.662; -262.300; -633.000; -682.000
908.903; -186.000; -208.000; -123.000
909.145; -104.500; -240.000; -305.000
909.386;  -21.000;  315.000;  280.000
909.628;   16.300;  363.000;  397.000
909.870;  -63.300;   29.000;  264.000
910.111; -324.900; -809.000; -949.000
910.353; -164.900; -123.000; -161.000
910.594; -222.600; -574.000; -606.000
910.835; -181.900; -265.000; -326.000
911.077; -242.600; -503.000; -604.000
911.318; -254.200; -505.000; -471.000
911.559; -310.000; -577.000; -880.000
911.801; -159.400; -284.000; -280.000
912.042;  -87.500;  -50.000; -159.000
912.283;   49.100;  404.000;  371.000
912.524; -221.500; -396.000; -457.000
912.765; -108.700; -193.000;   79.000
913.006; -150.100; -307.000; -338.000
913.247; -207.500; -270.000; -290.000
913.488; -117.500;  -43.000;   30.000
913.729; -204.700; -373.000; -373.000
913.970; -166.100;  -96.000; -292.000
914.211; -120.700; -160.000; -198.000
914.452; -108.800; -118.000;  -11.000
914.693;   40.700;  510.000;  592.000
914.934;   55.400;  510.000;  440.000
915.175; -131.400;   53.000;  -95.000
915.415; -135.200; -137.000;   27.000
915.656; -116.600;  -28.000;  192.000
915.897; -173.200; -252.000;  -82.000
916.137; -112.000;   74.000;   -9.000
916.378; -209.200; -573.000; -517.000
916.619; -142.800; -159.000;  -63.000
916.859;  -21.400;  303.000;  330.000
917.100;  330.600; 1655.000; 1070.000
917.340;  151.400;  930.000;  728.000
917.581;  102.900;  965.000;  789.000
917.821; -183.000; -171.000;  143.000
918.061; -157.800; -199.000;  -72.000
918.302; -135.900; -152.000; -211.000
918.542; -122.200;  -22.000;    3.000
918.782;  -40.100;  369.000;  377.000
919.023;   19.000;  360.000;  427.000
919.263; 2144.100; 8131.000;  202.000
919.503; -180.800; -137.000;  -54.000
919.743;   20.800;  390.000;  266.000
919.983; -132.800; -134.000;  -26.000
920.223; -142.800;  135.000;   14.000
920.463;   38.000;  631.000;  554.000
920.703;  -79.400;   84.000;   39.000
920.943; -132.200; -110.000;   90.000
921.183; -224.500; -414.000; -405.000
921.423;   24.000;  307.000;  546.000
921.663; -172.700; -174.000; -257.000
921.903;  -50.200;  237.000;  173.000
922.143;   -8.100;  372.000;  389.000
922.383; -103.000;  158.000;  115.000
922.622; -127.900; -120.000;  -15.000
922.862;  116.700;  796.000;  785.000
923.102; -100.700;  -51.000;   33.000
923.341; -123.800;   59.000;   74.000
923.581;  -34.500;  450.000;  360.000
923.821;  -54.800;  301.000;  398.000
924.060;  -65.600;  351.000;  193.000
924.300; -109.500;  -16.000; -128.000
924.539;   -1.800;  584.000;  473.000
924.779;   67.900;  812.000;  597.000
925.018;  -43.900;  247.000;  353.000
925.257;   54.100;  595.000;  666.000
925.497;  -38.700;  447.000;  412.000
925.736; -117.000;  -35.000;  102.000
925.975;   31.300;  687.000;  669.000
926.214;  122.000;  907.000;  850.000
926.454;  102.600;  706.000;  757.000
926.693;  -17.200;  419.000;  543.000
926.932;  143.000; 1021.000;  825.000
927.171;  188.900; 1107.000; 1044.000
927.410;  207.200; 1144.000;  967.000
927.649;   95.500;  924.000;  742.000
927.888;   10.400;  590.000;  564.000
928.127;   25.800;  680.000;  678.000
928.366;  124.800;  842.000;  826.000
928.605;   87.700;  831.000;  737.000
928.844;  230.500; 1451.000; 1393.000
929.083;   28.500;  770.000;  613.000
929.321;  222.700; 1335.000; 1359.000
929.560;  173.200; 1158.000; 1122.000
929.799;  -17.500;  574.000;  475.000
930.038;  226.300; 1025.000; 1394.000
930.276;  -31.100;  334.000;  397.000
930.515;   40.500;  827.000;  681.000
930.753;   47.900;  614.000;  589.000
930.992;   31.100;  664.000;  717.000
931.230;   81.700;  847.000;  847.000
931.469;  401.900; 2162.000;  892.000
931.707;  231.700;  840.000;  751.000
931.946;  215.100; 1278.000; 1344.000
932.184;  236.900; 1437.000; 1175.000
932.423;  166.900; 1265.000;  963.000
932.661;  211.700; 1296.000; 1428.000
932.899;   35.900;  987.000;  821.000
933.137;   34.200;  754.000;  564.000
933.376;  245.400; 1664.000; 1335.000
933.614;  302.600; 1759.000; 1196.000
933.852;   87.300; 1357.000; 1171.000
934.090;  284.600; 1722.000; 1747.000
934.328;  175.300; 1252.000; 1457.000
934.566;  128.900; 1431.000; 1110.000
934.804;  169.700; 1263.000; 1309.000
935.042;  234.500; 1861.000; 1850.000
935.280;  363.200; 2088.000; 2063.000
935.518;  372.200; 2113.000; 2007.000
935.756;  404.200; 2481.000; 2316.000
935.994;  219.500; 1808.000; 1751.000
936.231;  568.400; 2890.000; 2950.000
936.469;  402.700; 2367.000; 2378.000
936.707;  354.600; 2220.000; 2167.000
936.945;  575.900; 2825.000; 2882.000
937.182;  438.400; 2679.000; 2741.000
937.420;  658.100; 3602.000; 3031.000
937.657;  695.600; 3365.000; 3478.000
937.895;  648.500; 3331.000; 3488.000
938.133;  688.000; 3540.000; 3528.000
938.370;  776.800; 3896.000; 4191.000
938.607;  867.900; 4488.000; 4205.000
938.845; 1157.600; 5587.000; 5549.000
939.082; 1075.300; 5387.000; 5177.000
939.320; 1196.700; 5799.000; 5728.000
939.557; 1396.500; 6549.000; 6491.000
939.794; 1481.900; 7285.000; 7097.000
940.031; 1733.900; 8421.000; 8368.000
940.269; 1974.700; 9552.000; 9107.000
940.506; 2262.100;10901.000;10507.000

