
Integration time [ms]: 100.000
Averaging Nr. [scans]: 40
Smoothing Nr. [pixels]: 0
Data measured with spectrometer [name]: 2101013U2
Wave   ;Sample   ;Dark     ;Reference
[nm]   ;[counts] ;[counts] ;[counts] 

394.013;   76.556; -450.257; -315.536
394.305;  246.929; -461.258; -419.536
394.596; 1127.375; -676.269; -527.514
394.887; 2593.417; -796.268; -654.518
395.178;  983.547;  145.736;   11.476
395.470;   86.259; -210.263; -356.526
395.761;  229.007;  305.734;  394.479
396.052;  410.349; -545.284; -306.489
396.343;  395.894; -557.276; -454.503
396.634;  152.088; -200.279; -290.497
396.926;  172.014; -618.268; -565.517
397.217;  139.874;   11.725;  -17.504
397.508;   66.040; -366.273; -154.507
397.799;   69.138; -555.279; -571.497
398.090;   13.407; -973.280; -902.495
398.381;  148.223;   11.708;  -11.473
398.672;    9.475; -585.292; -742.473
398.963;   71.594; -348.279; -373.498
399.254;  130.134;   54.709; -209.475
399.545;   -5.147;-1017.266; -883.520
399.836;   80.033; -407.277; -343.501
400.127;   65.824; -205.295; -209.468
400.418;   82.534; -423.274; -392.506
400.709;   86.994; -359.281; -333.493
401.000;   65.463; -268.291; -309.476
401.290;  102.111;  225.698;  115.545
401.581;   85.932; -166.286; -228.485
401.872;   34.321; -542.298; -486.462
402.163;   69.842; -313.296; -252.467
402.454;   90.234; -123.291; -163.475
402.744;  111.758; -844.297; -813.465
403.035;  534.990; -226.293;  -86.471
403.326;  694.727; -366.292; -384.474
403.617;  426.916;  204.701;  165.539
403.907;  249.980; -593.283; -679.490
404.198; 2317.139; -545.307; -599.446
404.489; 6081.210; -618.283; -588.491
404.779; 2091.964; -618.302; -660.456
405.070;  239.593;  -67.304; -174.451
405.360;  344.717; -259.293; -238.472
405.651;  368.525;  125.699;   98.542
405.942;  204.152;  209.714;  127.516
406.232;  359.641; -432.285; -413.487
406.523;  571.809;  641.706;  758.530
406.813;  127.854; -579.286; -644.484
407.104;  421.697;  261.708;  144.527
407.394;  238.142; -604.299; -591.462
407.685;  167.841;  336.715;  222.513
407.975;   88.858; -400.283; -382.490
408.265;  136.399; -134.289; -190.478
408.556;   78.231; -472.291; -459.475
408.846;  179.485;  474.706;  429.530
409.137;   84.707;   -1.288; -216.480
409.427;   75.841; -193.285; -271.487
409.717;   56.868; -776.273; -692.508
410.007;  148.735;    4.715; -170.486
410.298;  120.477; -360.295; -342.469
410.588;  106.163; -495.285; -510.486
410.878;   58.193; -792.287; -873.482
411.168;  130.799; -481.298; -478.463
411.459;  122.853; -295.283; -242.489
411.749;   71.255; -609.292; -507.474
412.039;   77.881; -755.289; -386.480
412.329;  205.876;   40.722;  132.501
412.619;  222.554;  -62.286; -148.485
412.909;  393.152;  639.711;  594.521
413.199;  383.757; -130.280; -251.495
413.490;  457.492;  521.710;  352.523
413.780;  166.186;-1013.279; -913.496
414.070;  342.070;  -46.276;  235.497
414.360;  416.647; -729.278; -666.498
414.650;  453.964; -726.288; -688.482
414.940;  544.261; -538.280; -441.496
415.230;  931.711;   50.712;   74.519
415.520; 5929.249;  155.730;   66.486
415.809;23440.844; -305.281; -125.493
416.099;17867.485; -388.277; -229.501
416.389; 4882.907;  435.726;  236.494
416.679; 2856.137;   91.738;   85.473
416.969;  509.298; -527.287; -503.483
417.259;  495.588;  341.721;  171.503
417.549;  721.092;  522.718;  318.508
417.838; 1584.491; -205.268; -147.518
418.128; 5233.973;  650.710;  492.522
418.418; 4355.124; -491.272; -579.509
418.708; 2948.932;    9.726;  -48.506
418.997;10964.253; -474.275; -480.505
419.287;11363.889; -733.273; -790.507
419.577;10589.727; -160.283; -123.489
419.866;35446.558; -588.277; -498.501
420.156;36763.995; -242.270;  -55.513
420.446; 6610.580; -112.263;  -26.526
420.735;  974.439; -376.271; -446.512
421.025;  841.421; 1830.722;  315.502
421.314;  793.962; -203.271; -226.512
421.604; 1807.359;   89.732;  233.484
421.893; 1027.658; -705.271; -602.511
422.183;  236.255; -487.263; -461.526
422.472;  413.710;  -36.271; -107.511
422.762;  490.834; -416.266; -379.521
423.051;  263.371; -916.276; -916.503
423.341;  343.366; -491.273; -439.507
423.630;  445.665; -121.265;   15.477
423.919;  406.727;   58.725;   49.495
424.209;  390.135;  -31.263;   56.473
424.498;  486.339;   68.732;  161.483
424.787; 1078.720; -535.267; -601.518
425.077; 3329.239;   34.735;   29.478
425.366; 4977.216; -734.262; -744.528
425.655; 9404.541;  639.727;  259.493
425.945;19431.571; -313.247; -268.554
426.234;10719.414;  117.741;  300.467
426.523; 4937.169;  -86.259; -350.534
426.812; 6735.355;  107.734;  159.480
427.101; 9796.630; -127.269; -323.515
427.390;12509.099;  -55.270;  -86.514
427.680; 3132.364; -624.257; -411.538
427.969;  518.225; -330.255; -301.540
428.258;  352.780; -385.257; -477.536
428.547;  589.203;  449.728;  397.490
428.836; 1453.216; -421.253; -398.543
429.125; 2121.521; -199.259;  -72.534
429.414;  893.189; -330.251; -294.548
429.703; 3054.539; -231.251; -213.548
429.992; 9012.492; -938.250; -828.549
430.281; 5836.148; -397.264; -331.524
430.570;  625.179;  -21.252;   32.454
430.859;  660.994;  279.741;  352.466
431.148;  484.617;  636.752;  631.446
431.437;  302.779;  391.748;  367.454
431.725;  170.832; -544.257; -481.536
432.014;  145.923; -845.253; -756.545
432.303;  413.343; -149.239; -105.569
432.592;  681.129; -460.263; -178.525
432.881; 1048.193; -601.248; -437.554
433.169; 5802.726; -343.255;  -61.540
433.458;11817.452;  445.765;  540.424
433.747; 5004.347; -397.261; -289.529
434.036;  970.969; -275.242; -280.564
434.324; 2062.255; -395.249; -379.551
434.613; 3555.362;   40.757;  159.437
434.902; 1231.783;  333.760;  439.433
435.190;  734.792;   75.761;  295.431
435.479;  408.619;  -52.245;   83.441
435.767;  142.977; -411.244; -427.561
436.056;  279.989; -340.242; -294.563
436.345;  378.660; -372.240; -223.568
436.633;  412.600;   60.750;  383.450
436.922;  321.413;  208.760;  414.432
437.210;  787.367; -194.236;    1.426
437.499; 2627.375; -583.235; -432.576
437.787; 2844.741; -339.236;  -10.574
438.075;  676.647;   56.761;  162.430
438.364;  929.475;  -44.238;  250.429
438.652;  568.630; -286.226; -138.592
438.941;  173.644;    3.770;  269.415
439.229;   32.126; -665.252; -466.545
439.517;   49.633; -160.234;  -85.577
439.806;   16.771; -501.225; -290.595
440.094;  195.091;  377.766;  650.421
440.382;  250.395; -653.233; -302.580
440.670;  279.824; -361.235; -285.576
440.959;   56.913; -347.223; -170.599
441.247;  100.205; -151.229; -109.587
441.535;  128.007; -266.235;   31.423
441.823;   41.988; -497.234; -305.578
442.111;  201.835;  173.771;  327.412
442.400;  664.943; -628.245; -335.559
442.688; 1819.466; -111.234; -620.579
442.976; 1333.377; -786.213; -450.617
443.264;  139.403; -324.224; -364.597
443.552;  134.206; -258.226;   51.408
443.840;  187.455;  602.765;  876.423
444.128;  118.219;  265.767;  269.420
444.416;   25.312; -694.228; -312.588
444.704;   42.918; -465.219;  -92.605
444.992;   99.584;   -0.226;  240.407
445.280;   68.170; -517.230;  -94.585
445.568;   74.430; -694.212; -396.618
445.856;  424.652; -174.221;  357.398
446.143;  974.614;  -54.220;   -7.604
446.431;  772.316;  -25.228;  625.411
446.719;  277.212;  489.783;  675.391
447.007;  207.939;  481.769;  705.416
447.295;  200.585;  597.777;  871.402
447.583;   97.278; -464.229;  -34.587
447.870;  193.799; -434.221; -202.601
448.158;  492.718; -104.230;  129.415
448.446;  390.865; -800.219; -338.604
448.733;  182.829;   13.776;  269.403
449.021;  291.380;   60.788;  341.382
449.309;  189.220; -296.210;  208.379
449.596;  232.084;  128.783;   59.392
449.884;  167.992; -571.222; -325.600
450.172;  150.196; -756.227; -406.590
450.459;  414.335;  645.786;  780.387
450.747; 2208.332; -411.218; -147.608
451.034; 7014.242;  493.772;  889.411
451.322; 5699.588; -413.214; -170.614
451.609;  477.680;  292.777;  508.403
451.897;  567.283; -550.203; -183.634
452.184; 1694.736; -622.223; -400.598
452.472; 1620.991;   97.792;  269.375
452.759;  352.916;  512.781;  864.395
453.047;  143.027; -407.212; -125.617
453.334;  111.424; -732.219; -216.606
453.621;  111.915; -438.214; -161.615
453.909;  133.350;   13.796;  384.368
454.196;  128.446; -299.199; -123.641
454.483;  230.746;  317.798;  540.364
454.771;  143.794; -215.208;  196.374
455.058;   58.448; -316.207;  102.374
455.345;  120.076;   71.807;  344.347
455.632;   82.776; -128.207;  235.373
455.919;   55.893;  -82.196;  182.354
456.207;  -53.225; -774.198; -450.642
456.494;  -10.817; -475.200;  -66.639
456.781;   12.167; -399.202; -198.635
457.068;   68.908; -253.206;  -29.628
457.355;    8.309; -698.206; -401.629
457.642;    2.864; -552.205; -290.630
457.929;   14.817; -778.194; -417.651
458.216;   71.728; -575.212; -354.617
458.503;  226.897; -173.193;  -19.652
458.790;  224.067; -864.208; -630.625
459.077;  269.022;  -77.202;  110.364
459.364;  757.960; -350.195; -210.649
459.651; 1600.730;  -46.206;  220.372
459.938;  755.733; -864.209; -665.623
460.225;  155.950;  132.799;  276.363
460.512;  -31.960; -836.197; -688.645
460.799;  113.281;  -32.218;  320.392
461.086;   84.138; -370.200; -251.640
461.372;   60.651; -509.198; -279.642
461.659;  130.195; -165.196;  108.354
461.946;   82.495; -445.193;  -54.651
462.233;  262.061;  842.800;  888.361
462.519;  338.257; -814.201; -464.639
462.806;  961.391; -768.197; -497.645
463.093;  849.916; -445.191;  -66.656
463.380;  -28.367; -920.186; -824.664
463.666;   76.268; -259.197;  -18.646
463.953;   98.080; -406.195; -243.648
464.239;  187.555; -173.195;  -77.648
464.526;  417.991;  413.806;  743.350
464.813;  377.578; -565.190; -304.658
465.099;  394.946;  606.807;  607.348
465.386;  364.825;  903.807;  921.348
465.672;   59.316; -694.197; -522.645
465.959;   38.521; -598.188; -520.662
466.245;   22.450; -468.193; -359.652
466.532;  108.353; -109.195;   63.352
466.818;   92.457; -357.186; -216.664
467.104;   18.148; -488.182; -415.672
467.391;   -6.320; -628.189; -459.658
467.677;   44.761; -289.186;    9.335
467.964;   22.786; -682.189; -471.660
468.250;   81.339; -331.186; -160.665
468.536;   94.681;   90.811;  180.341
468.822;  -19.249; -821.184; -574.668
469.109;  159.979;  351.827;  471.311
469.395;  188.010;  729.808;  787.346
469.681;  187.259;   46.811;  156.341
469.967; 1177.389; -699.188; -382.660
470.254; 2602.522; -494.188; -306.662
470.540; 1632.843; -601.196; -476.646
470.826;  248.984; -488.181; -397.675
471.112;  281.204;  288.816;  113.331
471.398;   94.434; -253.183;  -58.670
471.684;   51.337; -626.177; -447.680
471.970;    2.838; -918.180; -981.675
472.256;   38.559; -521.192; -441.654
472.542;   43.290; -499.171; -434.691
472.828;   23.394; -743.182; -607.672
473.114;   45.584; -380.166; -283.700
473.400;   25.879; -504.175; -293.684
473.686;   39.740; -452.166; -400.701
473.972;   64.744; -230.174; -131.687
474.258;  -45.846; -925.173; -843.689
474.544;  187.529; -183.178;   -2.679
474.830;  268.231;  -65.175;   45.316
475.116;  427.929; -123.190; -196.658
475.401;  581.715; -558.180; -467.676
475.687;  182.989; -725.180; -718.676
475.973;   15.777; -673.181; -770.673
476.259;  281.683;  736.825;  764.315
476.544;  371.195; -539.176; -437.682
476.830;  757.011; -398.172; -322.690
477.116;  633.494; -430.177; -336.682
477.401;  128.389;  346.820;  358.324
477.687;  -13.496; -289.175; -405.684
477.973;   46.105;   21.819;   28.326
478.258;    3.385; -448.163; -348.706
478.544;   63.544;   21.815;   61.334
478.829;  -39.830; -818.171; -738.692
479.115;  -44.465; -749.172; -651.690
479.401;    2.789; -444.174; -449.686
479.686;   42.863; -253.180;  -74.676
479.972;  -31.291; -886.178; -776.680
480.257;   20.785; -258.166;  -65.700
480.542;    5.724; -614.170; -469.693
480.828;  237.727; 1288.824; 1392.317
481.113;  -26.475; -464.176; -426.683
481.399;   -0.366; -236.161; -202.711
481.684;  -53.691; -620.166; -462.700
481.969;   21.373; -158.159;  -73.713
482.255;    2.310; -439.169; -285.695
482.540;    0.084; -569.178; -441.680
482.825;   15.303; -395.187; -404.663
483.110;   89.188;  -85.169; -105.696
483.396;  160.619; -840.157; -652.718
483.681;  448.119;  543.826;  730.313
483.966;  148.392; -696.160; -700.712
484.251;    6.393; -404.174; -310.687
484.536;   20.020; -356.165; -378.703
484.822;   17.121; -205.173; -218.687
485.107;  -21.592; -599.152; -502.726
485.392;  124.401;  662.836;  541.296
485.677;   65.148;  354.832;  163.302
485.962;  102.717;  160.843;  270.283
486.247;   95.168;  -14.162;   -8.707
486.532;   33.536; -178.166; -325.701
486.817;  163.629;  381.839;  431.291
487.102;  122.616; -453.154; -514.722
487.387;  588.021; -637.156; -652.718
487.672; 1041.306; -154.164;  -38.705
487.957;  652.061; -394.160; -286.711
488.241;  202.050; -290.150; -314.729
488.526;  651.534; -280.152; -148.726
488.811; 1064.186; -881.177; -818.680
489.096;  801.193; -666.154; -702.723
489.381;  446.555;    3.847;  162.275
489.666;  335.959; -428.161; -510.710
489.950;  167.171;  558.846;  627.277
490.235;  -22.830; -480.151; -458.728
490.520;  -43.767; -756.161; -723.710
490.804;  -56.327; -827.156; -736.719
491.089;   -2.935; -469.149; -299.732
491.374;   34.255; -132.164;  -75.704
491.658;    8.252; -817.147; -717.735
491.943;  205.263; -657.152; -609.727
492.227;  287.762; -178.155;  -38.721
492.512;   64.942; -294.157; -341.717
492.797;  -59.166; -713.149; -716.731
493.081;  -39.670; -588.147; -598.735
493.366;  -38.515; -751.161; -635.711
493.650;  192.083;  831.859;  917.254
493.935;   28.926; -648.147; -447.734
494.219;  -30.980; -778.142; -687.743
494.503;  -38.021; -585.150; -487.730
494.788;   42.958;   46.842;   74.285
495.072;   91.176;  184.850;  434.271
495.356;  184.194; -463.148; -343.733
495.641;  451.161; -812.146; -736.736
495.925;  451.428; -976.156; -903.719
496.209;   35.440; -599.149; -451.732
496.494;  -35.629; -763.142; -544.744
496.778;    8.841; -364.154; -360.722
497.062;  -42.422; -819.156; -627.719
497.346;  -43.462; -869.160; -640.711
497.631;  135.272;  580.852;  560.266
497.915;   76.347;  -64.145;  175.261
498.199;   57.819; -341.157; -277.718
498.483;   53.557; -562.152; -508.725
498.767;  171.327;  301.850;  300.271
499.051;  161.062; -126.149; -100.732
499.335;   33.211; -693.149; -739.731
499.619;  -34.390; -381.129; -423.767
499.903;   36.885; -272.155;  -65.721
500.187;   37.773; -588.153; -316.724
500.471;   28.963; -796.152; -595.727
500.755;  119.333;   62.839;  -96.710
501.039;   27.786; -270.155; -357.721
501.323;   92.210;  -21.141;  264.254
501.607;   52.586; -447.163; -503.706
501.891;    8.496; -607.156; -512.718
502.174;  -17.342; -726.144; -585.741
502.458;   79.842;   89.849;  370.273
502.742;   36.334; -180.138; -191.751
503.026;   94.126; -412.147; -254.734
503.310;  154.972; -437.159; -375.713
503.593;  112.203; -464.147; -325.735
503.877;  131.524; -232.133; -156.760
504.161;  175.950;    2.847;  -50.724
504.444;  134.985; -841.158; -710.716
504.728;  405.054; -487.164; -522.704
505.012;  637.624; -257.150;  -76.729
505.295;  487.884; -417.161; -212.711
505.579;  486.028; -256.156; -496.719
505.862;  651.393; -555.145; -333.738
506.146;  651.949; -681.159; -758.714
506.429;  372.275;  568.841;  461.286
506.713;   71.046; -732.151; -667.728
506.996;  287.765;   90.846;  295.278
507.280;  296.699; -633.165; -474.703
507.563;  218.559; -469.155; -261.721
507.847;   75.749; -423.153; -112.724
508.130;   79.385; -665.161; -456.711
508.413;  113.281; -758.167; -577.700
508.697;  237.056; -151.167;   12.300
508.980;  133.750; -422.153; -312.724
509.263;   -0.895; -466.155; -450.720
509.547;   39.749; -124.150;   82.271
509.830;   56.512; -172.160;  140.289
510.113;   94.827;  128.844;  298.281
510.396;   37.006; -530.152; -300.725
510.680;  232.020; -818.145; -812.738
510.963;  858.870;  184.846;  180.277
511.246;  752.456; -493.150; -357.730
511.529;  284.124; -482.145;  -83.739
511.812;  352.896; -250.134;   10.241
512.095;  230.718; -740.151; -396.728
512.378;   76.432; -317.147; -245.736
512.661;   21.041; -703.137; -623.753
512.944;   23.272; -750.142; -637.744
513.227;   64.439; -170.137; -171.752
513.510;   33.083; -479.144; -671.741
513.793;   44.739; -485.140; -435.747
514.076;  154.180;  -43.127;  -39.771
514.359;   99.016; -294.149; -135.732
514.642;   79.850; -442.142; -567.744
514.925;  669.463;  581.860;  561.253
515.208;  878.792; -498.134; -443.758
515.491;  577.981; -276.133; -182.761
515.773;  347.462; -410.143; -337.742
516.056; 1857.798;  249.864;  409.246
516.339; 2619.852; -754.136; -652.755
516.622; 1999.079; -518.150; -488.730
516.904; 1556.344;  882.857;  975.257
517.187;  727.737; -730.138; -523.752
517.470;  409.893; -568.143; -510.743
517.752;  380.730; -624.136; -470.756
518.035;  309.250; -708.139; -725.749
518.318;  340.202; -799.136; -744.755
518.600; 2094.485; -300.132; -325.762
518.883; 2945.200;  310.858;   88.256
519.165; 1439.830; -585.138; -426.751
519.448;  399.484;  -61.132;  -19.762
519.730;  227.813; -573.126; -415.773
520.013;  351.902;  588.867;  664.240
520.295; 1039.747;  -94.134;  -15.759
520.578; 2368.747; -335.131; -305.764
520.860; 2615.484; -254.132;   56.238
521.143; 1318.832; -763.135; -584.756
521.425;  486.126; -251.125; -279.775
521.707;  622.306; -622.127; -380.771
521.990; 1601.031; -199.127;  167.229
522.272; 1816.316; -116.140;   -4.748
522.554;  897.812; -237.143; -157.742
522.836;  409.320;  -24.134;   99.241
523.119;  242.775; -496.148; -189.734
523.401;  158.029; -448.130; -314.766
523.683;  104.817; -865.137; -693.753
523.965;  262.235;  408.862;  260.248
524.247;  240.122;   54.878;  170.220
524.529;  199.347; -451.134; -367.759
524.812;  344.956;   -3.130;  191.234
525.094;  765.085; -773.138; -631.751
525.376; 1214.635; -143.124;   78.223
525.658;  721.074; -441.136; -339.754
525.940;   20.444; -805.131; -671.764
526.222;   51.853; -188.136;  -88.755
526.504;  138.442; -190.131;   32.237
526.786;  240.625; -960.133; -647.760
527.068;  405.466; -124.123;  -67.778
527.349;  175.071; -865.137; -774.754
527.631;  140.034; -137.132;   22.238
527.913;  120.580; -664.127; -450.771
528.195;  143.244; -761.125; -639.774
528.477;  215.417;  -93.134;  -30.758
528.759;  123.531; -648.130; -522.766
529.040;   45.489; -569.123; -293.778
529.322;   56.597; -235.125;  -10.774
529.604;  157.233;  -47.130;   93.233
529.886;  171.338; -546.126; -302.773
530.167;  146.300;  232.870;  192.235
530.449;   44.256;    1.853;   63.265
530.731;   19.796; -572.122; -459.779
531.012;   58.717; -513.120; -216.784
531.294;   73.006; -118.116;  -43.792
531.575;  145.676;  290.875;  538.225
531.857;   39.762; -548.135; -266.757
532.138;  102.333; -113.141;   40.254
532.420;  186.308;  294.865;  403.244
532.701;  278.327; -722.133; -751.760
532.983;  404.155;  232.867;  182.239
533.264;  142.861; -243.126;  175.228
533.546;   -8.098; -491.136; -508.755
533.827;   55.799;  173.867;   -1.759
534.109;   55.937; -352.135;  -80.757
534.390;  114.688; -725.132; -582.762
534.671;  258.333; -270.135;  -82.756
534.953;  157.767; -751.123; -611.779
535.234;   26.666; -426.117; -255.789
535.515;  -87.474; -891.119; -735.785
535.796;  -16.799; -431.128; -193.770
536.078; -106.540;-1050.124; -904.777
536.359;   11.993;  -22.123;    3.221
536.640;  -23.505; -480.125; -197.774
536.921;  154.514;  225.871;  143.232
537.202;  352.031;  -87.138;  -16.751
537.483;  403.797;  251.869;  377.236
537.764;  155.975;   17.870;   98.235
538.045;  -39.584; -543.134; -371.758
538.326;  -33.960; -596.129; -447.768
538.607;   13.532; -686.127; -476.771
538.888;  153.908;   98.879;    5.218
539.169;  185.753; -704.122; -535.781
539.450;  342.412;  236.871;   16.233
539.731;  205.412; -361.121; -182.783
540.012;  141.267;  199.880;  412.216
540.293;   95.429;   82.876;  158.224
540.574;   22.477; -895.113; -717.796
540.855;  455.061;  435.879;  377.218
541.136;  534.775;   47.878;  139.220
541.416;  258.932; -161.130; -220.766
541.697;  175.767; -274.131; -170.763
541.978;  934.310; -270.135; -315.757
542.259; 1183.357; -211.127; -236.771
542.539;  569.750; -191.116; -186.790
542.820;  185.101;  461.875;  480.225
543.101;  130.696;  -52.145;  -77.738
543.381;   47.431; -638.127; -591.771
543.662;  235.204;  159.873; -254.771
543.942;  510.677; -751.127; -830.770
544.223;  957.902;  193.878;  161.219
544.504;  602.109; -275.124; -182.777
544.784;  527.638; -592.126; -408.773
545.065; 1514.979;  104.884; -254.791
545.345; 1797.326;  227.881;   14.215
545.626; 1159.776;  -14.113; -108.796
545.906;  789.424;   77.869;   98.235
546.186;  329.717;   92.874;  -95.773
546.467;  187.812;   99.877;  -95.778
546.747;  290.900;  264.884;  327.210
547.027;  347.283;   91.876;  111.223
547.308;  291.826; -376.127; -530.770
547.588;  359.691;  299.871;  371.232
547.868;  189.776;  458.870;  588.235
548.149;  180.311;  609.885;  593.207
548.429;   96.455; -347.127; -299.771
548.709;  169.867; -645.120; -461.784
548.989;  419.285;   84.882;   88.213
549.269; 1871.558;   10.868;  139.239
549.550; 4314.066;  215.877;  117.222
549.830; 3829.419; -758.111; -556.799
550.110;  769.927; -468.110; -320.801
550.390;  736.472; -128.122;  -56.779
550.670; 1039.247; -868.114; -783.795
550.950;  708.160; -509.121; -471.782
551.230;  179.932;  549.879;  460.218
551.510;  -15.266; -381.121; -326.782
551.790;   25.135; -173.109; -127.803
552.070;  233.112;  940.877; 1181.223
552.350;  354.680; -492.119; -377.786
552.630;  507.079;   -2.121;   77.219
552.909;  316.205;  181.884;   73.209
553.189;  207.864;  -49.132;   33.237
553.469;  170.079; -703.119; -514.786
553.749;  162.308; -469.127; -357.772
554.029;  151.796;   33.883;  -24.790
554.308;  134.291; -154.115;  -37.794
554.588;   59.200; -196.128; -204.770
554.868;   54.061; -366.121;  -47.782
555.147;  128.863; -114.115;  -46.793
555.427;  512.807; -260.116; -250.792
555.707; 3437.236; -284.115; -200.793
555.986; 4191.173; -719.111; -538.800
556.266; 2165.424;   23.884;   72.210
556.546;   96.009; -888.121; -675.782
556.825;  214.020; -657.114; -556.794
557.105; 1585.073; -125.128;   17.230
557.384; 1888.503;  122.884;  187.209
557.664;  699.406; -717.116; -508.792
557.943;   97.285; -557.121; -411.782
558.222;  151.688; -345.118; -344.788
558.502;  245.739; -116.115;  -76.793
558.781;  452.560;  194.885;  499.208
559.061;  374.863; -232.118; -227.788
559.340;  257.443;  302.883;  353.211
559.619;  590.274;   93.884;  148.210
559.899;  903.995; -239.117; -266.789
560.178;  834.664; -778.115; -593.793
560.457; 2744.222; -623.117; -562.790
560.736; 3873.749; -472.111; -482.800
561.015; 2553.296; -500.128; -502.769
561.295;  355.105;  180.893;  215.193
561.574;  331.361;  119.885;  116.207
561.853;  458.089;  274.891;  303.197
562.132;  445.091;  -45.114;  182.206
562.411;  401.680;  396.879;  553.219
562.690;  106.684; -592.115; -458.792
562.969;  121.209;  472.888;  630.203
563.248;  482.302; 2966.878; 2487.219
563.527;  238.448; -290.111; -408.800
563.806;  335.205; -650.127; -521.771
564.085;  370.545; -297.105; -206.810
564.364;  204.948; -594.117; -405.790
564.643;  437.930; -276.121; -223.781
564.922; 1634.333;  221.890;  397.198
565.201; 1659.937; -640.109; -700.803
565.479;  702.783; -297.115; -219.792
565.758;  290.673; -810.128; -712.770
566.037;  436.438; -155.109; -100.803
566.316;  210.754; -286.116;  -28.791
566.595;   43.311;  -17.115;  -12.793
566.873;   90.850; -166.111;  -79.801
567.152;  -74.967; -490.113; -590.797
567.431;    4.900; -113.116;    6.210
567.709;    4.280; -344.107; -212.807
567.988;  226.595; -810.114; -769.794
568.266;  481.961; -160.115;  -68.793
568.545;  326.817; -644.100; -514.819
568.824;  524.057;  160.885;  356.208
569.102;  478.019; -351.114; -235.794
569.381;  202.632; -492.116; -407.792
569.659;  -49.546; -553.113; -553.796
569.938;   16.726; -743.122; -465.780
570.216;   99.315; -225.109; -225.804
570.494;  -23.177; -632.114; -572.795
570.773;   48.784;  202.879;  114.218
571.051;    3.815; -373.123; -357.778
571.330;   38.902; -221.113; -174.796
571.608;   20.760; -181.098; -173.823
571.886;  -80.607; -671.111; -581.799
572.164;  -75.239; -739.121; -621.782
572.443;  -37.326; -562.105; -512.811
572.721;  -19.828; -399.117; -289.790
572.999;  -16.535; -280.117; -168.788
573.277;   71.442;  379.894;  620.191
573.555;  239.044;   94.894;   37.190
573.834; 1149.790;  -86.117; -114.788
574.112; 1394.407;  880.893;  811.193
574.390;  400.499; -143.111;  -96.801
574.668;   -0.391;  -91.112;  -61.797
574.946;   -3.631; -165.106; -187.810
575.224;   17.311;   71.891;  -16.803
575.502;  -13.949; -200.116; -204.791
575.780;  -76.590; -767.112; -829.798
576.058;  223.773; 1589.889; 1004.200
576.336;  -24.421; -210.110; -129.801
576.614;  -56.689; -511.112; -340.798
576.891;   28.365; -711.115; -823.794
577.169;  421.598; -158.108; -285.805
577.447;  509.207;  169.893;  202.193
577.725;  238.565;  629.888;  854.201
578.003;   12.563;  -71.112; -371.798
578.280;   82.033; -208.104; -242.812
578.558;   70.539; -450.115; -422.793
578.836;  121.747; -210.114; -145.795
579.114;   51.009; -630.112; -670.797
579.391;   66.767;   -6.117;  -18.789
579.669;  -73.359; -595.114; -704.794
579.947;  136.504; -326.107; -127.806
580.224;  282.353; -692.107; -524.806
580.502;  265.883;  127.893;   76.193
580.779;   22.173;  -42.117;   75.210
581.057;  -68.384; -584.109; -470.804
581.334;  -95.427; -726.102; -695.815
581.612;   39.970;   54.895;  511.190
581.889;  -24.614;  -83.101; -129.818
582.167;  -29.775; -298.099; -190.821
582.444; -104.245; -845.102; -814.817
582.721;   95.781;  657.899;  715.183
582.999;   51.622; -326.100; -167.821
583.276;  438.394; -812.123; -713.779
583.553;  608.626; -364.102; -294.816
583.831;  195.329; -607.104; -631.812
584.108;   42.321;  349.892;  174.195
584.385;    2.672; -122.102;  -98.815
584.662;  -73.349; -651.111; -828.801
584.940;   21.700;  204.889;  204.199
585.217;  -13.571;  -73.113; -303.796
585.494;   38.559;   71.890;  118.198
585.771;  172.466; -250.109; -354.804
586.048;  467.529; -196.113;  -76.796
586.325;  282.503; -721.110; -773.801
586.602;   90.433;  230.896;  213.188
586.879;  -19.906; -499.100; -580.820
587.156;   47.771; -156.105; -331.810
587.433;  -32.222; -701.102; -667.817
587.710;   61.286;  152.888;  234.202
587.987;  280.751; -264.105; -236.811
588.264;  723.613;  315.888;  387.202
588.541; 1241.510;  -61.104;   26.187
588.818; 2475.469;   72.892;  171.196
589.095; 2119.656; -163.104; -174.812
589.371;  346.739; -459.109; -414.804
589.648;    9.182; -581.107; -437.807
589.925;   11.923; -517.114; -621.795
590.202;    3.086; -741.112; -607.798
590.478;   71.153; -166.105;  -73.811
590.755;  242.150; -241.108; -132.806
591.032; 2117.405; -741.110; -699.802
591.308; 3000.450; -732.094; -790.831
591.585; 1566.655; -573.110; -560.802
591.862;   94.680;-1056.102; -950.817
592.138;   54.372; -475.108; -474.805
592.415;  132.509; -486.104; -495.813
592.691; 1313.432;  460.896;  518.188
592.968; 1696.112; -208.098; -123.824
593.244;  814.575; -695.116; -595.790
593.521;   59.405; -105.102;  -42.817
593.797;  -32.552; -810.122; -720.780
594.074;  286.700; -611.096; -588.826
594.350;  604.611;  828.905;  729.172
594.626;  274.251; -303.111; -283.801
594.903;   90.031; -643.101; -645.817
595.179;  168.288;  243.896;  418.187
595.455;   -6.041; -136.107; -150.807
595.731;    5.064;  -19.103;  -38.814
596.008;  -43.105; -464.111; -434.800
596.284;   22.771; -187.100; -242.820
596.560;   42.757; -501.093; -493.833
596.836;  177.223; -173.105;  -70.810
597.112;  291.373; -582.108; -437.805
597.388;  263.672;  -49.097;  -48.826
597.665;  103.457;  437.887;  530.203
597.941;  -62.364; -572.089; -658.839
598.217;   15.658; -323.110; -293.802
598.493;  233.318;   61.891; -204.804
598.769;  448.816; -175.100;  -50.819
599.045;  267.926; -490.108; -562.806
599.321;   37.670; -193.100; -261.820
599.597;  113.417; -355.109; -476.804
599.872;  438.660;  409.896;  429.187
600.148;  315.574;  -61.097; -172.826
600.424;  235.231;   91.893;  202.193
600.700;  193.433; -170.107; -280.807
600.976;   92.543; -442.097; -464.825
601.252;  221.764; -226.109; -272.803
601.527;  178.186; -833.104; -840.813
601.803;  133.454; -453.105; -404.812
602.079;  155.066; -124.100; -118.819
602.354;  487.216; -620.092; -531.835
602.630;  733.429; -140.113; -482.796
602.906; 2003.311; -910.101; -863.818
603.181; 5961.655; -627.119; -534.786
603.457; 5047.822;   98.903; -278.826
603.733;  717.513; -605.120; -626.783
604.008;  846.495; -245.106; -164.810
604.284; 2758.832; -636.101; -580.817
604.559; 2373.315;   -3.112;  -42.799
604.835;  429.973; -163.105; -225.810
605.110;  367.651; -732.099; -892.821
605.385;  617.034;  224.907;  267.167
605.661;  547.413; -625.095; -729.829
605.936;  995.476; -664.108; -737.806
606.211;  876.046;  -17.103; -170.815
606.487;  165.568; -329.114; -376.794
606.762;    8.430; -791.119; -745.786
607.037;  -30.577; -501.105; -433.810
607.313;  -71.718; -589.096; -574.828
607.588;  -11.980; -375.106; -137.810
607.863;   37.060;  -28.101; -143.818
608.138;  163.932;  513.890;  516.198
608.413;   19.279; -576.099; -592.822
608.688;   30.523; -203.108; -267.805
608.964;  170.139; -509.106; -218.809
609.239;  209.570; -107.105; -212.810
609.514;  199.703;  281.895;  240.188
609.789;  584.033; -187.104; -716.812
610.064;  792.555; -435.096; -609.827
610.339;  745.414; -855.109; -799.804
610.614; 1024.871; -131.100; -315.820
610.889;  565.779;  215.895;  107.188
611.163;   18.104; -407.104; -591.812
611.438;   71.419;   81.886; -167.794
611.713;   -9.868; -467.101; -499.817
611.988;   39.334; -144.101; -328.818
612.263;  -41.177; -771.102; -717.815
612.538;  193.003;  385.887;  251.204
612.812;  144.297; -832.100; -911.820
613.087;  113.560; -358.098; -338.823
613.362;  -55.867; -497.107; -557.807
613.637;   33.992;  261.897;  138.186
613.911;  -19.333; -256.092; -345.835
614.186;   92.357; -249.107; -292.807
614.460;  564.961; -842.081; -758.854
614.735;  673.484;  -55.087;  -17.843
615.010;  134.724;   43.912;  -82.841
615.284;  223.472;  360.892;  246.195
615.559;  321.216; -792.092; -955.835
615.833;  252.828;  -76.099;  -87.822
616.108;    4.028; -225.090; -390.837
616.382;  124.411;  274.913;  402.156
616.656;  135.078; -241.090; -232.837
616.931;  444.603; -785.099; -700.822
617.205;  921.562; -973.104; -979.813
617.480;  849.799;  -91.125;    6.225
617.754;  139.346; -396.125; -128.774
618.028;   -9.058; -369.129; -382.768
618.302;   54.771;   73.892;  -25.805
618.577;  -50.357; -371.103; -518.815
618.851;  -72.839; -399.109; -600.803
619.125;  -70.053; -335.134; -378.759
619.399;  -20.213; -244.104; -374.813
619.673;  -36.967; -330.115; -515.792
619.947;  -52.528; -333.114; -448.795
620.222;  -24.173; -198.110; -204.801
620.496;  -19.214;  -47.121;  -96.782
620.770;    5.677; -187.122;  -93.781
621.044;  181.946;  323.895;  346.190
621.318;  664.664; -653.120; -614.783
621.592;  589.436; -430.121; -409.783
621.866;  309.541; -476.112; -572.799
622.140;   13.651; -207.116; -356.791
622.413;   56.195;  138.889;  112.200
622.687;  -44.493; -746.101; -492.817
622.961;   11.721; -130.108; -143.805
623.235;  -71.954; -633.111; -661.800
623.509; -111.122; -816.105; -848.811
623.783;   14.204;  -12.107;   48.193
624.056;  -24.285; -254.120; -280.783
624.330;   42.359;   63.888;   -3.797
624.604;   38.148; -271.116; -355.790
624.877;   75.856;  180.890;   26.198
625.151;   28.417; -249.114; -238.794
625.425;  -36.436; -150.103; -283.814
625.698;  -61.451; -367.119; -374.785
625.972; -105.141; -799.110; -765.802
626.245;   57.600;  685.884;  484.210
626.519;  -53.331; -426.120; -340.784
626.792;  -30.592; -192.107; -380.807
627.066;  -80.980; -485.122; -662.779
627.339;  -97.020; -736.110; -663.802
627.613;   31.167;  351.880;  148.216
627.886;   50.560;  187.891; -612.803
628.160;  -19.187;  312.880; -161.783
628.433;  -97.348; -695.125; -703.775
628.706;  -77.556; -517.120; -615.784
628.979;   26.433;  296.876;  117.223
629.253;  -87.421; -785.119; -833.786
629.526;  303.661; -334.126; -253.772
629.799;  279.065; -641.123; -479.778
630.072;  126.693; -497.128; -516.769
630.346;  -70.100;-1115.116;-1080.790
630.619;  387.609; -467.107; -545.808
630.892;  547.246;  709.889;  593.200
631.165;  303.337;  790.896;  679.187
631.438;  -84.512;-1092.112;-1055.798
631.711;   39.718;  453.877;  257.221
631.984;  -74.155; -523.117; -624.789
632.257;  -82.458; -636.117; -681.789
632.530;  -52.951; -412.119; -433.785
632.803;   18.890; -109.115;    7.207
633.076;  -65.688; -360.123; -422.777
633.349;    2.022;  173.872;  121.231
633.622;  -48.802; -187.119; -240.785
633.895; -124.210; -903.120; -823.783
634.167;  -80.662; -496.126; -525.773
634.440;  -12.319;  -19.116; -137.792
634.713;   -6.797;  -22.119; -120.786
634.986;   67.637;  593.871;  453.233
635.258;  -81.112; -507.115; -597.793
635.531;   87.413;  742.882; -343.788
635.804;  -19.581; -303.117; -318.789
636.077;  -82.698; -830.116; -852.791
636.349;  -25.238; -586.115; -474.793
636.622;  366.560; 1695.874; 1392.228
636.894;  191.569; -474.120; -909.784
637.167;  112.129; -836.127; -789.771
637.439;   18.626; -278.128; -213.770
637.712;  -41.413; -312.126; -293.772
637.984;  -76.072; -635.116; -707.791
638.257;  339.887;  515.877;  488.222
638.529;  530.028; -881.125; -924.776
638.802;  216.218; -508.128; -449.769
639.074; -115.573; -927.122; -952.781
639.346; -127.461; -942.135; -930.757
639.619;    9.924;  -79.142; -319.744
639.891;   -8.155;  -83.122; -168.779
640.163;  -71.253; -689.122; -756.780
640.435;   20.749;  273.878;  103.220
640.708;    3.951;  -72.122; -132.780
640.980;  -25.072; -366.122; -362.781
641.252;  168.155;  -25.121;  -71.781
641.524; 1685.456;  580.879;  573.219
641.796; 1717.133;-1094.121; -907.782
642.068;  298.335; -191.121; -300.782
642.340;  -56.563; -486.121; -566.783
642.613;   15.189;  294.880;  323.217
642.885; -102.834; -787.120; -878.783
643.157;  -53.508; -810.120; -658.784
643.428;   46.194;  170.880;  218.216
643.700;  -86.254; -498.120; -425.784
643.972;  -39.577;  -16.119; -133.785
644.244;  -84.050; -474.119; -559.785
644.516;  -55.448; -250.119; -114.786
644.788;   42.578;  662.881;  548.214
645.060;  -19.645;  -12.119; -124.786
645.332; -100.118; -525.118; -535.787
645.603;   28.859;  479.882;  342.213
645.875;  -81.489; -334.118; -369.787
646.147;  151.938; 1487.882; 1242.212
646.418;  -83.361; -931.117; -918.788
646.690;   94.091; -714.117; -715.789
646.962;   15.518; -413.117; -451.789
647.233;  -20.355;   15.883;   11.211
647.505; -104.353; -595.117; -475.790
647.776;   13.999;  328.884;  229.210
648.048;  -14.375; -248.116; -418.790
648.320;  -65.823; -752.116; -679.791
648.591; -152.246;-1055.116; -958.791
648.862;  -89.469; -505.116; -577.792
649.134;    4.408;  115.885;  198.208
649.405;  -34.890; -661.115; -618.792
649.677;  -64.664; -475.115; -598.793
649.948;   -2.512; -181.115; -296.793
650.219;  -10.585;  -37.115; -147.793
650.491;  -80.983; -431.114; -520.794
650.762; -125.381; -705.114; -731.794
651.033;  -83.729; -437.114; -424.795
651.304;  -94.353; -743.114; -728.795
651.576;  -71.651; -680.114; -645.795
651.847;  -46.974; -250.113; -140.796
652.118;  -20.322;  -32.113; -189.796
652.389; -103.395; -639.113; -722.796
652.660;  -23.593; -147.113;  -89.797
652.931; -138.792; -897.112; -871.797
653.202;  -79.415; -382.112; -541.798
653.473;  -73.563; -633.112; -533.798
653.744;  124.164; -595.112; -590.798
654.015;  110.416; -356.112; -303.799
654.286;  -86.632; -642.111; -663.799
654.557;  -61.806; -586.111; -521.799
654.828; -154.804;-1114.111;-1088.800
655.099;  -87.427; -404.111; -291.800
655.370;  -99.850; -427.111; -543.801
655.641; -112.998; -656.110; -714.801
655.911;  -94.721; -618.110; -638.801
656.182;   40.455;  437.890;  387.198
656.453;   94.632;  830.890;  746.198
656.724;  -83.266; -466.110; -426.802
656.994;  -87.889; -553.109; -568.803
657.265; -113.562; -862.109; -873.803
657.536;  -90.410; -500.109; -377.804
657.806; -114.184; -561.109; -593.804
658.077; -140.607; -866.109; -950.804
658.347;  -84.280; -523.108; -598.805
658.618; -117.453; -646.108; -694.805
658.888;  -30.051;  -41.108;  112.195
659.159;  -81.799; -432.108; -548.806
659.429;  -27.748; -292.108; -349.806
659.700;    4.729; -435.107; -390.807
659.970;  -28.844; -370.107; -359.807
660.241;   -8.942; -754.107; -921.807
660.511;  440.460; -147.107; -174.808
660.781;   71.862; -793.106; -748.808
661.052;  -53.712; -222.106; -381.808
661.322;  -28.460;   21.894;   -9.809
661.592;   18.842;  257.894;  148.191
661.862;  -67.006; -369.106; -382.810
662.133;  -96.204; -551.105; -502.810
662.403; -116.528; -770.105; -676.810
662.673;  -65.151; -256.105; -213.811
662.943;  -96.749; -612.105; -551.811
663.213;  -18.247;  -85.105;  -81.811
663.483;  -86.445; -593.104; -568.812
663.753;  -51.043; -194.104; -152.812
664.023;   -6.492;   68.896;  -32.813
664.293;  -63.365; -319.104; -126.813
664.563; -115.763; -694.104; -648.813
664.833; -127.136; -743.103; -608.814
665.103; -126.009; -730.103; -793.814
665.373; -121.982; -766.103; -806.814
665.643;  -83.206; -863.103; -918.815
665.913;   -0.429; -534.103; -714.815
666.182;  111.673; -685.102; -719.816
666.452;  224.250;  -22.102;  -89.816
666.722;  -31.623; -724.102; -784.816
666.992; -135.996; -948.102; -921.817
667.261;  -92.445; -824.102; -808.817
667.531;  195.307;  134.899;   45.183
667.801;  530.884; -440.101; -412.818
668.070;  228.186;  714.899;  697.182
668.340;  -98.137; -883.101; -840.819
668.609;   75.440;  588.900;  301.181
668.879;  -82.209; -490.100; -558.819
669.149;  -79.932; -539.100; -516.820
669.418; -109.855; -698.100; -726.820
669.688;  -44.353; -482.100; -666.820
669.957;   53.049; -423.099; -546.821
670.226;  -25.524; -268.099; -331.821
670.496;  -99.023; -431.099; -635.822
670.765;  -77.146; -418.099; -501.822
671.034; -139.694; -872.099; -828.822
671.304;  -12.217;   55.902; -111.823
671.573; -145.665;-1085.098; -957.823
671.842;   38.137; -380.098; -294.823
672.112;   15.663; -692.098; -586.824
672.381;   -9.285; -239.098; -214.824
672.650; -141.783;-1005.097;-1021.825
672.919;  -89.206; -631.097; -507.825
673.188;  -88.679; -681.097; -878.825
673.457; -146.802;-1101.097;-1143.826
673.726;  -84.151; -579.096; -646.826
673.995;  -53.649; -533.096; -479.826
674.265;  -36.522; -263.096; -333.827
674.534;    2.530; -183.096; -235.827
674.802;   -9.168; -618.096; -703.828
675.071;  837.884; -886.095; -801.828
675.340; 3495.885; -464.095; -339.828
675.609; 1181.187;  103.905;   82.171
675.878;   57.064; -949.095; -893.829
676.147;   18.766;  -26.095;   -8.829
676.416;   65.318; -210.094; -294.830
676.685;  655.845; 1000.906; -622.830
676.953;   95.921; -603.094; -452.831
677.222;  -33.102; -193.094; -273.831
677.491;  -27.675;  -24.094; -127.831
677.759;  -17.173;   11.907;  172.168
678.028;  -25.921; -279.093; -222.832
678.297;  -11.869;   71.907;  197.168
678.565; -149.018; -898.093; -944.833
678.834;  -69.666; -311.093; -268.833
679.102;  -82.089; -411.092; -391.834
679.371; -144.012; -898.092; -727.834
679.639; -129.235; -797.092; -786.834
679.908; -127.058; -794.092; -724.835
680.176; -149.257; -895.091; -941.835
680.445;  -87.805; -346.091; -352.835
680.713;  -31.853;  -58.091;  -23.836
680.982;  -94.876; -523.091; -525.836
681.250; -115.824; -578.091; -507.837
681.518;  -96.172; -534.090; -751.837
681.787;  -20.446; -204.090; -167.837
682.055;  -58.544; -490.090; -422.838
682.323; -143.242; -993.090; -992.838
682.591;    7.410; -216.090; -538.838
682.859;   77.637;    9.911;  -35.839
683.128;    7.864;  232.911;  497.161
683.396; -160.335;-1102.089;-1122.840
683.664;  -44.858; -241.089;   21.160
683.932;  -19.731;  144.911;  -76.840
684.200;  -80.254; -576.088; -320.841
684.468;  -30.302;  -73.088; -124.841
684.736;  -34.250; -214.088; -175.841
685.004; -138.924;-1024.088; -982.842
685.272;  -57.897; -880.088; -774.842
685.540;  -70.370; -499.087; -557.843
685.808;  -82.018; -651.087; -682.843
686.076; -103.141; -894.087; -969.843
686.343;  -57.814; -601.087; -815.844
686.611;   30.212; -195.087; -224.844
686.879;  350.489; -530.086; -553.844
687.147; 2953.591; -483.086; -480.845
687.414;  869.793;  -12.086; -169.845
687.682;  -16.255; -658.086; -757.846
687.950;  255.797;  259.915;  263.154
688.217;    2.248; -792.085; -760.846
688.485;  -27.675; -632.085; -636.847
688.753;  454.852;  -11.085; -102.847
689.020;  121.879; -820.085; -851.847
689.288;  -96.419; -853.084; -787.848
689.555;  -28.817; -195.084; -148.848
689.823;  -47.416; -241.084; -345.849
690.090;  -86.539; -546.084; -651.849
690.358; -147.712; -877.084; -897.849
690.625;    5.665;  120.917;   45.150
690.892;  -82.283; -403.083; -369.850
691.160;  -18.356;   72.917;  -35.850
691.427;  -10.480;  141.917;  130.149
691.694; -138.503; -855.083; -929.851
691.962; -136.351;-1177.082;-1060.852
692.229;   17.751;  127.918;   56.148
692.496;   55.628;  130.918;  -49.852
692.763;    3.430; -164.082; -201.853
693.031;  -85.244; -739.082; -716.853
693.298;  -46.067; -509.081; -368.853
693.565;  242.210; -155.081; -163.854
693.832; 1128.762;   -5.081;   -9.854
694.099;  123.714; -643.081; -642.855
694.366;  -59.259; -882.081; -896.855
694.633;  -59.733; -920.080; -633.855
694.900;  707.944; 4367.920; -114.856
695.167;  394.171; -214.080; -380.856
695.434;   95.548; -646.080; -623.856
695.701;  202.525;  121.921;  -61.857
695.968;  431.652; -365.079; -361.857
696.234;  934.628; -415.079; -646.858
696.501;10456.705; -776.079; -614.858
696.768; 5528.782; -554.079; -617.858
697.035;  338.484; -632.078; -667.859
697.302;   46.636; -448.078; -552.859
697.568;   10.113; -458.078; -497.859
697.835;  -31.761; -683.078; -624.860
698.102;  -14.184; -498.078; -407.860
698.368;   76.768;  384.923;  396.139
698.635;  -36.030;  -47.077; -424.861
698.901;  -14.353; -240.077; -348.861
699.168;   46.499; -534.077; -456.862
699.435;   64.275;  -72.077;  -13.862
699.701; -104.348; -868.076; -764.862
699.968;   13.179;  144.924; -441.863
700.234;  -87.069; -783.076; -822.863
700.500;  -55.192; -448.076; -539.864
700.767;  -17.665;   -1.075;   26.136
701.033; -123.814;-1015.075; -963.864
701.299;  -50.562; -450.075; -483.865
701.566;  114.240;  950.925;  763.135
701.832;   23.692;  -31.075;  -76.865
702.098;  -94.706;-1054.074;-1034.866
702.365;  -84.954;-1098.074;-1030.866
702.631;  -37.753;-1038.074;-1063.867
702.897; 1243.574; -765.074; -676.867
703.163; 2173.301;  348.926;  254.133
703.429;  154.853; -256.073; -273.868
703.695;  -35.470; -796.073; -792.868
703.961;   17.357; -214.073; -210.868
704.227;  -51.967; -630.073; -725.869
704.493;  113.810;  613.927;  510.131
704.759;  -13.438; -565.072; -540.870
705.025;   32.864; -203.072; -194.870
705.291;   -2.859; -666.072; -562.870
705.557;  184.293;  719.928;   34.129
705.823;   40.869; -742.072; -694.871
706.089;  147.946; -307.071; -326.871
706.355;  375.398; -315.071; -244.872
706.620; 5838.200; -776.071; -729.872
706.886; 8357.452; -309.071; -362.873
707.152;  769.279; -818.070; -973.873
707.418;  -12.145;-1153.070;-1186.873
707.683;   -1.443; -550.070; -530.874
707.949;  -28.041; -547.070; -578.874
708.215;   11.161; -129.070; -207.874
708.480;  -18.437; -520.069; -420.875
708.746;   86.290;   68.931;   28.125
709.011;  -61.684; -578.069; -612.876
709.277;  -96.482; -538.069; -543.876
709.542;  -48.280; -428.069; -387.876
709.808;  -11.478;  -59.068;   89.123
710.073;  -90.551; -577.068; -695.877
710.339;  -49.149; -242.068; -228.877
710.604;   40.477; -780.068; -845.878
710.869;  298.254; -277.068; -366.878
711.135;  -72.394; -715.067; -628.879
711.400;  -78.392; -507.067; -608.879
711.665;  -72.815; -404.067; -479.879
711.931;  -82.563; -661.067; -677.880
712.196; -110.412; -876.067; -954.880
712.461;   74.215; -402.066; -490.880
712.726;  129.492; -727.066; -771.881
712.991;  -83.781; -647.066; -664.881
713.256;  -60.754; -350.066; -332.882
713.521;  -68.402; -417.065; -381.882
713.787;  -48.526; -454.065; -472.882
714.052;  -20.499; -214.065; -400.883
714.317;  -76.747;-1045.065; -981.883
714.581; 1070.230; -374.065; -268.883
714.846; 1550.957; -822.064; -888.884
715.111;  142.909;  261.936;  257.116
715.376;  -22.915;  -86.064; -223.885
715.641;  -17.838; -365.064; -367.885
715.906;  263.689;   15.936; -551.885
716.171;  124.041;  221.937;  209.114
716.436;   22.968;  -78.063; -104.886
716.700; -109.080; -818.063; -692.886
716.965; -115.279; -794.063; -807.887
717.230;  -82.302; -339.063; -392.887
717.494;  -27.850;  -40.062; -134.888
717.759; -100.048; -784.062; -640.888
718.024;   -3.496;  269.938;  250.112
718.288;   65.756;  685.938;  395.111
718.553; -141.518; -803.062; -977.889
718.817; -133.241; -883.061; -899.889
719.082;  -35.189; -115.061; -125.890
719.346; -151.112;-1000.061; -947.890
719.611;  -54.360; -300.061; -255.891
719.875;  -94.208; -568.060; -537.891
720.140;  -72.757; -453.060; -603.891
720.404;   18.745; -136.060; -249.892
720.668;  737.847; -475.060; -411.892
720.933;  296.899;  146.940;  137.108
721.197; -102.349; -667.059; -600.893
721.461; -142.147; -851.059; -826.893
721.725;  -23.071;  -21.059; -250.894
721.990;  -57.444; -284.059; -204.894
722.254;  -41.142;  -26.059; -108.894
722.518;  -71.115; -286.058; -442.895
722.782;  -90.113; -743.058; -594.895
723.046;  101.539;  614.942;  570.105
723.310;   17.790;  374.942;  210.104
723.574; -110.558; -654.058; -614.896
723.838; -108.481; -576.057; -642.897
724.102;  -51.779; -226.057; -239.897
724.366; -126.302;-1032.057; -978.897
724.630;  -98.675; -749.057; -571.898
724.894;  -81.474; -722.057; -514.898
725.158;   -7.572;   38.944; -295.898
725.422;  -51.595; -394.056; -327.899
725.685;  -66.093; -441.056; -349.899
725.949;  -89.616; -566.056; -519.900
726.213;  -65.564; -732.056; -811.900
726.477;  134.487;-1020.055; -933.900
726.740;  118.739; -274.055; -104.901
727.004;  323.291; -384.055; -510.901
727.268; 3457.393; -442.055; -400.901
727.531; 1013.570; -961.055; -775.902
727.795;  -43.603; -713.054; -673.902
728.059;  -61.002; -552.054; -557.903
728.322;  -80.750; -841.054; -669.903
728.586;   16.777; -692.054; -701.903
728.849;  -87.371; -695.053; -756.904
729.112; -109.594; -812.053; -912.904
729.376; -127.592; -959.053; -905.904
729.639;  -61.016; -536.053; -536.905
729.903; -107.414; -733.053; -699.905
730.166;  -41.837; -437.052; -399.906
730.429;  -30.035; -317.052; -468.906
730.693;  -70.783; -355.052; -894.906
730.956;  172.544;  810.948;  651.093
731.219;  644.845; -310.052; -103.907
731.482;   82.647;-1003.051; -894.907
731.745;   81.674; -794.051; -935.908
732.009;   16.951;  -30.051;   50.092
732.272; -106.597; -904.051; -771.909
732.535;  -52.020; -300.051; -310.909
732.798; -151.069;-1083.050;-1166.909
733.061;  -56.017; -430.050; -456.910
733.324;   -5.140;   31.950; -180.910
733.587;   55.937;  290.950;  365.090
733.850;  -62.611; -973.049;-1050.911
734.113;   21.516;   33.951;   32.089
734.376;   -5.233; -328.049; -447.912
734.639;  205.669; 1188.951; 1011.088
734.901;   46.096; -180.049; -402.912
735.164;  447.723; -883.048; -837.913
735.427; 1229.500; -166.048; -355.913
735.690;  118.127; -205.048; -234.913
735.952;  -29.497; -923.048; -925.914
736.215;  -23.270;-1113.048;-1009.914
736.478;   38.782; -771.047; -774.915
736.740;  204.434;   33.953;  129.085
737.003;  584.636; -658.047; -672.915
737.266; 3727.438;  -94.047;   46.084
737.528;  409.689; -682.047; -660.916
737.791;  307.216; -316.046; -327.916
738.053;  775.718;  465.954;  649.083
738.316;10571.720; -162.046; -136.917
738.578; 8008.997; -770.046; -736.918
738.841;  448.399; -382.046; -446.918
739.103;  167.850; -875.045; -777.918
739.365;  497.327;   79.955;  -69.919
739.628;    1.879; -884.045; -805.919
739.890;  -37.019; -758.045; -710.919
740.152;  -39.042; -692.044; -754.920
740.414;  -13.440; -408.044; -359.920
740.677;  -56.739; -785.044; -634.921
740.939;  -51.062; -587.044; -487.921
741.201;  217.165; -432.044; -572.921
741.463;   20.867; -689.043; -745.922
741.725;   -1.381;  -21.043; -199.922
741.987;   33.871;  220.957;  116.078
742.249;  -17.753; -751.043; -859.923
742.511;  182.574; -703.043; -794.923
742.773;   19.501; -546.042; -546.924
743.035;  112.053;  796.958;  533.076
743.297;  -51.295; -963.042;-1013.924
743.559;  700.082; -278.042; -262.925
743.821;   51.683; -735.042; -744.925
744.083;  -15.415;  -44.041; -149.925
744.345;  -82.963; -869.041; -892.926
744.607;   28.489;   75.959;  122.074
744.868;  -69.309; -490.041; -554.927
745.130; -111.557; -994.041;-1008.927
745.392;   27.744;   -1.040;  -44.927
745.653;  -21.904; -411.040; -378.928
745.915;  125.698;  896.960;  631.072
746.177;   47.750;   35.960;  -43.928
746.438;   -9.448; -428.040; -543.929
746.700;  -46.146; -947.039; -988.929
746.961;    6.280; -659.039; -740.930
747.223;  140.732; -190.039;  -74.930
747.484;   71.009; -391.039; -471.930
747.746;  137.586;  -23.038; -106.931
748.007;  111.163; -647.038; -689.931
748.269;  277.090; -468.038; -440.931
748.530;  449.266; -852.038; -638.932
748.791;  241.243; -354.038; -420.932
749.053;  427.770;  286.963;  163.067
749.314;  425.772; -236.037; -169.933
749.575;  498.174; -945.037; -905.933
749.836;  821.326; -217.037;   86.066
750.098; 2236.652;  -60.037;  -21.934
750.359;34389.304;  414.964;  555.066
750.620; 9518.656; -121.036; -220.935
750.881;  975.708; -585.036; -513.935
751.142; 1289.510; -950.036; -938.936
751.403;16082.912; -789.036; -705.936
751.664; 7790.213;-1034.035; -999.936
751.925;  493.765; -175.035; -262.937
752.186;  268.467; -298.035; -278.937
752.447;  129.169; -590.035; -445.937
752.708;   60.046; -532.035; -648.938
752.969;   13.798; -566.034; -576.938
753.230;  -15.326; -777.034; -672.939
753.491;  -11.874; -650.034; -631.939
753.751;   72.503;  109.966;   19.061
754.012;   88.505;  258.967;  181.060
754.273;   40.907; -174.033;  -71.940
754.534;    5.159; -487.033; -580.940
754.794;  -78.640; -926.033; -911.941
755.055;  140.087; 1051.967;  881.059
755.316;  -51.586; -700.032; -566.942
755.576;  -27.609; -606.032; -576.942
755.837;  -48.082; -527.032; -695.942
756.097;  -37.080; -530.032; -564.943
756.358;  -86.079; -725.032; -770.943
756.618;  -47.702; -705.031; -641.943
756.879;   13.550; -254.031; -349.944
757.139; -132.298;-1098.031;-1116.944
757.400;  -53.946; -538.031; -553.945
757.660;  -20.994; -365.031; -401.945
757.920;    7.807; -266.030; -228.945
758.181;  -28.941; -468.030; -351.946
758.441; -103.364; -870.030; -809.946
758.701;  -30.912; -308.030; -215.946
758.961;  -24.635; -220.030; -278.947
759.222;  -50.158; -574.029; -502.947
759.482;  -83.582; -683.029; -723.948
759.742;  -80.355; -706.029; -547.948
760.002;   -2.303;  -83.029; -143.948
760.262;    7.724;   50.972;  182.051
760.522;  -35.974; -498.028; -574.949
760.782;  -48.847; -738.028; -612.949
761.042;  -29.721; -618.028; -573.950
761.302;   54.906;   55.972;  -18.950
761.562;   53.608; -164.027; -154.951
761.822;   61.885; -710.027; -551.951
762.082;  -32.038;-1104.027;-1093.951
762.342;   63.914; -328.027; -403.952
762.601;   81.315; -567.027; -506.952
762.861;  330.817; -281.026; -207.952
763.121;  405.194; -406.026; -411.953
763.381; 7069.546; -499.026; -485.953
763.640; 8610.548; -139.026; -307.954
763.900;  366.800; -242.026; -203.954
764.160;   99.326; -458.025; -491.954
764.419;    5.978; -726.025; -782.955
764.679;  -69.295; -795.025; -726.955
764.939;  -17.493; -124.025; -210.955
765.198;  -81.616; -608.025; -563.956
765.458;  -78.914; -710.024; -612.956
765.717; -102.438; -454.024; -590.957
765.976;  -64.536; -428.024; -411.957
766.236;  -69.809; -475.024; -610.957
766.495;   33.968;  260.977;   73.042
766.755; -106.680;-1090.023; -987.958
767.014;  -12.103; -594.023; -665.958
767.273;  -58.827; -373.023; -397.959
767.533;  -55.425; -228.023; -307.959
767.792;  -31.973; -151.022; -188.960
768.051;  -49.821; -228.022; -276.960
768.310;  -85.544; -546.022; -650.960
768.569;   -5.067; -161.022;    4.039
768.828;  -47.941; -285.022; -363.961
769.088; -125.089;-1050.021; -942.961
769.347;  -75.637; -755.021; -599.962
769.606;  -86.810; -876.021; -857.962
769.865; -104.633;-1016.021;-1033.963
770.124;  -11.231; -411.021; -336.963
770.383;  -44.705; -778.020; -910.963
770.641;    7.122; -398.020; -400.964
770.900;  -61.101; -953.020; -846.964
771.159;  -33.024; -851.020; -951.964
771.418;   -0.997; -917.020; -779.965
771.677;  133.580; -224.019; -293.965
771.936;  159.906; -794.019; -865.966
772.194; 2146.458; -465.019; -437.966
772.453;11818.710; -213.019; -391.966
772.712;  862.262;  416.982;  329.033
772.970;  134.064;   32.982;   63.033
773.229;   91.116;  -22.018;  102.033
773.488;  -87.658; -814.018; -770.968
773.746;   42.669;  296.982;  335.032
774.005;   17.796;  190.983;  -22.969
774.263;    3.173;  243.983;  177.031
774.522;  -36.000; -422.017; -548.969
774.780;  -79.223; -484.017; -417.970
775.039;  -98.597; -551.017; -531.970
775.297;  -11.045; -135.016; -351.970
775.555;  -94.418; -489.016; -612.971
775.814; -125.116; -618.016; -570.971
776.072; -121.964; -749.016; -740.971
776.330; -107.762; -630.016; -520.972
776.589; -123.686; -703.015; -721.972
776.847; -126.534; -645.015; -624.973
777.105; -165.132;-1016.015;-1032.973
777.363;  -95.380; -459.015; -454.973
777.621; -138.678; -660.015; -717.974
777.879;  -28.901;  -42.014;   32.026
778.138;  -95.075; -554.014; -717.974
778.396; -101.648; -585.014; -526.975
778.654; -150.646;-1015.014; -970.975
778.912;  -76.194; -269.014; -371.976
779.170; -123.517; -880.013; -803.976
779.427; -152.940; -922.013; -897.976
779.685; -137.664; -880.013; -832.977
779.943;  -89.012; -654.013; -593.977
780.201; -161.760; -964.012; -883.978
780.459; -126.508; -651.012; -610.978
780.717;  -85.456; -440.012; -390.978
780.974;  -98.729; -449.012; -490.979
781.232;  -69.128; -358.012; -338.979
781.490;  -87.901; -551.011; -472.979
781.747; -100.399; -555.011; -476.980
782.005;   18.428;  462.989;  254.020
782.263; -169.745; -542.011;-1004.981
782.520;  -78.543; -326.011; -501.981
782.778; -155.092;-1013.010;-1051.981
783.035; -166.665; -962.010; -938.982
783.293;  -63.613; -248.010; -206.982
783.550;  -54.486; -134.010; -198.982
783.808; -132.609; -764.010; -776.983
784.065; -166.232; -745.009; -874.983
784.322;  -43.206;   25.991;  -86.984
784.580; -153.629; -915.009; -771.984
784.837;  -92.927; -392.009; -466.984
785.094; -136.250; -783.009; -762.985
785.352;  -76.723; -304.008; -404.985
785.609; -122.696; -934.008; -839.985
785.866;  -89.120; -345.008; -401.986
786.123;  -82.893; -639.008; -583.986
786.380; -112.691; -665.008; -604.987
786.637;  -54.964; -225.007; -380.987
786.895;  -22.312; -456.007; -543.987
787.152;  -51.685; -135.007; -267.988
787.409;  -43.959; -123.007; -225.988
787.666;  -97.632; -299.006; -378.988
787.923; -118.280; -616.006; -695.989
788.179;  -97.678; -551.006; -584.989
788.436; -116.151; -585.006; -585.990
788.693;  -46.899;  -92.006;  -87.990
788.950;  104.902; -125.005; -112.990
789.207;  192.079; -381.005; -372.991
789.464;  -65.869; -161.005; -301.991
789.720;  -10.892;  150.995;  110.009
789.977; -180.040;-1003.005; -671.992
790.234;  -41.688;   44.996;  -66.992
790.490; -155.912; -884.004;-1031.993
790.747;  -26.960;  -85.004;   22.007
791.004;  -32.458; -426.004; -348.993
791.260;  -87.331; -430.004; -560.994
791.517; -101.979; -843.003; -788.994
791.773;  -42.627; -379.003; -342.994
792.030; -108.401; -596.003; -660.995
792.286; -107.199; -686.003; -636.995
792.543;  -16.372;  -74.002; -159.995
792.799;  -60.795; -584.002; -382.996
793.055; -150.093;-1179.002;-1210.996
793.312;  -88.366; -827.002; -816.997
793.568;  -74.140; -746.002; -599.997
793.824;   13.087; -226.001; -284.997
794.081;   24.139; -447.001; -508.998
794.337;   38.541; -664.001; -561.998
794.593; 1165.343; -319.001; -271.999
794.849; 6635.295; -746.001; -772.999
795.105;  356.896; -270.000; -261.999
795.361;    5.023; -490.000; -457.000
795.617;  -70.100; -875.000; -945.000
795.873;  -46.250; -360.000; -407.000
796.129;  -31.400; -368.000; -306.000
796.385;  -17.850; -124.000; -156.000
796.641;   48.550;  412.000;  550.000
796.897;  -79.800; -666.000; -635.000
797.153;   67.600;  453.000;  357.000
797.409; -106.750; -785.000; -868.000
797.665;  -74.300; -625.000; -732.000
797.921;  -76.200; -775.000; -762.000
798.176;  -62.375; -744.000; -747.000
798.432;  -52.775; -824.000; -596.000
798.688;  -65.425;-1174.000;-1078.000
798.943;   82.075; -165.000; -147.000
799.199;    3.225;-1005.000; -959.000
799.455;  239.950;  369.000;  316.000
799.710;  154.375; -813.000; -380.000
799.966;  317.150; -162.000; -160.000
800.221;  495.975; -638.000; -721.000
800.477; 9991.475; -743.000; -710.000
800.732;10125.675; -773.000; -800.000
800.988;  685.850;  205.000;  -19.000
801.243; 1808.025; -454.000; -344.000
801.498; 8996.325; -814.000; -739.000
801.754;  563.200; -289.000; -163.000
802.009;  108.625; -257.000; -335.000
802.264;  -49.275; -967.000;-1033.000
802.520;   34.525;  222.000;   -3.000
802.775;  -42.275; -524.000; -359.000
803.030;   51.075;  395.000;  356.000
803.285; -119.475; -840.000; -903.000
803.540;  -65.025; -686.000; -699.000
803.795;  -50.150; -648.000; -583.000
804.051;  -36.400; -279.000; -346.000
804.306;   21.500;  168.000;  128.000
804.561;  132.425;  451.000;  362.000
804.816;  124.375;  714.000;  861.000
805.071;  -13.950; -185.000; -280.000
805.325;  186.175; -257.000; -427.000
805.580;  -97.500; -841.000; -877.000
805.835;  -23.800; -204.000; -297.000
806.090;  -82.775; -760.000; -676.000
806.345;  -16.750; -344.000; -264.000
806.600;  -22.950; -549.000; -632.000
806.854;  -15.525; -408.000; -538.000
807.109;  -16.275; -493.000; -577.000
807.364;    0.825; -407.000; -328.000
807.618;    9.625; -415.000; -381.000
807.873;   46.025; -470.000; -494.000
808.128;   81.150; -257.000; -518.000
808.382;   99.525; -224.000; -332.000
808.637;   56.075; -440.000; -511.000
808.891;  181.475; -257.000; -180.000
809.146;   92.725; -902.000; -794.000
809.400;  244.550; -848.000; -923.000
809.654;  318.650; -779.000; -551.000
809.909;  461.100; -841.000; -927.000
810.163; 5662.650; -813.000; -651.000
810.418;16802.600; -940.000; -861.000
810.672; 1075.925; -685.000; -690.000
810.926;  737.225; -993.000; -973.000
811.180; 1394.850; -439.000; -372.000
811.434;31809.625;  240.000;  135.000
811.689;14713.375; -231.000; -365.000
811.943;  674.125; -936.000; -953.000
812.197;  363.825; -893.000; -671.000
812.451;  136.525; -379.000; -514.000
812.705;  -15.150; -809.000; -619.000
812.959;   -8.300; -263.000; -388.000
813.213;    2.175; -283.000; -209.000
813.467;   63.625;  470.000;  253.000
813.721;  -98.100; -764.000; -792.000
813.975; -111.775; -826.000; -877.000
814.229;   40.325;  430.000;  353.000
814.482;  -79.800; -517.000; -566.000
814.736; -115.275; -766.000; -744.000
814.990; -125.800; -779.000; -872.000
815.244;  -58.750; -228.000; -285.000
815.497;  -96.650; -636.000; -601.000
815.751;  -16.575; -141.000;   82.000
816.005;  -94.675; -470.000; -586.000
816.258;  -59.500; -510.000; -363.000
816.512; -103.900; -693.000; -610.000
816.766;    0.725;  121.000;  157.000
817.019;   21.775;  148.000;  149.000
817.273; -108.325;-1000.000; -802.000
817.526;  -42.600; -206.000; -173.000
817.779;  -70.875;-1049.000; -960.000
818.033;  -63.325; -693.000; -807.000
818.286; -121.150; -725.000; -792.000
818.540;  -83.100; -403.000; -403.000
818.793;  -70.175; -402.000; -489.000
819.046;  -90.700; -582.000; -520.000
819.299;  -41.425; -157.000; -166.000
819.553; -100.775; -552.000; -592.000
819.806; -161.825;-1016.000; -838.000
820.059;  -66.575; -334.000; -354.000
820.312;   -2.475;  152.000;  185.000
820.565;  -17.850;  110.000;  -27.000
820.818;  -60.375;  -59.000; -173.000
821.071; -171.300;-1041.000; -957.000
821.324; -108.250; -536.000; -540.000
821.577; -101.250; -457.000; -483.000
821.830;  -62.275; -270.000; -172.000
822.083; -125.800; -733.000; -288.000
822.336;  -46.875; -261.000; -167.000
822.589; -130.300; -805.000; -688.000
822.842; -141.900; -875.000; -770.000
823.094; -174.800;-1076.000;-1114.000
823.347; -137.225; -925.000; -729.000
823.600;   15.825;  402.000;  187.000
823.853;  -42.525; -311.000; -267.000
824.105;  -57.700; -331.000; -575.000
824.358; -116.825; -617.000; -716.000
824.611;   33.725;  234.000;   40.000
824.863;  -58.150; -612.000; -591.000
825.116;   39.425;  -33.000;   27.000
825.368;   60.000; -366.000; -372.000
825.621;  139.525; -186.000; -240.000
825.873;   72.425; -704.000; -737.000
826.126;  513.050; -669.000; -641.000
826.378;11304.925; -389.000; -505.000
826.630; 3270.800; -890.000; -898.000
826.883;   51.475; -754.000; -693.000
827.135;   47.950; -279.000; -270.000
827.387; -106.800; -893.000; -839.000
827.639;  -31.375;  -86.000;   32.000
827.892; -135.850; -742.000; -582.000
828.144; -154.050; -848.000; -804.000
828.396;  -40.625;  104.000;  -80.000
828.648; -103.300; -440.000; -333.000
828.900; -142.100; -702.000; -795.000
829.152; -121.700; -684.000; -683.000
829.404;  -78.150; -215.000; -267.000
829.656;  -11.500;  321.000;  214.000
829.908;  -25.875;  393.000;  229.000
830.160; -172.175;-1064.000;-1047.000
830.412; -106.925; -481.000; -430.000
830.664; -113.075; -557.000; -665.000
830.916;  -82.050; -268.000; -206.000
831.167; -168.000;-1073.000; -951.000
831.419; -106.675; -623.000; -566.000
831.671; -152.225; -764.000; -809.000
831.923;  -93.375; -311.000; -447.000
832.174;  -83.000; -273.000; -331.000
832.426; -120.450; -493.000; -582.000
832.678; -175.300;-1043.000;-1091.000
832.929; -163.275; -947.000; -935.000
833.181;  -73.125; -575.000; -677.000
833.432;  -60.825;  -59.000; -186.000
833.684;  -32.225;  112.000;  -27.000
833.935; -121.575; -610.000; -566.000
834.187; -137.225; -829.000; -823.000
834.438;  -53.425;  -58.000;  -25.000
834.689;  -58.500; -255.000; -123.000
834.941;  -61.625; -343.000; -244.000
835.192; -106.475; -590.000; -533.000
835.443;  -86.900; -419.000; -506.000
835.695;  -25.000;  138.000;  -16.000
835.946; -104.300; -608.000; -378.000
836.197; -107.925; -599.000; -622.000
836.448;  -87.550; -528.000; -395.000
836.699;  -68.550; -253.000; -341.000
836.950;  -20.225;   72.000;    7.000
837.201; -152.600;-1003.000; -987.000
837.452;  -62.500; -356.000; -170.000
837.703; -118.550; -791.000; -737.000
837.954;  -39.450; -205.000; -365.000
838.205;  -90.250;-1029.000;-1008.000
838.456;  145.350; -196.000; -282.000
838.707;    5.250; -423.000; -519.000
838.958;   -9.250; -634.000; -647.000
839.209;  242.825;   18.000;   40.000
839.460;  103.775; -439.000; -201.000
839.710;  147.475; -135.000; -297.000
839.961;  395.875;  730.000;  612.000
840.212;  330.000; -382.000; -497.000
840.462; 1060.525; -328.000; -277.000
840.713;17192.225; -571.000; -536.000
840.964; 8046.175;  -62.000; -143.000
841.214;  535.900; -384.000; -624.000
841.465;  547.300; -214.000; -141.000
841.715;  473.100; -417.000; -380.000
841.966;  591.275; -746.000; -685.000
842.216; 7411.275; -330.000; -431.000
842.466;32760.875; -169.000; -313.000
842.717; 2141.375; -964.000; -952.000
842.967;  282.775; -635.000; -641.000
843.217;  252.250;   20.000;   28.000
843.468;   62.175; -104.000; -132.000
843.718;  -51.625; -718.000; -726.000
843.968;  -89.325; -837.000; -765.000
844.218;  -10.425; -315.000; -262.000
844.469;  -57.725; -577.000; -561.000
844.719; -108.400; -537.000; -682.000
844.969; -103.650; -550.000; -580.000
845.219; -150.750; -814.000; -862.000
845.469;  -73.725; -392.000; -342.000
845.719; -129.550; -792.000; -884.000
845.969;  -14.675;  119.000;  174.000
846.219; -126.375; -738.000; -720.000
846.469;   -2.600;  464.000;  432.000
846.718;  -55.000; -115.000;   31.000
846.968; -132.000; -827.000; -827.000
847.218;  -52.800; -224.000; -371.000
847.468; -111.850; -586.000; -555.000
847.718; -148.750; -827.000; -798.000
847.967; -146.850; -826.000; -915.000
848.217;  -86.025; -449.000; -569.000
848.467;  -54.475; -405.000; -376.000
848.716; -111.250; -708.000; -725.000
848.966;  -14.075; -372.000; -358.000
849.215;  -62.775; -428.000; -419.000
849.465; -103.300; -785.000; -615.000
849.714; -137.775;-1132.000;-1150.000
849.964;  -75.075; -551.000; -613.000
850.213;  -23.900; -393.000; -355.000
850.463;   78.950;  137.000;  340.000
850.712;  -15.400; -542.000; -567.000
850.961;   15.050; -739.000; -678.000
851.211;  111.775; -513.000; -504.000
851.460;  171.850; -635.000; -650.000
851.709;  551.525;  -25.000;   18.000
851.958; 9658.375; -912.000; -750.000
852.208;13818.400; -859.000; -879.000
852.457;  523.450; -181.000;  -13.000
852.706;   74.075; -791.000; -823.000
852.955;   22.425; -507.000; -528.000
853.204;  -67.175; -521.000; -461.000
853.453;  -69.825; -418.000; -458.000
853.702; -134.200; -660.000; -750.000
853.951; -109.850; -532.000; -520.000
854.200; -118.725; -613.000; -562.000
854.449; -138.875; -695.000; -661.000
854.698; -108.225; -340.000; -279.000
854.946;  -61.575; -181.000; -284.000
855.195; -152.525; -843.000; -868.000
855.444; -106.975; -395.000; -420.000
855.693; -118.675; -345.000; -432.000
855.941; -110.250; -387.000; -516.000
856.190;  -58.650; -256.000; -382.000
856.439; -131.625; -652.000; -703.000
856.687;  -56.850;  -99.000;  -72.000
856.936; -124.475; -621.000; -323.000
857.184; -180.250;-1067.000;-1020.000
857.433; -101.825; -423.000; -512.000
857.681; -164.075; -989.000; -953.000
857.930;  -85.600; -282.000; -433.000
858.178; -170.675; -856.000; -929.000
858.427; -151.250; -802.000; -781.000
858.675; -121.450; -377.000; -544.000
858.923; -111.625; -527.000; -819.000
859.172; -181.750;-1094.000;-1070.000
859.420; -103.800; -339.000; -239.000
859.668; -140.375; -624.000; -628.000
859.916;  -45.800;  109.000;  115.000
860.164; -115.100; -699.000; -603.000
860.413;  192.975; -878.000; -696.000
860.661;  212.625; -709.000; -577.000
860.909;  -95.625; -339.000; -325.000
861.157;  -89.525; -277.000; -444.000
861.405; -132.100; -534.000; -670.000
861.653;   -8.300;  310.000;  310.000
861.901;  122.325; -543.000; -613.000
862.149;   -0.025; -801.000; -824.000
862.396;  -84.100; -297.000; -187.000
862.644;  -87.200; -368.000; -347.000
862.892;  -35.200;   98.000;  138.000
863.140; -129.575; -549.000; -530.000
863.388; -158.375; -815.000; -759.000
863.635; -131.525; -642.000; -601.000
863.883;  -21.900;  231.000;  190.000
864.131; -106.175; -288.000; -357.000
864.378; -141.275; -675.000; -540.000
864.626;  -98.225; -347.000; -415.000
864.873; -123.475; -556.000; -505.000
865.121; -143.375; -714.000; -799.000
865.368;  -46.475; -173.000;   75.000
865.616;  -33.125;  -33.000;  -40.000
865.863;  -55.175; -462.000; -506.000
866.111;  -94.150; -795.000; -824.000
866.358;   47.850; -426.000; -420.000
866.605; 2386.825;  -64.000; -804.000
866.853; 2859.000; -621.000; -537.000
867.100;  -27.000; -728.000; -775.000
867.347;  -99.525; -672.000; -611.000
867.594;  -97.750; -740.000; -714.000
867.841;   78.625;   97.000;   17.000
868.089; -146.800; -746.000; -698.000
868.336; -102.500; -477.000; -420.000
868.583; -148.600; -637.000; -741.000
868.830;  -61.200; -131.000; -170.000
869.077; -174.100; -859.000; -787.000
869.324; -144.750; -502.000; -458.000
869.571; -128.025; -398.000; -430.000
869.818; -131.025; -485.000; -439.000
870.065; -110.150; -439.000; -513.000
870.311; -126.325; -456.000; -542.000
870.558; -108.225; -332.000; -311.000
870.805; -102.325; -320.000; -384.000
871.052; -117.925; -494.000; -369.000
871.298;  -78.325; -204.000; -131.000
871.545;  -77.500; -151.000; -185.000
871.792;  -96.650; -173.000; -222.000
872.038;  -74.875;   43.000; -126.000
872.285; -125.575; -496.000; -387.000
872.532; -100.225; -357.000; -387.000
872.778;    3.225;  556.000;  403.000
873.025; -100.175; -384.000; -359.000
873.271;    8.300;  501.000;  578.000
873.517;  -51.600; -133.000; -209.000
873.764;  -46.775; -193.000;  -80.000
874.010;  -78.800; -143.000; -230.000
874.257;  -61.075;  123.000;   90.000
874.503; -128.925; -579.000; -479.000
874.749;  -79.725;   31.000;  275.000
874.995;  -69.950;  -80.000;  -20.000
875.242; -139.150; -540.000; -478.000
875.488; -117.375; -414.000; -439.000
875.734;  -61.275; -106.000; -234.000
875.980;  123.075; -872.000;-1032.000
876.226;  334.050; -157.000; -255.000
876.472;   -2.125;  343.000;  237.000
876.718;  -52.825;  184.000;  158.000
876.964;  -55.200;   56.000;   55.000
877.210; -154.350; -547.000; -677.000
877.456; -145.975; -630.000; -557.000
877.702; -174.900; -821.000; -832.000
877.948; -113.950; -377.000; -497.000
878.193;   -3.775;  361.000;  255.000
878.439;  -98.625; -487.000; -472.000
878.685; -114.650; -272.000; -343.000
878.931; -138.150; -618.000; -676.000
879.176;  -93.125; -201.000; -201.000
879.422; -174.825; -933.000; -820.000
879.668;   50.400;   10.000;   79.000
879.913;  123.175;   53.000;  137.000
880.159;  -64.550; -112.000;  -17.000
880.404;  -58.600; -152.000; -162.000
880.650;  -50.850;   91.000;  141.000
880.895; -159.375; -670.000; -710.000
881.141; -124.400; -454.000; -428.000
881.386; -151.500; -503.000; -658.000
881.631;  -87.550; -311.000; -166.000
881.877;  -52.375;  112.000;  -13.000
882.122; -141.125; -684.000; -600.000
882.367;  -98.825; -136.000; -186.000
882.612;  -84.450;  -80.000; -176.000
882.858; -172.475; -877.000; -823.000
883.103;  -97.875; -297.000; -267.000
883.348; -154.825; -759.000; -852.000
883.593; -152.675; -677.000; -602.000
883.838;  -50.700; -311.000;  -24.000
884.083;    4.475;  353.000;  288.000
884.328; -100.450; -564.000; -545.000
884.573;  -60.725; -196.000; -143.000
884.818;  133.900; -694.000; -531.000
885.063;  179.775; -348.000; -315.000
885.308; -100.475; -475.000; -398.000
885.553;  -20.550;  245.000;  325.000
885.797; -130.175; -545.000; -615.000
886.042;  -64.650;    8.000;   58.000
886.287;  -79.900; -253.000; -211.000
886.532;  -56.625;   26.000;  204.000
886.776; -108.725; -407.000; -525.000
887.021; -144.350; -621.000; -574.000
887.265; -158.050; -685.000; -689.000
887.510; -136.300; -557.000; -496.000
887.755; -102.100; -194.000; -164.000
887.999; -131.150; -552.000; -575.000
888.244;  -72.675;  -58.000;  161.000
888.488;   -8.725;  371.000;  393.000
888.732; -137.250; -368.000; -520.000
888.977; -133.775; -622.000; -567.000
889.221; -169.350; -683.000; -659.000
889.465; -135.375; -422.000; -566.000
889.710;  -88.300;  -56.000; -299.000
889.954;  -15.550;  579.000;  467.000
890.198; -151.200; -584.000; -707.000
890.442; -167.700; -716.000; -712.000
890.687; -164.375; -800.000; -753.000
890.931;  -99.975; -273.000; -210.000
891.175; -133.975; -502.000; -500.000
891.419;  -71.050; -105.000; -110.000
891.663; -102.025; -239.000; -112.000
891.907; -169.675; -801.000; -545.000
892.151; -185.200; -920.000; -815.000
892.395; -124.175; -274.000; -387.000
892.638;  -46.400;  408.000;  291.000
892.882; -184.800; -780.000; -867.000
893.126;   -5.175;  758.000;  558.000
893.370; -105.125; -167.000; -168.000
893.614; -150.200; -714.000; -715.000
893.857; -117.850; -183.000; -197.000
894.101; -137.375; -527.000; -631.000
894.345;  -70.825;  300.000;  150.000
894.588;    0.400;  569.000;  380.000
894.832;  -86.400; -178.000;  -84.000
895.075;  -81.250;   15.000;  -92.000
895.319; -131.825; -552.000; -420.000
895.563; -125.800; -413.000; -353.000
895.806; -153.775; -628.000; -741.000
896.049;  -69.300; -576.000; -368.000
896.293;   74.750;  527.000;  405.000
896.536;  -84.550; -465.000; -468.000
896.779;  -63.300; -149.000;   -1.000
897.023; -138.725; -751.000; -714.000
897.266;  -36.625;  325.000;  269.000
897.509; -188.325; -900.000; -901.000
897.752;  -51.325;  149.000;  171.000
897.996; -198.400; -972.000; -864.000
898.239;  -50.675;  168.000;  102.000
898.482; -128.875; -431.000; -453.000
898.725;  -40.500;  101.000;   53.000
898.968; -148.725; -609.000; -744.000
899.211; -111.400; -513.000; -361.000
899.454; -142.425; -633.000; -539.000
899.697;  -71.750;   90.000;  -43.000
899.940; -174.125; -761.000; -757.000
900.182; -119.700; -335.000; -405.000
900.425;  -98.800; -150.000; -298.000
900.668;  -33.500;  491.000;  350.000
900.911;  -99.625; -292.000; -345.000
901.154;  -55.000;  141.000;   -3.000
901.396; -134.900; -407.000; -412.000
901.639; -148.425; -430.000; -496.000
901.882; -185.650; -790.000; -809.000
902.124;  -80.475;  -29.000; -143.000
902.367; -127.250; -315.000; -361.000
902.609; -139.300; -476.000; -453.000
902.852;  -89.550; -108.000; -260.000
903.094; -136.725; -458.000; -337.000
903.337;  -87.550;  -26.000;   53.000
903.579; -102.475; -228.000; -441.000
903.821; -159.875; -597.000; -744.000
904.064;  -64.625;   85.000;  127.000
904.306;  -91.025; -126.000; -166.000
904.548; -102.550; -152.000; -366.000
904.790; -109.650; -195.000; -340.000
905.033; -133.100; -625.000; -577.000
905.275; -133.700; -513.000; -524.000
905.517;   28.750;  468.000;  256.000
905.759;  -67.925; -667.000; -761.000
906.001; -113.250; -322.000; -369.000
906.243;  -67.650; -162.000; -224.000
906.485;   84.525; -265.000; -207.000
906.727;   93.275; -499.000; -542.000
906.969;  -31.825;  -30.000; -135.000
907.211;   77.325; -316.000; -382.000
907.453;  228.300; -188.000; -237.000
907.695;   -9.450; -158.000; -385.000
907.936;   42.475;  818.000;  706.000
908.178;  -45.550;   92.000; -135.000
908.420;  -75.850; -111.000; -162.000
908.662; -131.875; -633.000; -682.000
908.903;  -84.900; -208.000; -123.000
909.145;  -63.025; -240.000; -305.000
909.386;    1.800;  315.000;  280.000
909.628;   16.875;  363.000;  397.000
909.870;  -10.350;   29.000;  264.000
910.111;  -91.050; -809.000; -949.000
910.353;    6.550; -123.000; -161.000
910.594;    6.275; -574.000; -606.000
910.835;   72.075; -265.000; -326.000
911.077;  152.150; -503.000; -604.000
911.318;  276.025; -505.000; -471.000
911.559;  469.075; -577.000; -880.000
911.801; 1287.625; -284.000; -280.000
912.042; 9742.350;  -50.000; -159.000
912.283;27925.550;  404.000;  371.000
912.524; 4893.875; -396.000; -457.000
912.765;  536.800; -193.000;   79.000
913.006;  249.000; -307.000; -338.000
913.247;   55.675; -270.000; -290.000
913.488;    0.075;  -43.000;   30.000
913.729;  -69.375; -373.000; -373.000
913.970;  -68.325;  -96.000; -292.000
914.211;  -72.375; -160.000; -198.000
914.452;  -70.300; -118.000;  -11.000
914.693;    0.750;  510.000;  592.000
914.934;    0.900;  510.000;  440.000
915.175;  -72.100;   53.000;  -95.000
915.415;  -83.275; -137.000;   27.000
915.656;  -65.900;  -28.000;  192.000
915.897;  -82.700; -252.000;  -82.000
916.137;  -75.000;   74.000;   -9.000
916.378; -131.725; -573.000; -517.000
916.619;  -98.925; -159.000;  -63.000
916.859;  -30.175;  303.000;  330.000
917.100;  121.700; 1655.000; 1070.000
917.340;   60.100;  930.000;  728.000
917.581;   36.950;  965.000;  789.000
917.821;  -59.375; -171.000;  143.000
918.061;   -3.475; -199.000;  -72.000
918.302;  -62.425; -152.000; -211.000
918.542;  -31.475;  -22.000;    3.000
918.782;   22.950;  369.000;  377.000
919.023;  107.850;  360.000;  427.000
919.263; 1272.425; 8131.000;  202.000
919.503; 1105.375; -137.000;  -54.000
919.743;  565.950;  390.000;  266.000
919.983;  265.750; -134.000;  -26.000
920.223;   75.700;  135.000;   14.000
920.463;  150.775;  631.000;  554.000
920.703;  141.300;   84.000;   39.000
920.943;  178.975; -110.000;   90.000
921.183;  240.975; -414.000; -405.000
921.423;  522.550;  307.000;  546.000
921.663;  756.550; -174.000; -257.000
921.903; 1581.400;  237.000;  173.000
922.143; 8613.950;  372.000;  389.000
922.383;34878.100;  158.000;  115.000
922.622;13548.450; -120.000;  -15.000
922.862; 1401.500;  796.000;  785.000
923.102;  511.200;  -51.000;   33.000
923.341;  221.100;   59.000;   74.000
923.581;   97.150;  450.000;  360.000
923.821;   32.225;  301.000;  398.000
924.060;    4.350;  351.000;  193.000
924.300;  -47.600;  -16.000; -128.000
924.539;  -21.525;  584.000;  473.000
924.779;   12.900;  812.000;  597.000
925.018;  -53.775;  247.000;  353.000
925.257;   -6.500;  595.000;  666.000
925.497;  -48.700;  447.000;  412.000
925.736;  -77.650;  -35.000;  102.000
925.975;    3.175;  687.000;  669.000
926.214;   26.800;  907.000;  850.000
926.454;   11.075;  706.000;  757.000
926.693;  -40.375;  419.000;  543.000
926.932;   36.550; 1021.000;  825.000
927.171;   57.450; 1107.000; 1044.000
927.410;   49.675; 1144.000;  967.000
927.649;   19.725;  924.000;  742.000
927.888;   -5.825;  590.000;  564.000
928.127;   -7.725;  680.000;  678.000
928.366;   20.775;  842.000;  826.000
928.605;   23.075;  831.000;  737.000
928.844;  210.825; 1451.000; 1393.000
929.083;  569.400;  770.000;  613.000
929.321;  340.625; 1335.000; 1359.000
929.560;   74.625; 1158.000; 1122.000
929.799;  -19.575;  574.000;  475.000
930.038;   72.025; 1025.000; 1394.000
930.276;  -49.850;  334.000;  397.000
930.515;  -10.950;  827.000;  681.000
930.753;  -22.975;  614.000;  589.000
930.992;  -19.100;  664.000;  717.000
931.230;   -5.750;  847.000;  847.000
931.469;  160.025; 2162.000;  892.000
931.707;   58.400;  840.000;  751.000
931.946;   65.575; 1278.000; 1344.000
932.184;   43.325; 1437.000; 1175.000
932.423;   40.550; 1265.000;  963.000
932.661;   91.525; 1296.000; 1428.000
932.899;   16.550;  987.000;  821.000
933.137;    8.100;  754.000;  564.000
933.376;  135.175; 1664.000; 1335.000
933.614;  159.625; 1759.000; 1196.000
933.852;   44.675; 1357.000; 1171.000
934.090;  119.975; 1722.000; 1747.000
934.328;  114.300; 1252.000; 1457.000
934.566;  100.575; 1431.000; 1110.000
934.804;  144.675; 1263.000; 1309.000
935.042;  494.200; 1861.000; 1850.000
935.280; 1999.725; 2088.000; 2063.000
935.518; 2081.700; 2113.000; 2007.000
935.756;  430.400; 2481.000; 2316.000
935.994;  167.575; 1808.000; 1751.000
936.231;  329.275; 2890.000; 2950.000
936.469;  174.625; 2367.000; 2378.000
936.707;  169.225; 2220.000; 2167.000
936.945;  228.875; 2825.000; 2882.000
937.182;  210.650; 2679.000; 2741.000
937.420;  295.875; 3602.000; 3031.000
937.657;  388.825; 3365.000; 3478.000
937.895;  348.325; 3331.000; 3488.000
938.133;  302.600; 3540.000; 3528.000
938.370;  337.525; 3896.000; 4191.000
938.607;  388.025; 4488.000; 4205.000
938.845;  539.950; 5587.000; 5549.000
939.082;  489.050; 5387.000; 5177.000
939.320;  543.425; 5799.000; 5728.000
939.557;  628.000; 6549.000; 6491.000
939.794;  708.625; 7285.000; 7097.000
940.031;  893.175; 8421.000; 8368.000
940.269; 1092.075; 9552.000; 9107.000
940.506; 1093.825;10901.000;10507.000

