
Integration time [ms]: 100.000
Averaging Nr. [scans]: 40
Smoothing Nr. [pixels]: 0
Data measured with spectrometer [name]: 2101013U2
Wave   ;Sample   ;Dark     ;Reference
[nm]   ;[counts] ;[counts] ;[counts] 

394.013;   39.887; -450.257; -315.536
394.305;  182.710; -461.258; -419.536
394.596; 1084.457; -676.269; -527.514
394.887; 2733.973; -796.268; -654.518
395.178; 1073.829;  145.736;   11.476
395.470;   80.565; -210.263; -356.526
395.761;  185.138;  305.734;  394.479
396.052;  242.406; -545.284; -306.489
396.343;  251.226; -557.276; -454.503
396.634;  111.570; -200.279; -290.497
396.926;  110.196; -618.268; -565.517
397.217;   86.631;   11.725;  -17.504
397.508;   38.271; -366.273; -154.507
397.799;   50.695; -555.279; -571.497
398.090;   -9.436; -973.280; -902.495
398.381;  119.281;   11.708;  -11.473
398.672;  -12.943; -585.292; -742.473
398.963;   33.626; -348.279; -373.498
399.254;  101.416;   54.709; -209.475
399.545;  -34.640;-1017.266; -883.520
399.836;   47.640; -407.277; -343.501
400.127;   49.657; -205.295; -209.468
400.418;   43.691; -423.274; -392.506
400.709;   62.826; -359.281; -333.493
401.000;   50.170; -268.291; -309.476
401.290;   97.468;  225.698;  115.545
401.581;   52.339; -166.286; -228.485
401.872;   33.579; -542.298; -486.462
402.163;   53.424; -313.296; -252.467
402.454;   97.492; -123.291; -163.475
402.744;   71.091; -844.297; -813.465
403.035;  417.022; -226.293;  -86.471
403.326;  530.110; -366.292; -384.474
403.617;  357.323;  204.701;  165.539
403.907;  243.187; -593.283; -679.490
404.198; 2430.947; -545.307; -599.446
404.489; 6322.767; -618.283; -588.491
404.779; 2103.372; -618.302; -660.456
405.070;  228.775;  -67.304; -174.451
405.360;  336.274; -259.293; -238.472
405.651;  367.458;  125.699;   98.542
405.942;  191.359;  209.714;  127.516
406.232;  254.973; -432.285; -413.487
406.523;  471.792;  641.706;  758.530
406.813;   93.961; -579.286; -644.484
407.104;  334.404;  261.708;  144.527
407.394;  169.024; -604.299; -591.462
407.685;  154.673;  336.715;  222.513
407.975;   52.990; -400.283; -382.490
408.265;  103.531; -134.289; -190.478
408.556;   58.113; -472.291; -459.475
408.846;  164.068;  474.706;  429.530
409.137;   83.989;   -1.288; -216.480
409.427;   73.523; -193.285; -271.487
409.717;   30.100; -776.273; -692.508
410.007;  145.292;    4.715; -170.486
410.298;   77.359; -360.295; -342.469
410.588;   65.020; -495.285; -510.486
410.878;   26.101; -792.287; -873.482
411.168;  118.181; -481.298; -478.463
411.459;  116.335; -295.283; -242.489
411.749;   52.837; -609.292; -507.474
412.039;   47.063; -755.289; -386.480
412.329;  212.533;   40.722;  132.501
412.619;  183.736;  -62.286; -148.485
412.909;  361.734;  639.711;  594.521
413.199;  392.964; -130.280; -251.495
413.490;  398.499;  521.710;  352.523
413.780;  148.993;-1013.279; -913.496
414.070;  317.227;  -46.276;  235.497
414.360;  351.429; -729.278; -666.498
414.650;  413.897; -726.288; -688.482
414.940;  537.968; -538.280; -441.496
415.230;  919.594;   50.712;   74.519
415.520; 6158.456;  155.730;   66.486
415.809;24202.826; -305.281; -125.493
416.099;18874.592; -388.277; -229.501
416.389; 5275.214;  435.726;  236.494
416.679; 3098.644;   91.738;   85.473
416.969;  520.855; -527.287; -503.483
417.259;  573.095;  341.721;  171.503
417.549;  699.574;  522.718;  318.508
417.838; 1673.823; -205.268; -147.518
418.128; 5579.280;  650.710;  492.522
418.418; 4667.181; -491.272; -579.509
418.708; 3167.289;    9.726;  -48.506
418.997;11745.610; -474.275; -480.505
419.287;12373.471; -733.273; -790.507
419.577;11716.434; -160.283; -123.489
419.866;38436.515; -588.277; -498.501
420.156;39516.577; -242.270;  -55.513
420.446; 7166.411; -112.263;  -26.526
420.735;  854.921; -376.271; -446.512
421.025;  839.378; 1830.722;  315.502
421.314;  647.619; -203.271; -226.512
421.604; 1375.040;   89.732;  233.484
421.893;  794.490; -705.271; -602.511
422.183;  210.111; -487.263; -461.526
422.472;  360.542;  -36.271; -107.511
422.762;  445.116; -416.266; -379.521
423.051;  241.502; -916.276; -916.503
423.341;  297.598; -491.273; -439.507
423.630;  400.572; -121.265;   15.477
423.919;  379.134;   58.725;   49.495
424.209;  370.367;  -31.263;   56.473
424.498;  507.670;   68.732;  161.483
424.787; 1099.702; -535.267; -601.518
425.077; 3380.645;   34.735;   29.478
425.366; 4722.773; -734.262; -744.528
425.655;10056.848;  639.727;  259.493
425.945;22122.777; -313.247; -268.554
426.234;12378.695;  117.741;  300.467
426.523; 5102.275;  -86.259; -350.534
426.812; 7029.812;  107.734;  159.480
427.101;10378.962; -127.269; -323.515
427.390;13027.656;  -55.270;  -86.514
427.680; 2937.295; -624.257; -411.538
427.969;  498.456; -330.255; -301.540
428.258;  298.412; -385.257; -477.536
428.547;  551.685;  449.728;  397.490
428.836; 1210.572; -421.253; -398.543
429.125; 1749.552; -199.259;  -72.534
429.414;  800.070; -330.251; -294.548
429.703; 3178.420; -231.251; -213.548
429.992; 9439.274; -938.250; -828.549
430.281; 6287.254; -397.264; -331.524
430.570;  579.436;  -21.252;   32.454
430.859;  552.500;  279.741;  352.466
431.148;  455.548;  636.752;  631.446
431.437;  297.435;  391.748;  367.454
431.725;  138.413; -544.257; -481.536
432.014;  125.030; -845.253; -756.545
432.303;  371.399; -149.239; -105.569
432.592;  594.486; -460.263; -178.525
432.881; 1063.299; -601.248; -437.554
433.169; 6294.207; -343.255;  -61.540
433.458;12771.858;  445.765;  540.424
433.747; 5422.428; -397.261; -289.529
434.036;  866.050; -275.242; -280.564
434.324; 2093.786; -395.249; -379.551
434.613; 3670.293;   40.757;  159.437
434.902; 1221.364;  333.760;  439.433
435.190;  521.322;   75.761;  295.431
435.479;  313.450;  -52.245;   83.441
435.767;  102.133; -411.244; -427.561
436.056;  195.045; -340.242; -294.563
436.345;  359.916; -372.240; -223.568
436.633;  390.506;   60.750;  383.450
436.922;  245.793;  208.760;  414.432
437.210;  565.323; -194.236;    1.426
437.499; 1788.806; -583.235; -432.576
437.787; 1992.172; -339.236;  -10.574
438.075;  507.428;   56.761;  162.430
438.364;  695.531;  -44.238;  250.429
438.652;  393.036; -286.226; -138.592
438.941;  137.100;    3.770;  269.415
439.229;   -7.117; -665.252; -466.545
439.517;   30.239; -160.234;  -85.577
439.806;   -9.474; -501.225; -290.595
440.094;  181.547;  377.766;  650.421
440.382;  170.901; -653.233; -302.580
440.670;  190.880; -361.235; -285.576
440.959;   24.319; -347.223; -170.599
441.247;   57.436; -151.229; -109.587
441.535;  100.812; -266.235;   31.423
441.823;   29.069; -497.234; -305.578
442.111;  183.615;  173.771;  327.412
442.400;  500.199; -628.245; -335.559
442.688; 1307.596; -111.234; -620.579
442.976;  952.707; -786.213; -450.617
443.264;   95.733; -324.224; -364.597
443.552;  106.237; -258.226;   51.408
443.840;  164.486;  602.765;  876.423
444.128;  107.900;  265.767;  269.420
444.416;  -10.957; -694.228; -312.588
444.704;   34.524; -465.219;  -92.605
444.992;   63.465;   -0.226;  240.407
445.280;   56.775; -517.230;  -94.585
445.568;   33.785; -694.212; -396.618
445.856;  327.933; -174.221;  357.398
446.143;  694.220;  -54.220;   -7.604
446.431;  609.097;  -25.228;  625.411
446.719;  236.318;  489.783;  675.391
447.007;  181.970;  481.769;  705.416
447.295;  176.091;  597.777;  871.402
447.583;   79.684; -464.229;  -34.587
447.870;  144.654; -434.221; -202.601
448.158;  390.274; -104.230;  129.415
448.446;  292.871; -800.219; -338.604
448.733;  149.460;   13.776;  269.403
449.021;  239.135;   60.788;  341.382
449.309;  178.350; -296.210;  208.379
449.596;  214.964;  128.783;   59.392
449.884;  157.073; -571.222; -325.600
450.172;  151.152; -756.227; -406.590
450.459;  442.415;  645.786;  780.387
450.747; 2453.338; -411.218; -147.608
451.034; 7765.948;  493.772;  889.411
451.322; 6453.093; -413.214; -170.614
451.609;  546.786;  292.777;  508.403
451.897;  575.888; -550.203; -183.634
452.184; 1812.566; -622.223; -400.598
452.472; 1713.996;   97.792;  269.375
452.759;  352.572;  512.781;  864.395
453.047;  115.958; -407.212; -125.617
453.334;   68.979; -732.219; -216.606
453.621;   57.795; -438.214; -161.615
453.909;  106.230;   13.796;  384.368
454.196;   89.676; -299.199; -123.641
454.483;  201.726;  317.798;  540.364
454.771;  123.149; -215.208;  196.374
455.058;   45.203; -316.207;  102.374
455.345;  102.581;   71.807;  344.347
455.632;   86.031; -128.207;  235.373
455.919;   46.698;  -82.196;  182.354
456.207;  -42.220; -774.198; -450.642
456.494;  -15.187; -475.200;  -66.639
456.781;   -9.503; -399.202; -198.635
457.068;   43.638; -253.206;  -29.628
457.355;  -11.261; -698.206; -401.629
457.642;    0.294; -552.205; -290.630
457.929;    5.947; -778.194; -417.651
458.216;   65.483; -575.212; -354.617
458.503;  245.102; -173.193;  -19.652
458.790;  218.472; -864.208; -630.625
459.077;  258.252;  -77.202;  110.364
459.364;  797.765; -350.195; -210.649
459.651; 1710.561;  -46.206;  220.372
459.938;  801.963; -864.209; -665.623
460.225;  139.280;  132.799;  276.363
460.512;  -57.880; -836.197; -688.645
460.799;   98.011;  -32.218;  320.392
461.086;   64.518; -370.200; -251.640
461.372;   47.605; -509.198; -279.642
461.659;   98.724; -165.196;  108.354
461.946;   62.325; -445.193;  -54.651
462.233;  238.115;  842.800;  888.361
462.519;  343.287; -814.201; -464.639
462.806; 1013.771; -768.197; -497.645
463.093;  890.121; -445.191;  -66.656
463.380;  -19.288; -920.186; -824.664
463.666;   52.148; -259.197;  -18.646
463.953;   83.435; -406.195; -243.648
464.239;  204.935; -173.195;  -77.648
464.526;  384.620;  413.806;  743.350
464.813;  315.833; -565.190; -304.658
465.099;  337.226;  606.807;  607.348
465.386;  320.030;  903.807;  921.348
465.672;   19.521; -694.197; -522.645
465.959;   14.575; -598.188; -520.662
466.245;    3.605; -468.193; -359.652
466.532;   88.107; -109.195;   63.352
466.818;   59.312; -357.186; -216.664
467.104;   -8.273; -488.182; -415.672
467.391;  -34.166; -628.189; -459.658
467.677;   31.916; -289.186;    9.335
467.964;   -0.359; -682.189; -471.660
468.250;   57.018; -331.186; -160.665
468.536;   65.086;   90.811;  180.341
468.822;  -39.120; -821.184; -574.668
469.109;  134.483;  351.827;  471.311
469.395;  191.040;  729.808;  787.346
469.681;  189.264;   46.811;  156.341
469.967; 1279.068; -699.188; -382.660
470.254; 2729.626; -494.188; -306.662
470.540; 1768.623; -601.196; -476.646
470.826;  253.988; -488.181; -397.675
471.112;  303.534;  288.816;  113.331
471.398;   82.188; -253.183;  -58.670
471.684;   40.042; -626.177; -447.680
471.970;  -10.708; -918.180; -981.675
472.256;   30.714; -521.192; -441.654
472.542;    1.744; -499.171; -434.691
472.828;    8.423; -743.182; -607.672
473.114;   25.138; -380.166; -283.700
473.400;    8.433; -504.175; -293.684
473.686;   16.694; -452.166; -400.701
473.972;   56.073; -230.174; -131.687
474.258;  -64.167; -925.173; -843.689
474.544;  206.433; -183.178;   -2.679
474.830;  311.935;  -65.175;   45.316
475.116;  490.484; -123.190; -196.658
475.401;  664.244; -558.180; -467.676
475.687;  198.293; -725.180; -718.676
475.973;  -16.294; -673.181; -770.673
476.259;  235.287;  736.825;  764.315
476.544;  351.825; -539.176; -437.682
476.830;  833.565; -398.172; -322.690
477.116;  726.323; -430.177; -336.682
477.401;  144.344;  346.820;  358.324
477.687;   -6.367; -289.175; -405.684
477.973;   21.635;   21.819;   28.326
478.258;  -12.036; -448.163; -348.706
478.544;   50.824;   21.815;   61.334
478.829;  -64.375; -818.171; -738.692
479.115;  -43.410; -749.172; -651.690
479.401;   -4.307; -444.174; -449.686
479.686;   56.193; -253.180;  -74.676
479.972;  -42.561; -886.178; -776.680
480.257;   41.889; -258.166;  -65.700
480.542;  -13.847; -614.170; -469.693
480.828;  235.607; 1288.824; 1392.317
481.113;  -34.896; -464.176; -426.683
481.399;  -10.712; -236.161; -202.711
481.684;  -58.411; -620.166; -462.700
481.969;   27.102; -158.159;  -73.713
482.255;  -10.111; -439.169; -285.695
482.540;  -11.311; -569.178; -441.680
482.825;  -20.118; -395.187; -404.663
483.110;   88.142;  -85.169; -105.696
483.396;  191.098; -840.157; -652.718
483.681;  494.623;  543.826;  730.313
483.966;  164.321; -696.160; -700.712
484.251;    6.872; -404.174; -310.687
484.536;    1.049; -356.165; -378.703
484.822;    5.300; -205.173; -218.687
485.107;  -26.413; -599.152; -502.726
485.392;  122.305;  662.836;  541.296
485.677;   61.877;  354.832;  163.302
485.962;  115.671;  160.843;  270.283
486.247;   86.897;  -14.162;   -8.707
486.532;   46.165; -178.166; -325.701
486.817;  152.733;  381.839;  431.291
487.102;  122.595; -453.154; -514.722
487.387;  658.450; -637.156; -652.718
487.672; 1203.910; -154.164;  -38.705
487.957;  770.215; -394.160; -286.711
488.241;  205.128; -290.150; -314.729
488.526;  747.963; -280.152; -148.726
488.811; 1220.391; -881.177; -818.680
489.096;  919.047; -666.154; -702.723
489.381;  515.709;    3.847;  162.275
489.666;  393.438; -428.161; -510.710
489.950;  169.975;  558.846;  627.277
490.235;  -39.102; -480.151; -458.728
490.520;  -56.738; -756.161; -723.710
490.804;  -60.348; -827.156; -736.719
491.089;   -0.956; -469.149; -299.732
491.374;   39.659; -132.164;  -75.704
491.658;  -11.644; -817.147; -717.735
491.943;  149.017; -657.152; -609.727
492.227;  250.315; -178.155;  -38.721
492.512;   46.770; -294.157; -341.717
492.797;  -70.387; -713.149; -716.731
493.081;  -54.217; -588.147; -598.735
493.366;  -38.036; -751.161; -635.711
493.650;  212.036;  831.859;  917.254
493.935;   32.755; -648.147; -447.734
494.219;  -48.201; -778.142; -687.743
494.503;  -39.842; -585.150; -487.730
494.788;   43.437;   46.842;   74.285
495.072;  121.105;  184.850;  434.271
495.356;  161.172; -463.148; -343.733
495.641;  473.615; -812.146; -736.736
495.925;  457.657; -976.156; -903.719
496.209;   31.718; -599.149; -451.732
496.494;  -47.051; -763.142; -544.744
496.778;    7.420; -364.154; -360.722
497.062;  -59.743; -819.156; -627.719
497.346;  -36.483; -869.160; -640.711
497.631;  145.051;  580.852;  560.266
497.915;   62.450;  -64.145;  175.261
498.199;   41.198; -341.157; -277.718
498.483;   28.986; -562.152; -508.725
498.767;  179.756;  301.850;  300.271
499.051;  176.716; -126.149; -100.732
499.335;    4.264; -693.149; -739.731
499.619;  -49.412; -381.129; -423.767
499.903;   18.714; -272.155;  -65.721
500.187;   18.127; -588.153; -316.724
500.471;    7.416; -796.152; -595.727
500.755;  113.087;   62.839;  -96.710
501.039;   16.240; -270.155; -357.721
501.323;   86.338;  -21.141;  264.254
501.607;   28.940; -447.163; -503.706
501.891;   -7.850; -607.156; -512.718
502.174;  -39.438; -726.144; -585.741
502.458;   67.970;   89.849;  370.273
502.742;   29.962; -180.138; -191.751
503.026;  115.804; -412.147; -254.734
503.310;  161.676; -437.159; -375.713
503.593;  125.831; -464.147; -325.735
503.877;  125.477; -232.133; -156.760
504.161;  177.104;    2.847;  -50.724
504.444;  123.739; -841.158; -710.716
504.728;  456.133; -487.164; -522.704
505.012;  712.653; -257.150;  -76.729
505.295;  549.938; -417.161; -212.711
505.579;  537.607; -256.156; -496.719
505.862;  783.222; -555.145; -333.738
506.146;  757.478; -681.159; -758.714
506.429;  414.904;  568.841;  461.286
506.713;   63.675; -732.151; -667.728
506.996;  314.919;   90.846;  295.278
507.280;  337.253; -633.165; -474.703
507.563;  247.213; -469.155; -261.721
507.847;   96.003; -423.153; -112.724
508.130;   89.214; -665.161; -456.711
508.413;  111.710; -758.167; -577.700
508.697;  256.560; -151.167;   12.300
508.980;  164.479; -422.153; -312.724
509.263;    3.759; -466.155; -450.720
509.547;   41.977; -124.150;   82.271
509.830;   47.541; -172.160;  140.289
510.113;   84.556;  128.844;  298.281
510.396;   39.235; -530.152; -300.725
510.680;  149.548; -818.145; -812.738
510.963;  598.174;  184.846;  180.277
511.246;  506.185; -493.150; -357.730
511.529;  275.353; -482.145;  -83.739
511.812;  374.249; -250.134;   10.241
512.095;  281.247; -740.151; -396.728
512.378;   63.660; -317.147; -245.736
512.661;   33.120; -703.137; -623.753
512.944;   28.926; -750.142; -637.744
513.227;   67.242; -170.137; -171.752
513.510;   31.412; -479.144; -671.741
513.793;   29.193; -485.140; -435.747
514.076;  129.484;  -43.127;  -39.771
514.359;  126.169; -294.149; -135.732
514.642;   73.429; -442.142; -567.744
514.925;  770.391;  581.860;  561.253
515.208; 1026.845; -498.134; -443.758
515.491;  686.534; -276.133; -182.761
515.773;  386.240; -410.143; -337.742
516.056; 2125.826;  249.864;  409.246
516.339; 2887.180; -754.136; -652.755
516.622; 1913.608; -518.150; -488.730
516.904; 1201.247;  882.857;  975.257
517.187;  539.041; -730.138; -523.752
517.470;  390.196; -568.143; -510.743
517.752;  436.908; -624.136; -470.756
518.035;  334.453; -708.139; -725.749
518.318;  385.080; -799.136; -744.755
518.600; 2507.338; -300.132; -325.762
518.883; 3412.753;  310.858;   88.256
519.165; 1670.808; -585.138; -426.751
519.448;  392.737;  -61.132;  -19.762
519.730;  181.066; -573.126; -415.773
520.013;  312.580;  588.867;  664.240
520.295;  810.801;  -94.134;  -15.759
520.578; 1823.701; -335.131; -305.764
520.860; 2010.113; -254.132;   56.238
521.143; 1080.335; -763.135; -584.756
521.425;  484.129; -251.125; -279.775
521.707;  711.709; -622.127; -380.771
521.990; 1795.934; -199.127;  167.229
522.272; 2086.219; -116.140;   -4.748
522.554;  951.191; -237.143; -157.742
522.836;  366.549;  -24.134;   99.241
523.119;  215.603; -496.148; -189.734
523.401;  151.632; -448.130; -314.766
523.683;   95.395; -865.137; -693.753
523.965;  288.539;  408.862;  260.248
524.247;  287.675;   54.878;  170.220
524.529;  212.901; -451.134; -367.759
524.812;  332.984;   -3.130;  191.234
525.094;  884.563; -773.138; -631.751
525.376; 1377.638; -143.124;   78.223
525.658;  849.152; -441.136; -339.754
525.940;   23.947; -805.131; -671.764
526.222;   47.081; -188.136;  -88.755
526.504;  112.145; -190.131;   32.237
526.786;  172.003; -960.133; -647.760
527.068;  295.119; -124.123;  -67.778
527.349;  131.799; -865.137; -774.754
527.631;  127.637; -137.132;   22.238
527.913;  129.383; -664.127; -450.771
528.195;  162.347; -761.125; -639.774
528.477;  247.846;  -93.134;  -30.758
528.759;  124.509; -648.130; -522.766
529.040;   53.942; -569.123; -293.778
529.322;   64.925; -235.125;  -10.774
529.604;  144.886;  -47.130;   93.233
529.886;  123.191; -546.126; -302.773
530.167;  131.053;  232.870;  192.235
530.449;   39.410;    1.853;   63.265
530.731;   26.649; -572.122; -459.779
531.012;   67.445; -513.120; -216.784
531.294;   72.259; -118.116;  -43.792
531.575;  148.529;  290.875;  538.225
531.857;   53.540; -548.135; -266.757
532.138;   96.612; -113.141;   40.254
532.420;  163.412;  294.865;  403.244
532.701;  198.055; -722.133; -751.760
532.983;  335.209;  232.867;  182.239
533.264;  124.289; -243.126;  175.228
533.546;  -34.044; -491.136; -508.755
533.827;   58.127;  173.867;   -1.759
534.109;   29.965; -352.135;  -80.757
534.390;   93.366; -725.132; -582.762
534.671;  245.886; -270.135;  -82.756
534.953;  146.695; -751.123; -611.779
535.234;   23.244; -426.117; -255.789
535.515;  -83.971; -891.119; -735.785
535.796;  -20.346; -431.128; -193.770
536.078; -128.787;-1050.124; -904.777
536.359;   -7.904;  -22.123;    3.221
536.640;  -28.801; -480.125; -197.774
536.921;  153.792;  225.871;  143.232
537.202;  366.710;  -87.138;  -16.751
537.483;  464.425;  251.869;  377.236
537.764;  172.678;   17.870;   98.235
538.045;  -37.405; -543.134; -371.758
538.326;  -38.682; -596.129; -447.768
538.607;   19.110; -686.127; -476.771
538.888;  161.011;   98.879;    5.218
539.169;  190.706; -704.122; -535.781
539.450;  348.141;  236.871;   16.233
539.731;  211.065; -361.121; -182.783
540.012;  137.795;  199.880;  412.216
540.293;   76.807;   82.876;  158.224
540.574;    4.805; -895.113; -717.796
540.855;  457.664;  435.879;  377.218
541.136;  533.928;   47.878;  139.220
541.416;  276.760; -161.130; -220.766
541.697;  192.221; -274.131; -170.763
541.978; 1061.564; -270.135; -315.757
542.259; 1344.385; -211.127; -236.771
542.539;  639.978; -191.116; -186.790
542.820;  195.654;  461.875;  480.225
543.101;  122.350;  -52.145;  -77.738
543.381;   24.959; -638.127; -591.771
543.662;  271.407;  159.873; -254.771
543.942;  577.705; -751.127; -830.770
544.223; 1087.730;  193.878;  161.219
544.504;  718.563; -275.124; -182.777
544.784;  601.141; -592.126; -408.773
545.065; 1687.407;  104.884; -254.791
545.345; 1990.779;  227.881;   14.215
545.626; 1322.679;  -14.113; -108.796
545.906;  914.853;   77.869;   98.235
546.186;  382.345;   92.874;  -95.773
546.467;  198.390;   99.877;  -95.778
546.747;  331.678;  264.884;  327.210
547.027;  395.886;   91.876;  111.223
547.308;  342.254; -376.127; -530.770
547.588;  402.719;  299.871;  371.232
547.868;  206.779;  458.870;  588.235
548.149;  204.989;  609.885;  593.207
548.429;  118.258; -347.127; -299.771
548.709;  184.420; -645.120; -461.784
548.989;  481.538;   84.882;   88.213
549.269; 2198.011;   10.868;  139.239
549.550; 4913.569;  215.877;  117.222
549.830; 4423.797; -758.111; -556.799
550.110;  884.355; -468.110; -320.801
550.390;  850.450; -128.122;  -56.779
550.670; 1167.800; -868.114; -783.795
550.950;  835.413; -509.121; -471.782
551.230;  198.285;  549.879;  460.218
551.510;    9.012; -381.121; -326.782
551.790;   26.388; -173.109; -127.803
552.070;  270.190;  940.877; 1181.223
552.350;  404.358; -492.119; -377.786
552.630;  591.532;   -2.121;   77.219
552.909;  350.257;  181.884;   73.209
553.189;  240.817;  -49.132;   33.237
553.469;  212.182; -703.119; -514.786
553.749;  194.786; -469.127; -357.772
554.029;  165.098;   33.883;  -24.790
554.308;  133.018; -154.115;  -37.794
554.588;   58.578; -196.128; -204.770
554.868;   63.439; -366.121;  -47.782
555.147;  151.891; -114.115;  -46.793
555.427;  630.535; -260.116; -250.792
555.707; 4003.089; -284.115; -200.793
555.986; 4811.675; -719.111; -538.800
556.266; 2556.602;   23.884;   72.210
556.546;  115.112; -888.121; -675.782
556.825;  245.748; -657.114; -556.794
557.105; 1830.776; -125.128;   17.230
557.384; 2142.631;  122.884;  187.209
557.664;  848.559; -717.116; -508.792
557.943;  127.688; -557.121; -411.782
558.222;  178.841; -345.118; -344.788
558.502;  278.692; -116.115;  -76.793
558.781;  499.488;  194.885;  499.208
559.061;  415.041; -232.118; -227.788
559.340;  295.446;  302.883;  353.211
559.619;  728.827;   93.884;  148.210
559.899; 1054.398; -239.117; -266.789
560.178;  957.817; -778.115; -593.793
560.457; 3264.475; -623.117; -562.790
560.736; 4502.202; -472.111; -482.800
561.015; 3016.049; -500.128; -502.769
561.295;  397.707;  180.893;  215.193
561.574;  341.789;  119.885;  116.207
561.853;  506.417;  274.891;  303.197
562.132;  498.344;  -45.114;  182.206
562.411;  455.833;  396.879;  553.219
562.690;  143.712; -592.115; -458.792
562.969;  150.986;  472.888;  630.203
563.248;  532.405; 2966.878; 2487.219
563.527;  271.776; -290.111; -408.800
563.806;  384.458; -650.127; -521.771
564.085;  429.048; -297.105; -206.810
564.364;  236.251; -594.117; -405.790
564.643;  526.783; -276.121; -223.781
564.922; 1938.136;  221.890;  397.198
565.201; 1907.914; -640.109; -700.803
565.479;  859.361; -297.115; -219.792
565.758;  324.001; -810.128; -712.770
566.037;  480.091; -155.109; -100.803
566.316;  238.307; -286.116;  -28.791
566.595;   54.739;  -17.115;  -12.793
566.873;   89.153; -166.111;  -79.801
567.152;  -62.239; -490.113; -590.797
567.431;   -2.047; -113.116;    6.210
567.709;   18.683; -344.107; -212.807
567.988;  261.573; -810.114; -769.794
568.266;  538.839; -160.115;  -68.793
568.545;  407.195; -644.100; -514.819
568.824;  603.685;  160.885;  356.208
569.102;  571.847; -351.114; -235.794
569.381;  241.010; -492.116; -407.792
569.659;  -48.443; -553.113; -553.796
569.938;   22.879; -743.122; -465.780
570.216;  115.068; -225.109; -225.804
570.494;  -15.474; -632.114; -572.795
570.773;   29.537;  202.879;  114.218
571.051;   10.593; -373.123; -357.778
571.330;   41.580; -221.113; -174.796
571.608;   30.912; -181.098; -173.823
571.886;  -79.280; -671.111; -581.799
572.164;  -69.286; -739.121; -621.782
572.443;  -55.099; -562.105; -512.811
572.721;  -41.850; -399.117; -289.790
572.999;  -30.082; -280.117; -168.788
573.277;  104.795;  379.894;  620.191
573.555;  306.322;   94.894;   37.190
573.834; 1388.218;  -86.117; -114.788
574.112; 1599.910;  880.893;  811.193
574.390;  493.402; -143.111;  -96.801
574.668;    6.737;  -91.112;  -61.797
574.946;  -14.453; -165.106; -187.810
575.224;    0.914;   71.891;  -16.803
575.502;  -21.921; -200.116; -204.791
575.780; -100.912; -767.112; -829.798
576.058;  204.076; 1589.889; 1004.200
576.336;  -32.843; -210.110; -129.801
576.614;  -57.412; -511.112; -340.798
576.891;   45.918; -711.115; -823.794
577.169;  491.101; -158.108; -285.805
577.447;  579.584;  169.893;  202.193
577.725;  262.243;  629.888;  854.201
578.003;   13.466;  -71.112; -371.798
578.280;   92.935; -208.104; -242.812
578.558;   63.717; -450.115; -422.793
578.836;  130.625; -210.114; -145.795
579.114;   46.262; -630.112; -670.797
579.391;   64.320;   -6.117;  -18.789
579.669;  -77.656; -595.114; -704.794
579.947;  177.506; -326.107; -127.806
580.224;  313.206; -692.107; -524.806
580.502;  317.785;  127.893;   76.193
580.779;    9.276;  -42.117;   75.210
581.057;  -66.282; -584.109; -470.804
581.334; -107.975; -726.102; -695.815
581.612;   41.348;   54.895;  511.190
581.889;  -43.512;  -83.101; -129.818
582.167;  -42.547; -298.099; -190.821
582.444; -107.892; -845.102; -814.817
582.721;   99.859;  657.899;  715.183
582.999;   46.175; -326.100; -167.821
583.276;  553.947; -812.123; -713.779
583.553;  721.328; -364.102; -294.816
583.831;  253.982; -607.104; -631.812
584.108;   64.274;  349.892;  174.195
584.385;    4.124; -122.102;  -98.815
584.662;  -84.946; -651.111; -828.801
584.940;   34.803;  204.889;  204.199
585.217;  -29.668;  -73.113; -303.796
585.494;   35.112;   71.890;  118.198
585.771;  199.894; -250.109; -354.804
586.048;  499.757; -196.113;  -76.796
586.325;  308.806; -721.110; -773.801
586.602;   82.511;  230.896;  213.188
586.879;  -34.254; -499.100; -580.820
587.156;   40.149; -156.105; -331.810
587.433;  -51.619; -701.102; -667.817
587.710;   67.139;  152.888;  234.202
587.987;  299.504; -264.105; -236.811
588.264;  797.415;  315.888;  387.202
588.541; 1365.538;  -61.104;   26.187
588.818; 2715.771;   72.892;  171.196
589.095; 2327.984; -163.104; -174.812
589.371;  392.667; -459.109; -414.804
589.648;    5.460; -581.107; -437.807
589.925;   27.801; -517.114; -621.795
590.202;   25.138; -741.112; -607.798
590.478;   94.481; -166.105;  -73.811
590.755;  266.302; -241.108; -132.806
591.032; 2554.933; -741.110; -699.802
591.308; 3506.152; -732.094; -790.831
591.585; 1822.633; -573.110; -560.802
591.862;  142.057;-1056.102; -950.817
592.138;   68.275; -475.108; -474.805
592.415;  149.561; -486.104; -495.813
592.691; 1499.209;  460.896;  518.188
592.968; 1874.339; -208.098; -123.824
593.244;  898.378; -695.116; -595.790
593.521;   64.383; -105.102;  -42.817
593.797;  -20.574; -810.122; -720.780
594.074;  329.727; -611.096; -588.826
594.350;  655.788;  828.905;  729.172
594.626;  289.829; -303.111; -283.801
594.903;  110.008; -643.101; -645.817
595.179;  203.815;  243.896;  418.187
595.455;    1.686; -136.107; -150.807
595.731;    2.792;  -19.103;  -38.814
596.008;  -46.727; -464.111; -434.800
596.284;   17.299; -187.100; -242.820
596.560;   64.184; -501.093; -493.833
596.836;  181.201; -173.105;  -70.810
597.112;  348.976; -582.108; -437.805
597.388;  299.600;  -49.097;  -48.826
597.665;  115.659;  437.887;  530.203
597.941;  -67.962; -572.089; -658.839
598.217;   18.286; -323.110; -293.802
598.493;  251.996;   61.891; -204.804
598.769;  509.343; -175.100;  -50.819
599.045;  296.904; -490.108; -562.806
599.321;   52.398; -193.100; -261.820
599.597;  135.820; -355.109; -476.804
599.872;  485.738;  409.896;  429.187
600.148;  375.151;  -61.097; -172.826
600.424;  314.359;   91.893;  202.193
600.700;  244.286; -170.107; -280.807
600.976;  133.671; -442.097; -464.825
601.252;  244.967; -226.109; -272.803
601.527;  197.664; -833.104; -840.813
601.803;  137.356; -453.105; -404.812
602.079;  197.143; -124.100; -118.819
602.354;  562.969; -620.092; -531.835
602.630;  818.007; -140.113; -482.796
602.906; 2397.863; -910.101; -863.818
603.181; 6765.107; -627.119; -534.786
603.457; 5801.324;   98.903; -278.826
603.733;  861.416; -605.120; -626.783
604.008;  998.398; -245.106; -164.810
604.284; 3113.360; -636.101; -580.817
604.559; 2679.593;   -3.112;  -42.799
604.835;  478.475; -163.105; -225.810
605.110;  421.053; -732.099; -892.821
605.385;  690.612;  224.907;  267.167
605.661;  659.841; -625.095; -729.829
605.936; 1161.604; -664.108; -737.806
606.211; 1022.798;  -17.103; -170.815
606.487;  193.521; -329.114; -376.794
606.762;   21.308; -791.119; -745.786
607.037;  -27.599; -501.105; -433.810
607.313;  -61.041; -589.096; -574.828
607.588;   -1.228; -375.106; -137.810
607.863;   31.238;  -28.101; -143.818
608.138;  196.385;  513.890;  516.198
608.413;   28.407; -576.099; -592.822
608.688;   49.675; -203.108; -267.805
608.964;  201.366; -509.106; -218.809
609.239;  248.648; -107.105; -212.810
609.514;  251.931;  281.895;  240.188
609.789;  677.260; -187.104; -716.812
610.064;  857.458; -435.096; -609.827
610.339;  894.517; -855.109; -799.804
610.614; 1182.048; -131.100; -315.820
610.889;  681.256;  215.895;  107.188
611.163;   41.282; -407.104; -591.812
611.438;   88.247;   81.886; -167.794
611.713;   14.060; -467.101; -499.817
611.988;   62.887; -144.101; -328.818
612.263;  -25.000; -771.102; -717.815
612.538;  225.456;  385.887;  251.204
612.812;  165.699; -832.100; -911.820
613.087;  138.862; -358.098; -338.823
613.362;  -65.439; -497.107; -557.807
613.637;   38.344;  261.897;  138.186
613.911;  -28.181; -256.092; -345.835
614.186;  118.209; -249.107; -292.807
614.460;  673.388; -842.081; -758.854
614.735;  784.537;  -55.087;  -17.843
615.010;  165.351;   43.912;  -82.841
615.284;  259.550;  360.892;  246.195
615.559;  359.393; -792.092; -955.835
615.833;  297.905;  -76.099;  -87.822
616.108;   -5.045; -225.090; -390.837
616.382;  135.563;  274.913;  402.156
616.656;  166.030; -241.090; -232.837
616.931;  514.656; -785.099; -700.822
617.205; 1075.839; -973.104; -979.813
617.480;  988.077;  -91.125;    6.225
617.754;  153.349; -396.125; -128.774
618.028;   -3.855; -369.129; -382.768
618.302;   69.273;   73.892;  -25.805
618.577;  -46.704; -371.103; -518.815
618.851;  -70.986; -399.109; -600.803
619.125;  -65.249; -335.134; -378.759
619.399;  -38.435; -244.104; -374.813
619.673;  -40.689; -330.115; -515.792
619.947;  -66.125; -333.114; -448.795
620.222;  -16.571; -198.110; -204.801
620.496;   -6.686;  -47.121;  -96.782
620.770;   25.855; -187.122;  -93.781
621.044;  216.824;  323.895;  346.190
621.318;  746.842; -653.120; -614.783
621.592;  682.014; -430.121; -409.783
621.866;  365.019; -476.112; -572.799
622.140;   12.804; -207.116; -356.791
622.413;   53.648;  138.889;  112.200
622.687;  -54.065; -746.101; -492.817
622.961;   16.873; -130.108; -143.805
623.235;  -75.476; -633.111; -661.800
623.509; -111.719; -816.105; -848.811
623.783;   -3.393;  -12.107;   48.193
624.056;  -10.282; -254.120; -280.783
624.330;   36.937;   63.888;   -3.797
624.604;   54.626; -271.116; -355.790
624.877;   68.959;  180.890;   26.198
625.151;   38.545; -249.114; -238.794
625.425;  -51.008; -150.103; -283.814
625.698;  -59.148; -367.119; -374.785
625.972; -106.289; -799.110; -765.802
626.245;   67.253;  685.884;  484.210
626.519;  -59.228; -426.120; -340.784
626.792;  -49.639; -192.107; -380.807
627.066; -101.152; -485.122; -662.779
627.339;  -97.693; -736.110; -663.802
627.613;   37.520;  351.880;  148.216
627.886;  -58.562;  187.891; -612.803
628.160;  -30.859;  312.880; -161.783
628.433; -105.445; -695.125; -703.775
628.706;  -87.353; -517.120; -615.784
628.979;   24.661;  296.876;  117.223
629.253;  -92.043; -785.119; -833.786
629.526;  384.664; -334.126; -253.772
629.799;  337.068; -641.123; -479.778
630.072;  168.146; -497.128; -516.769
630.346;  -75.372;-1115.116;-1080.790
630.619;  460.762; -467.107; -545.808
630.892;  625.149;  709.889;  593.200
631.165;  347.415;  790.896;  679.187
631.438;  -92.059;-1092.112;-1055.798
631.711;   36.596;  453.877;  257.221
631.984;  -59.827; -523.117; -624.789
632.257;  -80.755; -636.117; -681.789
632.530;  -56.848; -412.119; -433.785
632.803;    4.018; -109.115;    7.207
633.076;  -71.560; -360.123; -422.777
633.349;   10.225;  173.872;  121.231
633.622;  -34.149; -187.119; -240.785
633.895; -119.682; -903.120; -823.783
634.167;  -58.359; -496.126; -525.773
634.440;   -2.241;  -19.116; -137.792
634.713;  -12.619;  -22.119; -120.786
634.986;   85.615;  593.871;  453.233
635.258;  -84.384; -507.115; -597.793
635.531;   95.591;  742.882; -343.788
635.804;  -43.003; -303.117; -318.789
636.077;  -98.795; -830.116; -852.791
636.349;   -8.911; -586.115; -474.793
636.622;  411.488; 1695.874; 1392.228
636.894;  250.822; -474.120; -909.784
637.167;  152.257; -836.127; -789.771
637.439;   21.079; -278.128; -213.770
637.712;  -52.660; -312.126; -293.772
637.984;  -87.519; -635.116; -707.791
638.257;  406.965;  515.877;  488.222
638.529;  554.406; -881.125; -924.776
638.802;  232.196; -508.128; -449.769
639.074; -117.895; -927.122; -952.781
639.346; -117.683; -942.135; -930.757
639.619;  -17.098;  -79.142; -319.744
639.891;  -15.427;  -83.122; -168.779
640.163;  -93.300; -689.122; -756.780
640.435;   32.652;  273.878;  103.220
640.708;    4.654;  -72.122; -132.780
640.980;  -27.119; -366.122; -362.781
641.252;  210.058;  -25.121;  -71.781
641.524; 1831.584;  580.879;  573.219
641.796; 1800.336;-1094.121; -907.782
642.068;  336.038; -191.121; -300.782
642.340;  -62.560; -486.121; -566.783
642.613;   53.367;  294.880;  323.217
642.885; -108.432; -787.120; -878.783
643.157;  -53.880; -810.120; -658.784
643.428;   54.422;  170.880;  218.216
643.700;  -65.276; -498.120; -425.784
643.972;  -32.499;  -16.119; -133.785
644.244;  -93.197; -474.119; -559.785
644.516;  -60.221; -250.119; -114.786
644.788;   71.531;  662.881;  548.214
645.060;  -36.942;  -12.119; -124.786
645.332;  -98.140; -525.118; -535.787
645.603;   18.112;  479.882;  342.213
645.875;  -88.611; -334.118; -369.787
646.147;  163.765; 1487.882; 1242.212
646.418;  -60.508; -931.117; -918.788
646.690;  133.719; -714.117; -715.789
646.962;   29.546; -413.117; -451.789
647.233;  -10.702;   15.883;   11.211
647.505;  -98.900; -595.117; -475.790
647.776;   15.301;  328.884;  229.210
648.048;    5.053; -248.116; -418.790
648.320;  -77.645; -752.116; -679.791
648.591; -158.793;-1055.116; -958.791
648.862;  -90.866; -505.116; -577.792
649.134;   12.611;  115.885;  198.208
649.405;  -41.938; -661.115; -618.792
649.677;  -54.761; -475.115; -598.793
649.948;  -10.959; -181.115; -296.793
650.219;   -3.482;  -37.115; -147.793
650.491;  -83.480; -431.114; -520.794
650.762; -121.929; -705.114; -731.794
651.033;  -87.277; -437.114; -424.795
651.304; -102.725; -743.114; -728.795
651.576;  -79.498; -680.114; -645.795
651.847;  -48.921; -250.113; -140.796
652.118;  -31.019;  -32.113; -189.796
652.389; -109.268; -639.113; -722.796
652.660;  -31.091; -147.113;  -89.797
652.931; -138.614; -897.112; -871.797
653.202;  -92.712; -382.112; -541.798
653.473;  -72.910; -633.112; -533.798
653.744;  138.042; -595.112; -590.798
654.015;  144.218; -356.112; -303.799
654.286;  -80.805; -642.111; -663.799
654.557;  -67.278; -586.111; -521.799
654.828; -161.876;-1114.111;-1088.800
655.099;  -91.074; -404.111; -291.800
655.370;  -96.447; -427.111; -543.801
655.641; -134.871; -656.110; -714.801
655.911; -122.219; -618.110; -638.801
656.182;   37.283;  437.890;  387.198
656.453;   87.385;  830.890;  746.198
656.724;  -63.138; -466.110; -426.802
656.994;  -91.586; -553.109; -568.803
657.265; -112.260; -862.109; -873.803
657.536;  -98.008; -500.109; -377.804
657.806; -121.856; -561.109; -593.804
658.077; -138.229; -866.109; -950.804
658.347;  -92.577; -523.108; -598.805
658.618; -120.400; -646.108; -694.805
658.888;  -25.399;  -41.108;  112.195
659.159;  -87.172; -432.108; -548.806
659.429;  -12.320; -292.108; -349.806
659.700;    8.182; -435.107; -390.807
659.970;   -4.566; -370.107; -359.807
660.241;   16.335; -754.107; -921.807
660.511;  507.137; -147.107; -174.808
660.781;   85.239; -793.106; -748.808
661.052;  -48.509; -222.106; -381.808
661.322;  -36.932;   21.894;   -9.809
661.592;   10.320;  257.894;  148.191
661.862;  -70.504; -369.106; -382.810
662.133; -101.002; -551.105; -502.810
662.403; -134.400; -770.105; -676.810
662.673;  -54.298; -256.105; -213.811
662.943; -102.171; -612.105; -551.811
663.213;  -10.269;  -85.105;  -81.811
663.483;  -93.318; -593.104; -568.812
663.753;  -55.441; -194.104; -152.812
664.023;  -31.114;   68.896;  -32.813
664.293;  -71.437; -319.104; -126.813
664.563; -118.535; -694.104; -648.813
664.833; -118.083; -743.103; -608.814
665.103; -135.082; -730.103; -793.814
665.373; -118.430; -766.103; -806.814
665.643;  -94.903; -863.103; -918.815
665.913;   38.049; -534.103; -714.815
666.182;  144.976; -685.102; -719.816
666.452;  264.953;  -22.102;  -89.816
666.722;  -35.271; -724.102; -784.816
666.992; -140.944; -948.102; -921.817
667.261; -102.842; -824.102; -808.817
667.531;  186.985;  134.899;   45.183
667.801;  527.437; -440.101; -412.818
668.070;  228.538;  714.899;  697.182
668.340; -104.035; -883.101; -840.819
668.609;   75.767;  588.900;  301.181
668.879;  -90.531; -490.100; -558.819
669.149;  -76.654; -539.100; -516.820
669.418; -115.677; -698.100; -726.820
669.688;  -23.901; -482.100; -666.820
669.957;   90.201; -423.099; -546.821
670.226;  -29.797; -268.099; -331.821
670.496;  -99.945; -431.099; -635.822
670.765;  -76.743; -418.099; -501.822
671.034; -142.191; -872.099; -828.822
671.304;  -28.115;   55.902; -111.823
671.573; -162.213;-1085.098; -957.823
671.842;   83.264; -380.098; -294.823
672.112;    7.766; -692.098; -586.824
672.381;   -3.257; -239.098; -214.824
672.650; -146.955;-1005.097;-1021.825
672.919;  -86.579; -631.097; -507.825
673.188; -118.727; -681.097; -878.825
673.457; -143.900;-1101.097;-1143.826
673.726;  -79.398; -579.096; -646.826
673.995;  -50.171; -533.096; -479.826
674.265;  -18.144; -263.096; -333.827
674.534;   12.332; -183.096; -235.827
674.802;   -1.991; -618.096; -703.828
675.071; 1042.186; -886.095; -801.828
675.340; 3940.038; -464.095; -339.828
675.609; 1323.540;  103.905;   82.171
675.878;   63.591; -949.095; -893.829
676.147;   38.543;  -26.095;   -8.829
676.416;   81.545; -210.094; -294.830
676.685;  761.222; 1000.906; -622.830
676.953;  102.599; -603.094; -452.831
677.222;  -23.199; -193.094; -273.831
677.491;  -33.073;  -24.094; -127.831
677.759;   -3.921;   11.907;  172.168
678.028;  -33.269; -279.093; -222.832
678.297;   -4.317;   71.907;  197.168
678.565; -145.565; -898.093; -944.833
678.834;  -68.913; -311.093; -268.833
679.102;  -69.162; -411.092; -391.834
679.371; -142.360; -898.092; -727.834
679.639; -149.158; -797.092; -786.834
679.908; -110.656; -794.092; -724.835
680.176; -168.029; -895.091; -941.835
680.445;  -76.627; -346.091; -352.835
680.713;  -17.951;  -58.091;  -23.836
680.982;  -85.074; -523.091; -525.836
681.250; -129.222; -578.091; -507.837
681.518;  -99.770; -534.090; -751.837
681.787;  -20.118; -204.090; -167.837
682.055;  -60.441; -490.090; -422.838
682.323; -158.915; -993.090; -992.838
682.591;   37.037; -216.090; -538.838
682.859;   75.489;    9.911;  -35.839
683.128;   13.966;  232.911;  497.161
683.396; -176.307;-1102.089;-1122.840
683.664;  -41.106; -241.089;   21.160
683.932;    1.121;  144.911;  -76.840
684.200;  -87.377; -576.088; -320.841
684.468;  -28.750;  -73.088; -124.841
684.736;  -37.973; -214.088; -175.841
685.004; -121.996;-1024.088; -982.842
685.272;  -48.020; -880.088; -774.842
685.540;  -65.593; -499.087; -557.843
685.808;  -95.066; -651.087; -682.843
686.076; -111.964; -894.087; -969.843
686.343;  -56.337; -601.087; -815.844
686.611;   18.215; -195.087; -224.844
686.879;  492.541; -530.086; -553.844
687.147; 3345.318; -483.086; -480.845
687.414;  951.920;  -12.086; -169.845
687.682;   -9.778; -658.086; -757.846
687.950;  321.324;  259.915;  263.154
688.217;    9.026; -792.085; -760.846
688.485;   -3.498; -632.085; -636.847
688.753;  525.354;  -11.085; -102.847
689.020;  158.531; -820.085; -851.847
689.288; -105.217; -853.084; -787.848
689.555;  -30.140; -195.084; -148.848
689.823;  -54.013; -241.084; -345.849
690.090;  -99.662; -546.084; -651.849
690.358; -152.910; -877.084; -897.849
690.625;    3.217;  120.917;   45.150
690.892;  -74.981; -403.083; -369.850
691.160;  -22.554;   72.917;  -35.850
691.427;   -0.727;  141.917;  130.149
691.694; -135.651; -855.083; -929.851
691.962; -144.749;-1177.082;-1060.852
692.229;   14.828;  127.918;   56.148
692.496;   79.480;  130.918;  -49.852
692.763;    9.782; -164.082; -201.853
693.031;  -81.492; -739.082; -716.853
693.298;  -45.365; -509.081; -368.853
693.565;  321.087; -155.081; -163.854
693.832; 1291.839;   -5.081;   -9.854
694.099;  132.716; -643.081; -642.855
694.366;  -65.532; -882.081; -896.855
694.633;  -46.406; -920.080; -633.855
694.900;  766.946; 4367.920; -114.856
695.167;  411.848; -214.080; -380.856
695.434;  100.300; -646.080; -623.856
695.701;  187.027;  121.921;  -61.857
695.968;  472.154; -365.079; -361.857
696.234; 1036.155; -415.079; -646.858
696.501;10402.582; -776.079; -614.858
696.768; 5125.559; -554.079; -617.858
697.035;  303.961; -632.078; -667.859
697.302;    3.588; -448.078; -552.859
697.568;   10.340; -458.078; -497.859
697.835;  -52.159; -683.078; -624.860
698.102;  -36.782; -498.078; -407.860
698.368;   71.970;  384.923;  396.139
698.635;  -34.103;  -47.077; -424.861
698.901;  -25.126; -240.077; -348.861
699.168;   66.776; -534.077; -456.862
699.435;   58.402;  -72.077;  -13.862
699.701; -108.746; -868.076; -764.862
699.968;  -66.669;  144.924; -441.863
700.234; -102.342; -783.076; -822.863
700.500;  -69.540; -448.076; -539.864
700.767;    2.861;   -1.075;   26.136
701.033; -138.712;-1015.075; -963.864
701.299;  -58.260; -450.075; -483.865
701.566;  107.442;  950.925;  763.135
701.832;   15.544;  -31.075;  -76.865
702.098;  -96.679;-1054.074;-1034.866
702.365;  -87.703;-1098.074;-1030.866
702.631;  -38.876;-1038.074;-1063.867
702.897; 1397.501; -765.074; -676.867
703.163; 2225.328;  348.926;  254.133
703.429;  166.280; -256.073; -273.868
703.695;  -31.393; -796.073; -792.868
703.961;   19.433; -214.073; -210.868
704.227;  -65.090; -630.073; -725.869
704.493;  121.262;  613.927;  510.131
704.759;  -18.761; -565.072; -540.870
705.025;   25.466; -203.072; -194.870
705.291;  -17.457; -666.072; -562.870
705.557;  193.644;  719.928;   34.129
705.823;   23.696; -742.072; -694.871
706.089;  146.373; -307.071; -326.871
706.355;  364.000; -315.071; -244.872
706.620; 5636.152; -776.071; -729.872
706.886; 7678.529; -309.071; -362.873
707.152;  736.855; -818.070; -973.873
707.418;  -23.568;-1153.070;-1186.873
707.683;   -5.416; -550.070; -530.874
707.949;  -44.164; -547.070; -578.874
708.215;   -4.912; -129.070; -207.874
708.480;  -28.861; -520.069; -420.875
708.746;   87.766;   68.931;   28.125
709.011;  -79.057; -578.069; -612.876
709.277;  -68.205; -538.069; -543.876
709.542;  -53.928; -428.069; -387.876
709.808;   -4.701;  -59.068;   89.123
710.073;  -88.650; -577.068; -695.877
710.339;  -36.898; -242.068; -228.877
710.604;   59.529; -780.068; -845.878
710.869;  316.056; -277.068; -366.878
711.135;  -91.192; -715.067; -628.879
711.400;  -92.340; -507.067; -608.879
711.665;  -64.839; -404.067; -479.879
711.931;  -89.012; -661.067; -677.880
712.196; -127.510; -876.067; -954.880
712.461;  122.917; -402.066; -490.880
712.726;  126.344; -727.066; -771.881
712.991;  -83.429; -647.066; -664.881
713.256;  -45.078; -350.066; -332.882
713.521;  -60.926; -417.065; -381.882
713.787;  -69.124; -454.065; -472.882
714.052;  -42.822; -214.065; -400.883
714.317; -112.245;-1045.065; -981.883
714.581; 1048.757; -374.065; -268.883
714.846; 1363.208; -822.064; -888.884
715.111;  139.885;  261.936;  257.116
715.376;  -39.388;  -86.064; -223.885
715.641;  -15.511; -365.064; -367.885
715.906;  294.066;   15.936; -551.885
716.171;  132.617;  221.937;  209.114
716.436;   26.044;  -78.063; -104.886
716.700; -118.104; -818.063; -692.886
716.965; -137.977; -794.063; -807.887
717.230;  -84.775; -339.063; -392.887
717.494;  -32.423;  -40.062; -134.888
717.759; -101.322; -784.062; -640.888
718.024;    6.405;  269.938;  250.112
718.288;   71.207;  685.938;  395.111
718.553; -152.216; -803.062; -977.889
718.817; -140.614; -883.061; -899.889
719.082;  -46.012; -115.061; -125.890
719.346; -158.011;-1000.061; -947.890
719.611;  -58.009; -300.061; -255.891
719.875;  -93.382; -568.060; -537.891
720.140;  -66.280; -453.060; -603.891
720.404;   23.847; -136.060; -249.892
720.668;  858.774; -475.060; -411.892
720.933;  313.350;  146.940;  137.108
721.197; -114.798; -667.059; -600.893
721.461; -140.846; -851.059; -826.893
721.725;  -17.019;  -21.059; -250.894
721.990;  -51.317; -284.059; -204.894
722.254;  -37.890;  -26.059; -108.894
722.518;  -65.039; -286.058; -442.895
722.782;  -88.637; -743.058; -594.895
723.046;  127.515;  614.942;  570.105
723.310;   29.692;  374.942;  210.104
723.574;  -93.606; -654.058; -614.896
723.838; -108.854; -576.057; -642.897
724.102;  -45.878; -226.057; -239.897
724.366; -141.576;-1032.057; -978.897
724.630; -103.824; -749.057; -571.898
724.894;  -83.097; -722.057; -514.898
725.158;  -13.895;   38.944; -295.898
725.422;  -54.719; -394.056; -327.899
725.685;  -70.267; -441.056; -349.899
725.949;  -87.190; -566.056; -519.900
726.213;  -76.738; -732.056; -811.900
726.477;  157.339;-1020.055; -933.900
726.740;  142.891; -274.055; -104.901
727.004;  337.792; -384.055; -510.901
727.268; 3317.394; -442.055; -400.901
727.531;  889.621; -961.055; -775.902
727.795;  -47.802; -713.054; -673.902
728.059;  -71.450; -552.054; -557.903
728.322;  -80.848; -841.054; -669.903
728.586;   27.978; -692.054; -701.903
728.849;  -90.720; -695.053; -756.904
729.112; -113.618; -812.053; -912.904
729.376; -122.541; -959.053; -905.904
729.639;  -90.514; -536.053; -536.905
729.903; -108.637; -733.053; -699.905
730.166;  -53.361; -437.052; -399.906
730.429;  -47.284; -317.052; -468.906
730.693;  -81.757; -355.052; -894.906
730.956;  223.320;  810.948;  651.093
731.219;  721.422; -310.052; -103.907
731.482;  110.374;-1003.051; -894.907
731.745;  107.325; -794.051; -935.908
732.009;   21.227;  -30.051;   50.092
732.272; -116.071; -904.051; -771.909
732.535;  -40.669; -300.051; -310.909
732.798; -173.692;-1083.050;-1166.909
733.061;  -48.491; -430.050; -456.910
733.324;   -2.889;   31.950; -180.910
733.587;   65.163;  290.950;  365.090
733.850;  -78.260; -973.049;-1050.911
734.113;   31.742;   33.951;   32.089
734.376;   -8.031; -328.049; -447.912
734.639;  214.245; 1188.951; 1011.088
734.901;   58.622; -180.049; -402.912
735.164;  529.199; -883.048; -837.913
735.427; 1292.401; -166.048; -355.913
735.690;  128.753; -205.048; -234.913
735.952;  -46.120; -923.048; -925.914
736.215;  -30.494;-1113.048;-1009.914
736.478;   34.233; -771.047; -774.915
736.740;  201.460;   33.953;  129.085
737.003;  734.862; -658.047; -672.915
737.266; 4078.064;  -94.047;   46.084
737.528;  430.616; -682.047; -660.916
737.791;  304.692; -316.046; -327.916
738.053;  818.219;  465.954;  649.083
738.316;11199.696; -162.046; -136.917
738.578; 7402.598; -770.046; -736.918
738.841;  433.675; -382.046; -446.918
739.103;  165.402; -875.045; -777.918
739.365;  506.953;   79.955;  -69.919
739.628;  -19.895; -884.045; -805.919
739.890;  -39.818; -758.045; -710.919
740.152;  -48.766; -692.044; -754.920
740.414;  -11.989; -408.044; -359.920
740.677;  -54.188; -785.044; -634.921
740.939;  -54.111; -587.044; -487.921
741.201;  276.841; -432.044; -572.921
741.463;   21.443; -689.043; -745.922
741.725;    7.970;  -21.043; -199.922
741.987;   61.522;  220.957;  116.078
742.249;  -16.527; -751.043; -859.923
742.511;  218.650; -703.043; -794.923
742.773;    5.352; -546.042; -546.924
743.035;  129.904;  796.958;  533.076
743.297;  -46.244; -963.042;-1013.924
743.559;  730.208; -278.042; -262.925
743.821;   44.259; -735.042; -744.925
744.083;   -0.389;  -44.041; -149.925
744.345;  -97.237; -869.041; -892.926
744.607;   40.740;   75.959;  122.074
744.868;  -59.633; -490.041; -554.927
745.130; -115.156; -994.041;-1008.927
745.392;   44.895;   -1.040;  -44.927
745.653;   -1.478; -411.040; -378.928
745.915;  151.049;  896.960;  631.072
746.177;   52.401;   35.960;  -43.928
746.438;   -9.197; -428.040; -543.929
746.700;  -49.595; -947.039; -988.929
746.961;   -1.644; -659.039; -740.930
747.223;  131.333; -190.039;  -74.930
747.484;   85.710; -391.039; -471.930
747.746;  139.137;  -23.038; -106.931
748.007;  105.514; -647.038; -689.931
748.269;  321.090; -468.038; -440.931
748.530;  481.567; -852.038; -638.932
748.791;  244.694; -354.038; -420.932
749.053;  438.896;  286.963;  163.067
749.314;  454.173; -236.037; -169.933
749.575;  521.750; -945.037; -905.933
749.836;  862.626; -217.037;   86.066
750.098; 2612.403;  -60.037;  -21.934
750.359;37611.105;  414.964;  555.066
750.620; 9042.307; -121.036; -220.935
750.881; 1041.759; -585.036; -513.935
751.142; 1368.561; -950.036; -938.936
751.403;17340.937; -789.036; -705.936
751.664; 7108.114;-1034.035; -999.936
751.925;  494.791; -175.035; -262.937
752.186;  267.243; -298.035; -278.937
752.447;  119.895; -590.035; -445.937
752.708;   44.322; -532.035; -648.938
752.969;   17.473; -566.034; -576.938
753.230;  -13.375; -777.034; -672.939
753.491;   -7.223; -650.034; -631.939
753.751;   54.854;  109.966;   19.061
754.012;   97.531;  258.967;  181.060
754.273;   68.408; -174.033;  -71.940
754.534;    2.784; -487.033; -580.940
754.794;  -95.364; -926.033; -911.941
755.055;  146.563; 1051.967;  881.059
755.316;  -37.460; -700.032; -566.942
755.576;  -26.708; -606.032; -576.942
755.837;  -50.131; -527.032; -695.942
756.097;  -33.530; -530.032; -564.943
756.358;  -82.278; -725.032; -770.943
756.618;  -49.726; -705.031; -641.943
756.879;    4.601; -254.031; -349.944
757.139; -126.547;-1098.031;-1116.944
757.400;  -60.296; -538.031; -553.945
757.660;  -20.094; -365.031; -401.945
757.920;   -2.492; -266.030; -228.945
758.181;  -30.190; -468.030; -351.946
758.441; -108.863; -870.030; -809.946
758.701;  -30.886; -308.030; -215.946
758.961;  -20.060; -220.030; -278.947
759.222;  -49.358; -574.029; -502.947
759.482;  -84.656; -683.029; -723.948
759.742;  -91.654; -706.029; -547.948
760.002;    4.248;  -83.029; -143.948
760.262;   15.425;   50.972;  182.051
760.522;  -47.024; -498.028; -574.949
760.782;  -52.247; -738.028; -612.949
761.042;  -31.020; -618.028; -573.950
761.302;   37.257;   55.972;  -18.950
761.562;   45.534; -164.027; -154.951
761.822;   85.486; -710.027; -551.951
762.082;  -49.088;-1104.027;-1093.951
762.342;   67.014; -328.027; -403.952
762.601;   77.416; -567.027; -506.952
762.861;  369.143; -281.026; -207.952
763.121;  402.770; -406.026; -411.953
763.381; 7760.722; -499.026; -485.953
763.640; 7944.548; -139.026; -307.954
763.900;  352.025; -242.026; -203.954
764.160;   75.127; -458.025; -491.954
764.419;  -15.171; -726.025; -782.955
764.679;  -85.569; -795.025; -726.955
764.939;  -13.818; -124.025; -210.955
765.198;  -74.366; -608.025; -563.956
765.458;  -83.564; -710.024; -612.956
765.717;  -93.737; -454.024; -590.957
765.976;  -64.785; -428.024; -411.957
766.236;  -92.358; -475.024; -610.957
766.495;   14.543;  260.977;   73.042
766.755;  -90.380;-1090.023; -987.958
767.014;   10.872; -594.023; -665.958
767.273;  -60.801; -373.023; -397.959
767.533;  -45.049; -228.023; -307.959
767.792;  -38.822; -151.022; -188.960
768.051;  -53.421; -228.022; -276.960
768.310;  -93.244; -546.022; -650.960
768.569;   -0.817; -161.022;    4.039
768.828;  -31.865; -285.022; -363.961
769.088; -117.738;-1050.021; -942.961
769.347;  -94.961; -755.021; -599.962
769.606; -100.785; -876.021; -857.962
769.865; -133.908;-1016.021;-1033.963
770.124;   -4.006; -411.021; -336.963
770.383;  -54.404; -778.020; -910.963
770.641;   -5.327; -398.020; -400.964
770.900;  -87.350; -953.020; -846.964
771.159;  -44.874; -851.020; -951.964
771.418;  -35.372; -917.020; -779.965
771.677;  116.555; -224.019; -293.965
771.936;  113.357; -794.019; -865.966
772.194; 2335.509; -465.019; -437.966
772.453;10922.760; -213.019; -391.966
772.712;  735.662;  416.982;  329.033
772.970;  107.314;   32.982;   63.033
773.229;   84.716;  -22.018;  102.033
773.488;  -97.932; -814.018; -770.968
773.746;   38.070;  296.982;  335.032
774.005;   -8.379;  190.983;  -22.969
774.263;    7.248;  243.983;  177.031
774.522; -104.325; -422.017; -548.969
774.780;  -83.548; -484.017; -417.970
775.039;  -99.171; -551.017; -531.970
775.297;  -41.069; -135.016; -351.970
775.555; -118.043; -489.016; -612.971
775.814; -117.091; -618.016; -570.971
776.072; -131.639; -749.016; -740.971
776.330; -110.012; -630.016; -520.972
776.589; -130.560; -703.015; -721.972
776.847; -138.358; -645.015; -624.973
777.105; -170.307;-1016.015;-1032.973
777.363;  -92.280; -459.015; -454.973
777.621; -145.728; -660.015; -717.974
777.879;  -25.301;  -42.014;   32.026
778.138; -103.199; -554.014; -717.974
778.396; -104.472; -585.014; -526.975
778.654; -176.296;-1015.014; -970.975
778.912;  -59.769; -269.014; -371.976
779.170; -143.742; -880.013; -803.976
779.427; -156.815; -922.013; -897.976
779.685; -149.188; -880.013; -832.977
779.943;  -84.787; -654.013; -593.977
780.201; -165.185; -964.012; -883.978
780.459; -116.083; -651.012; -610.978
780.717;  -94.956; -440.012; -390.978
780.974;  -88.254; -449.012; -490.979
781.232;  -87.077; -358.012; -338.979
781.490;  -76.126; -551.011; -472.979
781.747; -104.599; -555.011; -476.980
782.005;   10.478;  462.989;  254.020
782.263; -175.195; -542.011;-1004.981
782.520;  -88.568; -326.011; -501.981
782.778; -174.166;-1013.010;-1051.981
783.035; -173.515; -962.010; -938.982
783.293;  -66.438; -248.010; -206.982
783.550;  -59.136; -134.010; -198.982
783.808; -134.784; -764.010; -776.983
784.065; -166.732; -745.009; -874.983
784.322;  -55.055;   25.991;  -86.984
784.580; -140.204; -915.009; -771.984
784.837; -104.277; -392.009; -466.984
785.094; -151.550; -783.009; -762.985
785.352;  -73.673; -304.008; -404.985
785.609; -107.071; -934.008; -839.985
785.866;  -95.319; -345.008; -401.986
786.123;  -67.518; -639.008; -583.986
786.380; -114.016; -665.008; -604.987
786.637;  -41.589; -225.007; -380.987
786.895;  -21.037; -456.007; -543.987
787.152;  -33.085; -135.007; -267.988
787.409;  -58.683; -123.007; -225.988
787.666; -101.507; -299.006; -378.988
787.923; -125.305; -616.006; -695.989
788.179; -102.528; -551.006; -584.989
788.436; -108.826; -585.006; -585.990
788.693;  -37.924;  -92.006;  -87.990
788.950;  138.602; -125.005; -112.990
789.207;  211.529; -381.005; -372.991
789.464;  -58.194; -161.005; -301.991
789.720;  -13.792;  150.995;  110.009
789.977; -178.090;-1003.005; -671.992
790.234;  -38.163;   44.996;  -66.992
790.490; -165.512; -884.004;-1031.993
790.747;  -17.735;  -85.004;   22.007
791.004;  -23.433; -426.004; -348.993
791.260;  -79.481; -430.004; -560.994
791.517; -110.879; -843.003; -788.994
791.773;  -43.427; -379.003; -342.994
792.030; -115.351; -596.003; -660.995
792.286; -109.099; -686.003; -636.995
792.543;  -24.972;  -74.002; -159.995
792.799;  -65.695; -584.002; -382.996
793.055; -162.043;-1179.002;-1210.996
793.312;  -89.641; -827.002; -816.997
793.568;  -70.165; -746.002; -599.997
793.824;    2.037; -226.001; -284.997
794.081;    4.739; -447.001; -508.998
794.337;   63.616; -664.001; -561.998
794.593; 1421.743; -319.001; -271.999
794.849; 6570.245; -746.001; -772.999
795.105;  314.396; -270.000; -261.999
795.361;   16.298; -490.000; -457.000
795.617;  -74.200; -875.000; -945.000
795.873;  -50.625; -360.000; -407.000
796.129;  -60.300; -368.000; -306.000
796.385;  -19.500; -124.000; -156.000
796.641;   47.400;  412.000;  550.000
796.897;  -87.525; -666.000; -635.000
797.153;   53.125;  453.000;  357.000
797.409; -102.800; -785.000; -868.000
797.665;  -90.400; -625.000; -732.000
797.921;  -77.175; -775.000; -762.000
798.176;  -52.425; -744.000; -747.000
798.432;  -48.150; -824.000; -596.000
798.688; -100.975;-1174.000;-1078.000
798.943;   77.375; -165.000; -147.000
799.199;   -9.700;-1005.000; -959.000
799.455;  247.425;  369.000;  316.000
799.710;  115.050; -813.000; -380.000
799.966;  287.025; -162.000; -160.000
800.221;  487.625; -638.000; -721.000
800.477;11004.750; -743.000; -710.000
800.732; 8922.800; -773.000; -800.000
800.988;  633.000;  205.000;  -19.000
801.243; 1902.425; -454.000; -344.000
801.498; 7503.375; -814.000; -739.000
801.754;  389.875; -289.000; -163.000
802.009;   75.600; -257.000; -335.000
802.264;  -65.350; -967.000;-1033.000
802.520;   19.575;  222.000;   -3.000
802.775;  -50.400; -524.000; -359.000
803.030;   50.800;  395.000;  356.000
803.285; -121.950; -840.000; -903.000
803.540;  -58.250; -686.000; -699.000
803.795;  -71.900; -648.000; -583.000
804.051;  -42.350; -279.000; -346.000
804.306;   16.475;  168.000;  128.000
804.561;  147.450;  451.000;  362.000
804.816;  123.825;  714.000;  861.000
805.071;    4.350; -185.000; -280.000
805.325;  200.500; -257.000; -427.000
805.580; -107.475; -841.000; -877.000
805.835;  -31.475; -204.000; -297.000
806.090;  -87.850; -760.000; -676.000
806.345;  -38.250; -344.000; -264.000
806.600;  -31.325; -549.000; -632.000
806.854;  -44.600; -408.000; -538.000
807.109;  -26.675; -493.000; -577.000
807.364;  -13.150; -407.000; -328.000
807.618;    3.975; -415.000; -381.000
807.873;   43.200; -470.000; -494.000
808.128;   77.700; -257.000; -518.000
808.382;  101.775; -224.000; -332.000
808.637;   73.800; -440.000; -511.000
808.891;  186.800; -257.000; -180.000
809.146;   99.450; -902.000; -794.000
809.400;  260.075; -848.000; -923.000
809.654;  329.350; -779.000; -551.000
809.909;  501.200; -841.000; -927.000
810.163; 7135.300; -813.000; -651.000
810.418;17023.150; -940.000; -861.000
810.672;  981.725; -685.000; -690.000
810.926;  712.025; -993.000; -973.000
811.180; 1453.400; -439.000; -372.000
811.434;32634.650;  240.000;  135.000
811.689;12097.800; -231.000; -365.000
811.943;  605.250; -936.000; -953.000
812.197;  303.600; -893.000; -671.000
812.451;  122.925; -379.000; -514.000
812.705;  -20.425; -809.000; -619.000
812.959;   -9.350; -263.000; -388.000
813.213;  -13.675; -283.000; -209.000
813.467;   55.850;  470.000;  253.000
813.721; -114.650; -764.000; -792.000
813.975; -121.325; -826.000; -877.000
814.229;   46.250;  430.000;  353.000
814.482;  -69.125; -517.000; -566.000
814.736; -118.025; -766.000; -744.000
814.990; -137.300; -779.000; -872.000
815.244;  -41.250; -228.000; -285.000
815.497; -107.175; -636.000; -601.000
815.751;  -21.375; -141.000;   82.000
816.005;  -86.175; -470.000; -586.000
816.258;  -59.175; -510.000; -363.000
816.512; -119.750; -693.000; -610.000
816.766;    0.000;  121.000;  157.000
817.019;   18.400;  148.000;  149.000
817.273; -120.775;-1000.000; -802.000
817.526;  -40.725; -206.000; -173.000
817.779;  -37.900;-1049.000; -960.000
818.033;  -76.600; -693.000; -807.000
818.286; -141.775; -725.000; -792.000
818.540;  -95.225; -403.000; -403.000
818.793;  -91.150; -402.000; -489.000
819.046; -123.900; -582.000; -520.000
819.299;  -47.650; -157.000; -166.000
819.553; -122.825; -552.000; -592.000
819.806; -186.400;-1016.000; -838.000
820.059;  -68.400; -334.000; -354.000
820.312;   15.300;  152.000;  185.000
820.565;  -27.875;  110.000;  -27.000
820.818;  -52.275;  -59.000; -173.000
821.071; -174.875;-1041.000; -957.000
821.324; -111.125; -536.000; -540.000
821.577; -115.300; -457.000; -483.000
821.830;  -70.800; -270.000; -172.000
822.083; -133.650; -733.000; -288.000
822.336;  -53.225; -261.000; -167.000
822.589; -140.500; -805.000; -688.000
822.842; -147.525; -875.000; -770.000
823.094; -187.000;-1076.000;-1114.000
823.347; -133.350; -925.000; -729.000
823.600;   -1.500;  402.000;  187.000
823.853;  -56.300; -311.000; -267.000
824.105;  -79.150; -331.000; -575.000
824.358; -113.450; -617.000; -716.000
824.611;   17.500;  234.000;   40.000
824.863;  -55.175; -612.000; -591.000
825.116;   30.400;  -33.000;   27.000
825.368;   61.550; -366.000; -372.000
825.621;  136.675; -186.000; -240.000
825.873;   78.075; -704.000; -737.000
826.126;  634.650; -669.000; -641.000
826.378;11932.425; -389.000; -505.000
826.630; 2623.800; -890.000; -898.000
826.883;   37.700; -754.000; -693.000
827.135;   13.850; -279.000; -270.000
827.387; -119.725; -893.000; -839.000
827.639;  -41.350;  -86.000;   32.000
827.892; -123.725; -742.000; -582.000
828.144; -162.975; -848.000; -804.000
828.396;  -38.125;  104.000;  -80.000
828.648; -111.100; -440.000; -333.000
828.900; -157.200; -702.000; -795.000
829.152; -113.700; -684.000; -683.000
829.404;  -73.350; -215.000; -267.000
829.656;   -9.725;  321.000;  214.000
829.908;  -24.000;  393.000;  229.000
830.160; -187.375;-1064.000;-1047.000
830.412;  -91.075; -481.000; -430.000
830.664; -133.025; -557.000; -665.000
830.916;  -86.850; -268.000; -206.000
831.167; -182.725;-1073.000; -951.000
831.419; -113.475; -623.000; -566.000
831.671; -151.525; -764.000; -809.000
831.923;  -96.350; -311.000; -447.000
832.174;  -88.050; -273.000; -331.000
832.426; -107.300; -493.000; -582.000
832.678; -202.750;-1043.000;-1091.000
832.929; -167.175; -947.000; -935.000
833.181;  -77.675; -575.000; -677.000
833.432;  -52.575;  -59.000; -186.000
833.684;  -40.125;  112.000;  -27.000
833.935; -120.625; -610.000; -566.000
834.187; -139.700; -829.000; -823.000
834.438;  -52.575;  -58.000;  -25.000
834.689;  -75.600; -255.000; -123.000
834.941;  -48.100; -343.000; -244.000
835.192; -101.350; -590.000; -533.000
835.443;  -97.950; -419.000; -506.000
835.695;  -14.200;  138.000;  -16.000
835.946;  -97.150; -608.000; -378.000
836.197; -113.600; -599.000; -622.000
836.448;  -91.575; -528.000; -395.000
836.699;  -67.875; -253.000; -341.000
836.950;  -12.250;   72.000;    7.000
837.201; -170.550;-1003.000; -987.000
837.452;  -35.725; -356.000; -170.000
837.703; -134.300; -791.000; -737.000
837.954;  -41.975; -205.000; -365.000
838.205;  -91.925;-1029.000;-1008.000
838.456;  155.575; -196.000; -282.000
838.707;   -1.900; -423.000; -519.000
838.958;   -2.725; -634.000; -647.000
839.209;  263.125;   18.000;   40.000
839.460;  114.150; -439.000; -201.000
839.710;  166.000; -135.000; -297.000
839.961;  427.550;  730.000;  612.000
840.212;  349.650; -382.000; -497.000
840.462; 1179.400; -328.000; -277.000
840.713;18611.550; -571.000; -536.000
840.964; 6790.700;  -62.000; -143.000
841.214;  480.125; -384.000; -624.000
841.465;  568.950; -214.000; -141.000
841.715;  522.125; -417.000; -380.000
841.966;  681.625; -746.000; -685.000
842.216; 9913.400; -330.000; -431.000
842.466;34664.600; -169.000; -313.000
842.717; 1741.450; -964.000; -952.000
842.967;  318.300; -635.000; -641.000
843.217;  250.325;   20.000;   28.000
843.468;   80.775; -104.000; -132.000
843.718;  -55.525; -718.000; -726.000
843.968;  -94.425; -837.000; -765.000
844.218;    7.200; -315.000; -262.000
844.469;  -60.600; -577.000; -561.000
844.719; -108.975; -537.000; -682.000
844.969; -100.800; -550.000; -580.000
845.219; -159.900; -814.000; -862.000
845.469;  -81.125; -392.000; -342.000
845.719; -139.925; -792.000; -884.000
845.969;   -2.850;  119.000;  174.000
846.219; -118.225; -738.000; -720.000
846.469;   26.050;  464.000;  432.000
846.718;  -55.700; -115.000;   31.000
846.968; -137.850; -827.000; -827.000
847.218;  -59.850; -224.000; -371.000
847.468;   -8.050; -586.000; -555.000
847.718; -160.125; -827.000; -798.000
847.967; -136.125; -826.000; -915.000
848.217;  -86.700; -449.000; -569.000
848.467;  -70.900; -405.000; -376.000
848.716; -122.450; -708.000; -725.000
848.966;   -5.725; -372.000; -358.000
849.215;  -65.000; -428.000; -419.000
849.465;  -97.250; -785.000; -615.000
849.714; -155.200;-1132.000;-1150.000
849.964;  -63.525; -551.000; -613.000
850.213;  -34.975; -393.000; -355.000
850.463;   72.200;  137.000;  340.000
850.712;   -7.175; -542.000; -567.000
850.961;   24.550; -739.000; -678.000
851.211;   76.800; -513.000; -504.000
851.460;  152.650; -635.000; -650.000
851.709;  563.825;  -25.000;   18.000
851.958;10867.225; -912.000; -750.000
852.208;12322.925; -859.000; -879.000
852.457;  442.575; -181.000;  -13.000
852.706;   39.475; -791.000; -823.000
852.955;   14.900; -507.000; -528.000
853.204;  -88.150; -521.000; -461.000
853.453;  -78.525; -418.000; -458.000
853.702; -137.275; -660.000; -750.000
853.951; -108.475; -532.000; -520.000
854.200; -135.850; -613.000; -562.000
854.449; -141.575; -695.000; -661.000
854.698; -120.625; -340.000; -279.000
854.946;  -47.850; -181.000; -284.000
855.195; -157.100; -843.000; -868.000
855.444; -104.875; -395.000; -420.000
855.693; -143.650; -345.000; -432.000
855.941; -109.100; -387.000; -516.000
856.190;  -69.275; -256.000; -382.000
856.439; -131.675; -652.000; -703.000
856.687;  -74.025;  -99.000;  -72.000
856.936; -110.625; -621.000; -323.000
857.184; -195.500;-1067.000;-1020.000
857.433; -102.275; -423.000; -512.000
857.681; -178.500; -989.000; -953.000
857.930;  -71.100; -282.000; -433.000
858.178; -197.025; -856.000; -929.000
858.427; -171.175; -802.000; -781.000
858.675; -116.900; -377.000; -544.000
858.923; -129.500; -527.000; -819.000
859.172; -191.700;-1094.000;-1070.000
859.420;  -99.075; -339.000; -239.000
859.668; -142.750; -624.000; -628.000
859.916;  -23.950;  109.000;  115.000
860.164; -124.025; -699.000; -603.000
860.413;  297.350; -878.000; -696.000
860.661;  199.450; -709.000; -577.000
860.909;  -89.450; -339.000; -325.000
861.157;  -93.475; -277.000; -444.000
861.405; -134.050; -534.000; -670.000
861.653;   11.875;  310.000;  310.000
861.901;  191.375; -543.000; -613.000
862.149;  -15.800; -801.000; -824.000
862.396;  -98.000; -297.000; -187.000
862.644;  -97.850; -368.000; -347.000
862.892;  -33.300;   98.000;  138.000
863.140; -138.400; -549.000; -530.000
863.388; -157.350; -815.000; -759.000
863.635; -144.925; -642.000; -601.000
863.883;  -17.725;  231.000;  190.000
864.131; -102.425; -288.000; -357.000
864.378; -144.525; -675.000; -540.000
864.626; -110.650; -347.000; -415.000
864.873; -130.475; -556.000; -505.000
865.121; -145.875; -714.000; -799.000
865.368;  -46.250; -173.000;   75.000
865.616;  -47.225;  -33.000;  -40.000
865.863;  -86.400; -462.000; -506.000
866.111; -137.825; -795.000; -824.000
866.358;   24.275; -426.000; -420.000
866.605; 2307.750;  -64.000; -804.000
866.853; 2173.250; -621.000; -537.000
867.100;  -51.250; -728.000; -775.000
867.347; -125.800; -672.000; -611.000
867.594;  -98.625; -740.000; -714.000
867.841;   75.675;   97.000;   17.000
868.089; -156.850; -746.000; -698.000
868.336; -116.250; -477.000; -420.000
868.583; -156.275; -637.000; -741.000
868.830;  -67.300; -131.000; -170.000
869.077; -178.050; -859.000; -787.000
869.324; -131.725; -502.000; -458.000
869.571; -143.200; -398.000; -430.000
869.818; -123.500; -485.000; -439.000
870.065; -119.600; -439.000; -513.000
870.311; -112.950; -456.000; -542.000
870.558; -113.375; -332.000; -311.000
870.805;  -96.700; -320.000; -384.000
871.052; -117.175; -494.000; -369.000
871.298;  -59.575; -204.000; -131.000
871.545;  -69.850; -151.000; -185.000
871.792;  -95.150; -173.000; -222.000
872.038;  -72.475;   43.000; -126.000
872.285; -123.175; -496.000; -387.000
872.532; -107.500; -357.000; -387.000
872.778;   19.050;  556.000;  403.000
873.025; -118.400; -384.000; -359.000
873.271;   13.975;  501.000;  578.000
873.517;  -41.025; -133.000; -209.000
873.764;  -41.675; -193.000;  -80.000
874.010;  -75.325; -143.000; -230.000
874.257;  -55.800;  123.000;   90.000
874.503; -157.675; -579.000; -479.000
874.749;  -71.950;   31.000;  275.000
874.995;  -73.725;  -80.000;  -20.000
875.242; -128.650; -540.000; -478.000
875.488; -124.300; -414.000; -439.000
875.734;  -52.350; -106.000; -234.000
875.980;  202.650; -872.000;-1032.000
876.226;  356.350; -157.000; -255.000
876.472;  -12.950;  343.000;  237.000
876.718;  -51.450;  184.000;  158.000
876.964;  -44.425;   56.000;   55.000
877.210; -173.075; -547.000; -677.000
877.456; -162.575; -630.000; -557.000
877.702; -170.575; -821.000; -832.000
877.948; -139.325; -377.000; -497.000
878.193;    8.175;  361.000;  255.000
878.439; -102.500; -487.000; -472.000
878.685; -106.975; -272.000; -343.000
878.931; -132.400; -618.000; -676.000
879.176;  -93.725; -201.000; -201.000
879.422; -196.625; -933.000; -820.000
879.668;   65.025;   10.000;   79.000
879.913;  126.775;   53.000;  137.000
880.159;  -53.775; -112.000;  -17.000
880.404;  -63.350; -152.000; -162.000
880.650;  -43.725;   91.000;  141.000
880.895; -164.225; -670.000; -710.000
881.141; -136.925; -454.000; -428.000
881.386; -154.725; -503.000; -658.000
881.631;  -99.250; -311.000; -166.000
881.877;  -52.925;  112.000;  -13.000
882.122; -131.050; -684.000; -600.000
882.367; -102.400; -136.000; -186.000
882.612;  -86.025;  -80.000; -176.000
882.858; -196.250; -877.000; -823.000
883.103; -111.100; -297.000; -267.000
883.348; -161.225; -759.000; -852.000
883.593; -147.200; -677.000; -602.000
883.838;  -73.550; -311.000;  -24.000
884.083;   26.350;  353.000;  288.000
884.328; -106.850; -564.000; -545.000
884.573;  -54.225; -196.000; -143.000
884.818;  187.325; -694.000; -531.000
885.063;  162.375; -348.000; -315.000
885.308; -120.325; -475.000; -398.000
885.553;   -7.900;  245.000;  325.000
885.797; -152.000; -545.000; -615.000
886.042;  -64.350;    8.000;   58.000
886.287;  -94.425; -253.000; -211.000
886.532;  -58.175;   26.000;  204.000
886.776; -111.125; -407.000; -525.000
887.021; -147.625; -621.000; -574.000
887.265; -174.075; -685.000; -689.000
887.510; -146.325; -557.000; -496.000
887.755; -108.375; -194.000; -164.000
887.999; -144.150; -552.000; -575.000
888.244;  -65.025;  -58.000;  161.000
888.488;  -13.100;  371.000;  393.000
888.732; -130.225; -368.000; -520.000
888.977; -130.800; -622.000; -567.000
889.221; -178.075; -683.000; -659.000
889.465; -139.125; -422.000; -566.000
889.710;  -86.375;  -56.000; -299.000
889.954;  -12.225;  579.000;  467.000
890.198; -151.650; -584.000; -707.000
890.442; -157.225; -716.000; -712.000
890.687; -171.125; -800.000; -753.000
890.931; -105.925; -273.000; -210.000
891.175; -149.700; -502.000; -500.000
891.419;  -78.125; -105.000; -110.000
891.663;  -99.050; -239.000; -112.000
891.907; -172.675; -801.000; -545.000
892.151; -179.500; -920.000; -815.000
892.395; -113.050; -274.000; -387.000
892.638;  -22.725;  408.000;  291.000
892.882; -182.450; -780.000; -867.000
893.126;   11.925;  758.000;  558.000
893.370;  -79.475; -167.000; -168.000
893.614; -158.525; -714.000; -715.000
893.857; -103.975; -183.000; -197.000
894.101; -146.550; -527.000; -631.000
894.345;  -67.525;  300.000;  150.000
894.588;    8.150;  569.000;  380.000
894.832;  -91.150; -178.000;  -84.000
895.075;  -93.050;   15.000;  -92.000
895.319; -144.950; -552.000; -420.000
895.563; -126.550; -413.000; -353.000
895.806; -165.300; -628.000; -741.000
896.049;  -71.175; -576.000; -368.000
896.293;   84.525;  527.000;  405.000
896.536;  -86.600; -465.000; -468.000
896.779;  -67.150; -149.000;   -1.000
897.023; -148.400; -751.000; -714.000
897.266;  -35.025;  325.000;  269.000
897.509; -197.500; -900.000; -901.000
897.752;  -52.250;  149.000;  171.000
897.996; -205.975; -972.000; -864.000
898.239;  -71.600;  168.000;  102.000
898.482; -137.400; -431.000; -453.000
898.725;  -35.350;  101.000;   53.000
898.968; -163.000; -609.000; -744.000
899.211; -122.300; -513.000; -361.000
899.454; -145.350; -633.000; -539.000
899.697;  -54.450;   90.000;  -43.000
899.940; -171.700; -761.000; -757.000
900.182; -105.400; -335.000; -405.000
900.425; -122.750; -150.000; -298.000
900.668;  -19.700;  491.000;  350.000
900.911; -115.375; -292.000; -345.000
901.154;  -53.900;  141.000;   -3.000
901.396; -140.550; -407.000; -412.000
901.639; -150.575; -430.000; -496.000
901.882; -186.225; -790.000; -809.000
902.124;  -87.525;  -29.000; -143.000
902.367; -132.750; -315.000; -361.000
902.609; -142.425; -476.000; -453.000
902.852; -100.675; -108.000; -260.000
903.094; -127.400; -458.000; -337.000
903.337;  -74.675;  -26.000;   53.000
903.579; -106.650; -228.000; -441.000
903.821; -163.575; -597.000; -744.000
904.064;  -73.775;   85.000;  127.000
904.306;  -89.575; -126.000; -166.000
904.548; -119.950; -152.000; -366.000
904.790; -114.675; -195.000; -340.000
905.033; -148.650; -625.000; -577.000
905.275; -141.375; -513.000; -524.000
905.517;   31.250;  468.000;  256.000
905.759;  -95.575; -667.000; -761.000
906.001; -116.400; -322.000; -369.000
906.243;  -81.700; -162.000; -224.000
906.485;  117.300; -265.000; -207.000
906.727;   89.875; -499.000; -542.000
906.969;  -48.500;  -30.000; -135.000
907.211;  111.150; -316.000; -382.000
907.453;  276.975; -188.000; -237.000
907.695;   -9.550; -158.000; -385.000
907.936;   32.900;  818.000;  706.000
908.178;  -63.425;   92.000; -135.000
908.420;  -74.200; -111.000; -162.000
908.662; -162.125; -633.000; -682.000
908.903;  -93.175; -208.000; -123.000
909.145;  -81.000; -240.000; -305.000
909.386;    2.700;  315.000;  280.000
909.628;   35.900;  363.000;  397.000
909.870;    4.175;   29.000;  264.000
910.111; -107.325; -809.000; -949.000
910.353;   11.475; -123.000; -161.000
910.594;   -7.200; -574.000; -606.000
910.835;   64.775; -265.000; -326.000
911.077;  145.300; -503.000; -604.000
911.318;  293.475; -505.000; -471.000
911.559;  456.125; -577.000; -880.000
911.801; 1402.375; -284.000; -280.000
912.042;11025.750;  -50.000; -159.000
912.283;26691.500;  404.000;  371.000
912.524; 3777.825; -396.000; -457.000
912.765;  444.350; -193.000;   79.000
913.006;  224.725; -307.000; -338.000
913.247;   19.900; -270.000; -290.000
913.488;  -13.225;  -43.000;   30.000
913.729;  -86.600; -373.000; -373.000
913.970;  -79.500;  -96.000; -292.000
914.211;  -72.000; -160.000; -198.000
914.452;  -68.725; -118.000;  -11.000
914.693;    1.225;  510.000;  592.000
914.934;    2.150;  510.000;  440.000
915.175;  -77.075;   53.000;  -95.000
915.415;  -80.350; -137.000;   27.000
915.656;  -81.375;  -28.000;  192.000
915.897; -101.700; -252.000;  -82.000
916.137;  -79.300;   74.000;   -9.000
916.378; -141.200; -573.000; -517.000
916.619; -100.075; -159.000;  -63.000
916.859;  -43.475;  303.000;  330.000
917.100;  151.425; 1655.000; 1070.000
917.340;   44.100;  930.000;  728.000
917.581;   60.075;  965.000;  789.000
917.821;  -41.825; -171.000;  143.000
918.061;    8.350; -199.000;  -72.000
918.302;  -72.150; -152.000; -211.000
918.542;  -42.475;  -22.000;    3.000
918.782;   26.850;  369.000;  377.000
919.023;  111.875;  360.000;  427.000
919.263; 1827.775; 8131.000;  202.000
919.503; 1093.525; -137.000;  -54.000
919.743;  625.450;  390.000;  266.000
919.983;  247.775; -134.000;  -26.000
920.223;   64.775;  135.000;   14.000
920.463;  128.100;  631.000;  554.000
920.703;  119.300;   84.000;   39.000
920.943;  162.625; -110.000;   90.000
921.183;  207.500; -414.000; -405.000
921.423;  502.900;  307.000;  546.000
921.663;  726.050; -174.000; -257.000
921.903; 1591.075;  237.000;  173.000
922.143; 9163.000;  372.000;  389.000
922.383;33829.425;  158.000;  115.000
922.622;10459.500; -120.000;  -15.000
922.862; 1156.500;  796.000;  785.000
923.102;  445.025;  -51.000;   33.000
923.341;  171.450;   59.000;   74.000
923.581;   64.900;  450.000;  360.000
923.821;   21.650;  301.000;  398.000
924.060;   -4.825;  351.000;  193.000
924.300;  -50.275;  -16.000; -128.000
924.539;  -21.575;  584.000;  473.000
924.779;    8.125;  812.000;  597.000
925.018;  -51.700;  247.000;  353.000
925.257;  -10.200;  595.000;  666.000
925.497;  -42.075;  447.000;  412.000
925.736;  -79.900;  -35.000;  102.000
925.975;   -6.800;  687.000;  669.000
926.214;   19.050;  907.000;  850.000
926.454;   27.075;  706.000;  757.000
926.693;  -40.450;  419.000;  543.000
926.932;   19.300; 1021.000;  825.000
927.171;   75.625; 1107.000; 1044.000
927.410;   39.875; 1144.000;  967.000
927.649;   13.475;  924.000;  742.000
927.888;  -14.000;  590.000;  564.000
928.127;  -11.750;  680.000;  678.000
928.366;   14.075;  842.000;  826.000
928.605;   36.400;  831.000;  737.000
928.844;  237.475; 1451.000; 1393.000
929.083;  630.925;  770.000;  613.000
929.321;  305.450; 1335.000; 1359.000
929.560;   71.125; 1158.000; 1122.000
929.799;  -41.900;  574.000;  475.000
930.038;   90.200; 1025.000; 1394.000
930.276;  -51.350;  334.000;  397.000
930.515;  -22.475;  827.000;  681.000
930.753;  -24.875;  614.000;  589.000
930.992;  -31.400;  664.000;  717.000
931.230;  -13.475;  847.000;  847.000
931.469;  170.025; 2162.000;  892.000
931.707;   71.200;  840.000;  751.000
931.946;   56.350; 1278.000; 1344.000
932.184;   52.125; 1437.000; 1175.000
932.423;   49.700; 1265.000;  963.000
932.661;   84.250; 1296.000; 1428.000
932.899;   23.675;  987.000;  821.000
933.137;    0.350;  754.000;  564.000
933.376;  143.125; 1664.000; 1335.000
933.614;  153.825; 1759.000; 1196.000
933.852;   49.950; 1357.000; 1171.000
934.090;  139.150; 1722.000; 1747.000
934.328;  109.450; 1252.000; 1457.000
934.566;   88.925; 1431.000; 1110.000
934.804;  129.650; 1263.000; 1309.000
935.042;  450.300; 1861.000; 1850.000
935.280; 1819.300; 2088.000; 2063.000
935.518; 1625.750; 2113.000; 2007.000
935.756;  348.575; 2481.000; 2316.000
935.994;  152.500; 1808.000; 1751.000
936.231;  338.800; 2890.000; 2950.000
936.469;  175.975; 2367.000; 2378.000
936.707;  166.050; 2220.000; 2167.000
936.945;  227.525; 2825.000; 2882.000
937.182;  189.275; 2679.000; 2741.000
937.420;  298.875; 3602.000; 3031.000
937.657;  424.850; 3365.000; 3478.000
937.895;  334.075; 3331.000; 3488.000
938.133;  311.300; 3540.000; 3528.000
938.370;  340.775; 3896.000; 4191.000
938.607;  388.175; 4488.000; 4205.000
938.845;  545.875; 5587.000; 5549.000
939.082;  493.250; 5387.000; 5177.000
939.320;  526.250; 5799.000; 5728.000
939.557;  629.025; 6549.000; 6491.000
939.794;  734.600; 7285.000; 7097.000
940.031;  944.350; 8421.000; 8368.000
940.269; 1105.025; 9552.000; 9107.000
940.506; 1123.825;10901.000;10507.000

