
Integration time [ms]: 100.000
Averaging Nr. [scans]: 40
Smoothing Nr. [pixels]: 0
Data measured with spectrometer [name]: 2101013U2
Wave   ;Sample   ;Dark     ;Reference
[nm]   ;[counts] ;[counts] ;[counts] 

394.013;   69.817; -450.257; -315.536
394.305;  254.615; -461.258; -419.536
394.596;  988.616; -676.269; -527.514
394.887; 2255.407; -796.268; -654.518
395.178;  907.812;  145.736;   11.476
395.470;  111.372; -210.263; -356.526
395.761;  258.047;  305.734;  394.479
396.052;  429.572; -545.284; -306.489
396.343;  428.738; -557.276; -454.503
396.634;  163.858; -200.279; -290.497
396.926;  203.830; -618.268; -565.517
397.217;  159.093;   11.725;  -17.504
397.508;   75.033; -366.273; -154.507
397.799;   82.783; -555.279; -571.497
398.090;   29.703; -973.280; -902.495
398.381;  170.600;   11.708;  -11.473
398.672;   25.251; -585.292; -742.473
398.963;   80.089; -348.279; -373.498
399.254;  145.234;   54.709; -209.475
399.545;    0.868;-1017.266; -883.520
399.836;   88.528; -407.277; -343.501
400.127;   61.827; -205.295; -209.468
400.418;   91.853; -423.274; -392.506
400.709;  109.216; -359.281; -333.493
401.000;   83.438; -268.291; -309.476
401.290;  129.091;  225.698;  115.545
401.581;   94.780; -166.286; -228.485
401.872;   39.700; -542.298; -486.462
402.163;   74.270; -313.296; -252.467
402.454;  105.485; -123.291; -163.475
402.744;  126.911; -844.297; -813.465
403.035;  606.116; -226.293;  -86.471
403.326;  778.404; -366.292; -384.474
403.617;  458.995;  204.701;  165.539
403.907;  252.927; -593.283; -679.490
404.198; 2065.772; -545.307; -599.446
404.489; 5507.307; -618.283; -588.491
404.779; 2024.695; -618.302; -660.456
405.070;  254.449;  -67.304; -174.451
405.360;  308.068; -259.293; -238.472
405.651;  362.580;  125.699;   98.542
405.942;  230.600;  209.714;  127.516
406.232;  402.314; -432.285; -413.487
406.523;  651.311;  641.706;  758.530
406.813;  157.128; -579.286; -644.484
407.104;  469.374;  261.708;  144.527
407.394;  294.646; -604.299; -591.462
407.685;  186.689;  336.715;  222.513
407.975;   94.555; -400.283; -382.490
408.265;  131.299; -134.289; -190.478
408.556;   91.107; -472.291; -459.475
408.846;  170.187;  474.706;  429.530
409.137;   97.357;   -1.288; -216.480
409.427;   58.989; -193.285; -271.487
409.717;   63.311; -776.273; -692.508
410.007;  166.758;    4.715; -170.486
410.298;  100.729; -360.295; -342.469
410.588;   93.112; -495.285; -510.486
410.878;   44.293; -792.287; -873.482
411.168;  126.328; -481.298; -478.463
411.459;  145.650; -295.283; -242.489
411.749;   62.856; -609.292; -507.474
412.039;   83.830; -755.289; -386.480
412.329;  220.721;   40.722;  132.501
412.619;  235.303;  -62.286; -148.485
412.909;  400.152;  639.711;  594.521
413.199;  409.803; -130.280; -251.495
413.490;  462.593;  521.710;  352.523
413.780;  137.757;-1013.279; -913.496
414.070;  329.789;  -46.276;  235.497
414.360;  427.142; -729.278; -666.498
414.650;  416.514; -726.288; -688.482
414.940;  500.356; -538.280; -441.496
415.230;  861.811;   50.712;   74.519
415.520; 5489.316;  155.730;   66.486
415.809;21237.115; -305.281; -125.493
416.099;16290.805; -388.277; -229.501
416.389; 4336.525;  435.726;  236.494
416.679; 2525.151;   91.738;   85.473
416.969;  469.247; -527.287; -503.483
417.259;  446.334;  341.721;  171.503
417.549;  663.314;  522.718;  318.508
417.838; 1446.607; -205.268; -147.518
418.128; 4645.423;  650.710;  492.522
418.418; 3858.417; -491.272; -579.509
418.708; 2639.826;    9.726;  -48.506
418.997; 9673.622; -474.275; -480.505
419.287;10013.882; -733.273; -790.507
419.577; 9187.449; -160.283; -123.489
419.866;30962.503; -588.277; -498.501
420.156;32819.187; -242.270;  -55.513
420.446; 6129.743; -112.263;  -26.526
420.735; 1018.056; -376.271; -446.512
421.025;  857.292; 1830.722;  315.502
421.314;  884.354; -203.271; -226.512
421.604; 2125.400;   89.732;  233.484
421.893; 1230.951; -705.271; -602.511
422.183;  256.419; -487.263; -461.526
422.472;  413.552;  -36.271; -107.511
422.762;  477.574; -416.266; -379.521
423.051;  294.590; -916.276; -916.503
423.341;  351.784; -491.273; -439.507
423.630;  468.205; -121.265;   15.477
423.919;  403.971;   58.725;   49.495
424.209;  368.124;  -31.263;   56.473
424.498;  467.829;   68.732;  161.483
424.787; 1009.410; -535.267; -601.518
425.077; 3129.953;   34.735;   29.478
425.366; 5031.454; -734.262; -744.528
425.655; 8735.984;  639.727;  259.493
425.945;16405.953; -313.247; -268.554
426.234; 9268.876;  117.741;  300.467
426.523; 4488.781;  -86.259; -350.534
426.812; 6106.445;  107.734;  159.480
427.101; 8818.021; -127.269; -323.515
427.390;11598.365;  -55.270;  -86.514
427.680; 3341.350; -624.257; -411.538
427.969;  567.035; -330.255; -301.540
428.258;  361.317; -385.257; -477.536
428.547;  607.671;  449.728;  397.490
428.836; 1650.676; -421.253; -398.543
429.125; 2392.308; -199.259;  -72.534
429.414;  969.147; -330.251; -294.548
429.703; 2777.897; -231.251; -213.548
429.992; 8000.251; -938.250; -828.549
430.281; 5236.212; -397.264; -331.524
430.570;  642.913;  -21.252;   32.454
430.859;  718.780;  279.741;  352.466
431.148;  518.924;  636.752;  631.446
431.437;  323.638;  391.748;  367.454
431.725;  181.543; -544.257; -481.536
432.014;  125.858; -845.253; -756.545
432.303;  442.171; -149.239; -105.569
432.592;  751.243; -460.263; -178.525
432.881;  977.175; -601.248; -437.554
433.169; 5091.311; -343.255;  -61.540
433.458;10416.028;  445.765;  540.424
433.747; 4604.835; -397.261; -289.529
434.036; 1076.173; -275.242; -280.564
434.324; 1977.413; -395.249; -379.551
434.613; 3256.842;   40.757;  159.437
434.902; 1247.687;  333.760;  439.433
435.190;  926.945;   75.761;  295.431
435.479;  516.149;  -52.245;   83.441
435.767;  163.832; -411.244; -427.561
436.056;  291.069; -340.242; -294.563
436.345;  391.439; -372.240; -223.568
436.633;  426.133;   60.750;  383.450
436.922;  379.091;  208.760;  414.432
437.210; 1011.169; -194.236;    1.426
437.499; 3331.177; -583.235; -432.576
437.787; 3605.143; -339.236;  -10.574
438.075;  841.875;   56.761;  162.430
438.364; 1111.028;  -44.238;  250.429
438.652;  694.653; -286.226; -138.592
438.941;  204.469;    3.770;  269.415
439.229;   51.435; -665.252; -466.545
439.517;   68.210; -160.234;  -85.577
439.806;   30.943; -501.225; -290.595
440.094;  214.267;  377.766;  650.421
440.382;  309.721; -653.233; -302.580
440.670;  333.076; -361.235; -285.576
440.959;   63.960; -347.223; -170.599
441.247;  104.629; -151.229; -109.587
441.535;  165.308; -266.235;   31.423
441.823;   78.314; -497.234; -305.578
442.111;  230.583;  173.771;  327.412
442.400;  771.099; -628.245; -335.559
442.688; 2232.117; -111.234; -620.579
442.976; 1707.318; -786.213; -450.617
443.264;  186.199; -324.224; -364.597
443.552;  155.404; -258.226;   51.408
443.840;  225.382;  602.765;  876.423
444.128;  128.970;  265.767;  269.420
444.416;   33.936; -694.228; -312.588
444.704;   42.488; -465.219;  -92.605
444.992;  107.357;   -0.226;  240.407
445.280;   89.944; -517.230;  -94.585
445.568;   81.022; -694.212; -396.618
445.856;  489.373; -174.221;  357.398
446.143; 1183.859;  -54.220;   -7.604
446.431;  939.614;  -25.228;  625.411
446.719;  309.206;  489.783;  675.391
447.007;  203.639;  481.769;  705.416
447.295;  210.957;  597.777;  871.402
447.583;  113.702; -464.229;  -34.587
447.870;  193.745; -434.221; -202.601
448.158;  548.068; -104.230;  129.415
448.446;  463.135; -800.219; -338.604
448.733;  197.151;   13.776;  269.403
449.021;  332.146;   60.788;  341.382
449.309;  211.636; -296.210;  208.379
449.596;  244.078;  128.783;   59.392
449.884;  179.963; -571.222; -325.600
450.172;  130.470; -756.227; -406.590
450.459;  378.052;  645.786;  780.387
450.747; 1867.651; -411.218; -147.608
451.034; 6010.316;  493.772;  889.411
451.322; 4939.405; -413.214; -170.614
451.609;  446.552;  292.777;  508.403
451.897;  510.646; -550.203; -183.634
452.184; 1481.007; -622.223; -400.598
452.472; 1452.856;   97.792;  269.375
452.759;  362.486;  512.781;  864.395
453.047;  161.644; -407.212; -125.617
453.334;  121.343; -732.219; -216.606
453.621;  153.783; -438.214; -161.615
453.909;  149.138;   13.796;  384.368
454.196;  146.132; -299.199; -123.641
454.483;  273.083;  317.798;  540.364
454.771;  168.834; -215.208;  196.374
455.058;   46.737; -316.207;  102.374
455.345;  122.134;   71.807;  344.347
455.632;   76.490; -128.207;  235.373
455.919;   53.803;  -82.196;  182.354
456.207;  -48.364; -774.198; -450.642
456.494;    8.670; -475.200;  -66.639
456.781;   24.404; -399.202; -198.635
457.068;   66.997; -253.206;  -29.628
457.355;   16.973; -698.206; -401.629
457.642;   13.203; -552.205; -290.630
457.929;    5.676; -778.194; -417.651
458.216;   70.269; -575.212; -354.617
458.503;  193.555; -173.193;  -19.652
458.790;  195.557; -864.208; -630.625
459.077;  260.084;  -77.202;  110.364
459.364;  678.294; -350.195; -210.649
459.651; 1402.645;  -46.206;  220.372
459.938;  667.023; -864.209; -665.623
460.225;  199.987;  132.799;  276.363
460.512;  -18.899; -836.197; -688.645
460.799;  126.225;  -32.218;  320.392
461.086;  114.474; -370.200; -251.640
461.372;   95.111; -509.198; -279.642
461.659;  164.654; -165.196;  108.354
461.946;   92.429; -445.193;  -54.651
462.233;  289.772;  842.800;  888.361
462.519;  319.619; -814.201; -464.639
462.806;  894.701; -768.197; -497.645
463.093;  766.299; -445.191;  -66.656
463.380;  -17.662; -920.186; -824.664
463.666;   60.003; -259.197;  -18.646
463.953;  103.164; -406.195; -243.648
464.239;  168.889; -173.195;  -77.648
464.526;  444.949;  413.806;  743.350
464.813;  423.060; -565.190; -304.658
465.099;  419.355;  606.807;  607.348
465.386;  420.759;  903.807;  921.348
465.672;  102.226; -694.197; -522.645
465.959;   58.102; -598.188; -520.662
466.245;   51.109; -468.193; -359.652
466.532;  133.162; -109.195;   63.352
466.818;  113.088; -357.186; -216.664
467.104;   24.051; -488.182; -415.672
467.391;   -2.288; -628.189; -459.658
467.677;   48.366; -289.186;    9.335
467.964;   35.693; -682.189; -471.660
468.250;   77.144; -331.186; -160.665
468.536;  105.913;   90.811;  180.341
468.822;  -15.195; -821.184; -574.668
469.109;  162.128;  351.827;  471.311
469.395;  200.693;  729.808;  787.346
469.681;  200.491;   46.811;  156.341
469.967; 1064.170; -699.188; -382.660
470.254; 2239.803; -494.188; -306.662
470.540; 1435.378; -601.196; -476.646
470.826;  220.337; -488.181; -397.675
471.112;  266.409;  288.816;  113.331
471.398;  101.888; -253.183;  -58.670
471.684;   38.664; -626.177; -447.680
471.970;   17.940; -918.180; -981.675
472.256;   29.242; -521.192; -441.654
472.542;   50.389; -499.171; -434.691
472.828;   43.147; -743.182; -607.672
473.114;   65.055; -380.166; -283.700
473.400;   36.330; -504.175; -293.684
473.686;   66.586; -452.166; -400.701
473.972;   68.769; -230.174; -131.687
474.258;  -30.272; -925.173; -843.689
474.544;  140.506; -183.178;   -2.679
474.830;  248.131;  -65.175;   45.316
475.116;  347.186; -123.190; -196.658
475.401;  498.693; -558.180; -467.676
475.687;  174.492; -725.180; -718.676
475.973;   43.030; -673.181; -770.673
476.259;  269.108;  736.825;  764.315
476.544;  340.822; -539.176; -437.682
476.830;  638.410; -398.172; -322.690
477.116;  515.045; -430.177; -336.682
477.401;  140.867;  346.820;  358.324
477.687;   -1.145; -289.175; -405.684
477.973;   37.533;   21.819;   28.326
478.258;   31.306; -448.163; -348.706
478.544;   51.374;   21.815;   61.334
478.829;  -36.381; -818.171; -738.692
479.115;  -35.365; -749.172; -651.690
479.401;   -0.486; -444.174; -449.686
479.686;   34.316; -253.180;  -74.676
479.972;  -17.664; -886.178; -776.680
480.257;   41.932; -258.166;  -65.700
480.542;    5.973; -614.170; -469.693
480.828;  224.353; 1288.824; 1392.317
481.113;  -14.624; -464.176; -426.683
481.399;    0.304; -236.161; -202.711
481.684;  -37.969; -620.166; -462.700
481.969;   25.317; -158.159;  -73.713
482.255;    3.133; -439.169; -285.695
482.540;   10.636; -569.178; -441.680
482.825;    9.408; -395.187; -404.663
483.110;   74.036;  -85.169; -105.696
483.396;  127.962; -840.157; -652.718
483.681;  404.969;  543.826;  730.313
483.966;  116.111; -696.160; -700.712
484.251;   12.268; -404.174; -310.687
484.536;   19.142; -356.165; -378.703
484.822;    7.996; -205.173; -218.687
485.107;   -7.651; -599.152; -502.726
485.392;  119.472;  662.836;  541.296
485.677;   88.721;  354.832;  163.302
485.962;  126.310;  160.843;  270.283
486.247;  108.764;  -14.162;   -8.707
486.532;   37.758; -178.166; -325.701
486.817;  171.898;  381.839;  431.291
487.102;  100.357; -453.154; -514.722
487.387;  519.289; -637.156; -652.718
487.672;  860.027; -154.164;  -38.705
487.957;  554.430; -394.160; -286.711
488.241;  175.540; -290.150; -314.729
488.526;  573.300; -280.152; -148.726
488.811;  882.213; -881.177; -818.680
489.096;  695.260; -666.154; -702.723
489.381;  408.721;    3.847;  162.275
489.666;  271.528; -428.161; -510.710
489.950;  172.013;  558.846;  627.277
490.235;  -11.740; -480.151; -458.728
490.520;  -41.647; -756.161; -723.710
490.804;  -42.584; -827.156; -736.719
491.089;   -0.995; -469.149; -299.732
491.374;   41.201; -132.164;  -75.704
491.658;   -3.809; -817.147; -717.735
491.943;  235.329; -657.152; -609.727
492.227;  294.253; -178.155;  -38.721
492.512;   81.484; -294.157; -341.717
492.797;  -52.776; -713.149; -716.731
493.081;  -23.182; -588.147; -598.735
493.366;  -43.821; -751.161; -635.711
493.650;  208.044;  831.859;  917.254
493.935;   33.765; -648.147; -447.734
494.219;  -50.543; -778.142; -687.743
494.503;  -57.106; -585.150; -487.730
494.788;   36.576;   46.842;   74.285
495.072;  109.766;  184.850;  434.271
495.356;  149.183; -463.148; -343.733
495.641;  463.949; -812.146; -736.736
495.925;  471.996; -976.156; -903.719
496.209;   59.704; -599.149; -451.732
496.494;  -28.643; -763.142; -544.744
496.778;   15.132; -364.154; -360.722
497.062;  -48.855; -819.156; -627.719
497.346;  -38.418; -869.160; -640.711
497.631;  144.911;  580.852;  560.266
497.915;   81.334;  -64.145;  175.261
498.199;   78.712; -341.157; -277.718
498.483;   41.848; -562.152; -508.725
498.767;  162.142;  301.850;  300.271
499.051;  152.877; -126.149; -100.732
499.335;   26.775; -693.149; -739.731
499.619;  -32.110; -381.129; -423.767
499.903;   43.827; -272.155;  -65.721
500.187;   25.914; -588.153; -316.724
500.471;   38.628; -796.152; -595.727
500.755;  121.728;   62.839;  -96.710
501.039;   55.228; -270.155; -357.721
501.323;   99.446;  -21.141;  264.254
501.607;   77.831; -447.163; -503.706
501.891;    6.464; -607.156; -512.718
502.174;    2.095; -726.144; -585.741
502.458;   85.957;   89.849;  370.273
502.742;   33.943; -180.138; -191.751
503.026;   76.339; -412.147; -254.734
503.310;  120.990; -437.159; -375.713
503.593;  101.691; -464.147; -325.735
503.877;  130.932; -232.133; -156.760
504.161;  204.817;    2.847;  -50.724
504.444;  131.104; -841.158; -710.716
504.728;  339.000; -487.164; -522.704
505.012;  580.714; -257.150;  -76.729
505.295;  441.204; -417.161; -212.711
505.579;  428.120; -256.156; -496.719
505.862;  553.206; -555.145; -333.738
506.146;  550.893; -681.159; -758.714
506.429;  337.143;  568.841;  461.286
506.713;   55.586; -732.151; -667.728
506.996;  266.657;   90.846;  295.278
507.280;  267.870; -633.165; -474.703
507.563;  192.126; -469.155; -261.721
507.847;   82.665; -423.153; -112.724
508.130;   46.504; -665.161; -456.711
508.413;   73.203; -758.167; -577.700
508.697;  193.328; -151.167;   12.300
508.980;  110.716; -422.153; -312.724
509.263;   -3.378; -466.155; -450.720
509.547;   46.164; -124.150;   82.271
509.830;   34.882; -172.160;  140.289
510.113;   98.245;  128.844;  298.281
510.396;   35.297; -530.152; -300.725
510.680;  304.807; -818.145; -812.738
510.963; 1029.336;  184.846;  180.277
511.246;  961.196; -493.150; -357.730
511.529;  305.212; -482.145;  -83.739
511.812;  284.754; -250.134;   10.241
512.095;  166.333; -740.151; -396.728
512.378;   70.820; -317.147; -245.736
512.661;    9.401; -703.137; -623.753
512.944;   16.459; -750.142; -637.744
513.227;   56.123; -170.137; -171.752
513.510;   45.095; -479.144; -671.741
513.793;   30.400; -485.140; -435.747
514.076;  142.810;  -43.127;  -39.771
514.359;   91.455; -294.149; -135.732
514.642;   68.761; -442.142; -567.744
514.925;  570.448;  581.860;  561.253
515.208;  734.500; -498.134; -443.758
515.491;  495.213; -276.133; -182.761
515.773;  274.724; -410.143; -337.742
516.056; 1560.732;  249.864;  409.246
516.339; 2282.710; -754.136; -652.755
516.622; 2089.844; -518.150; -488.730
516.904; 1847.530;  882.857;  975.257
517.187;  854.972; -730.138; -523.752
517.470;  419.004; -568.143; -510.743
517.752;  338.713; -624.136; -470.756
518.035;  250.010; -708.139; -725.749
518.318;  261.861; -799.136; -744.755
518.600; 1748.542; -300.132; -325.762
518.883; 2463.836;  310.858;   88.256
519.165; 1196.565; -585.138; -426.751
519.448;  411.466;  -61.132;  -19.762
519.730;  238.318; -573.126; -415.773
520.013;  357.710;  588.867;  664.240
520.295; 1239.155;  -94.134;  -15.759
520.578; 2822.704; -335.131; -305.764
520.860; 3147.592; -254.132;   56.238
521.143; 1540.365; -763.135; -584.756
521.425;  472.705; -251.125; -279.775
521.707;  571.511; -622.127; -380.771
521.990; 1375.511; -199.127;  167.229
522.272; 1530.026; -116.140;   -4.748
522.554;  851.599; -237.143; -157.742
522.836;  484.753;  -24.134;   99.241
523.119;  282.238; -496.148; -189.734
523.401;  163.885; -448.130; -314.766
523.683;   72.076; -865.137; -693.753
523.965;  212.120;  408.862;  260.248
524.247;  218.950;   54.878;  170.220
524.529;  156.780; -451.134; -367.759
524.812;  305.287;   -3.130;  191.234
525.094;  640.194; -773.138; -631.751
525.376; 1036.363; -143.124;   78.223
525.658;  613.183; -441.136; -339.754
525.940;   11.626; -805.131; -671.764
526.222;   60.861; -188.136;  -88.755
526.504;  171.424; -190.131;   32.237
526.786;  306.957; -960.133; -647.760
527.068;  444.869; -124.123;  -67.778
527.349;  224.080; -865.137; -774.754
527.631;  151.466; -137.132;   22.238
527.913;   87.560; -664.127; -450.771
528.195;  110.548; -761.125; -639.774
528.477;  185.125;  -93.134;  -30.758
528.759;   87.812; -648.130; -522.766
529.040;   26.268; -569.123; -293.778
529.322;   56.601; -235.125;  -10.774
529.604;  177.739;  -47.130;   93.233
529.886;  186.067; -546.126; -302.773
530.167;  166.556;  232.870;  192.235
530.449;   36.944;    1.853;   63.265
530.731;   -3.951; -572.122; -459.779
531.012;   40.619; -513.120; -216.784
531.294;   40.506; -118.116;  -43.792
531.575;  126.380;  290.875;  538.225
531.857;   31.920; -548.135; -266.757
532.138;   83.019; -113.141;   40.254
532.420;  206.817;  294.865;  403.244
532.701;  312.710; -722.133; -751.760
532.983;  448.488;  232.867;  182.239
533.264;  179.965; -243.126;  175.228
533.546;  -36.239; -491.136; -508.755
533.827;   81.006;  173.867;   -1.759
534.109;   83.945; -352.135;  -80.757
534.390;  138.245; -725.132; -582.762
534.671;  252.692; -270.135;  -82.756
534.953;  152.970; -751.123; -611.779
535.234;    3.467; -426.117; -255.789
535.515;  -79.873; -891.119; -735.785
535.796;  -25.294; -431.128; -193.770
536.078; -103.037;-1050.124; -904.777
536.359;    9.771;  -22.123;    3.221
536.640;   -0.925; -480.125; -197.774
536.921;  154.619;  225.871;  143.232
537.202;  311.991;  -87.138;  -16.751
537.483;  360.853;  251.869;  377.236
537.764;  137.781;   17.870;   98.235
538.045;  -44.051; -543.134; -371.758
538.326;  -20.529; -596.129; -447.768
538.607;    9.362; -686.127; -476.771
538.888;  151.036;   98.879;    5.218
539.169;  134.280; -704.122; -535.781
539.450;  308.418;  236.871;   16.233
539.731;  203.964; -361.121; -182.783
540.012;  162.694;  199.880;  412.216
540.293;   92.058;   82.876;  158.224
540.574;   30.576; -895.113; -717.796
540.855;  450.938;  435.879;  377.218
541.136;  518.578;   47.878;  139.220
541.416;  249.263; -161.130; -220.766
541.697;  150.824; -274.131; -170.763
541.978;  790.094; -270.135; -315.757
542.259;  987.861; -211.127; -236.771
542.539;  499.650; -191.116; -186.790
542.820;  201.629;  461.875;  480.225
543.101;  136.084;  -52.145;  -77.738
543.381;   37.661; -638.127; -591.771
543.662;  217.259;  159.873; -254.771
543.942;  450.982; -751.127; -830.770
544.223;  807.904;  193.878;  161.219
544.504;  543.438; -275.124; -182.777
544.784;  445.342; -592.126; -408.773
545.065; 1314.329;  104.884; -254.791
545.345; 1574.952;  227.881;   14.215
545.626; 1000.150;  -14.113; -108.796
545.906;  664.781;   77.869;   98.235
546.186;  281.672;   92.874;  -95.773
546.467;  148.515;   99.877;  -95.778
546.747;  267.600;  264.884;  327.210
547.027;  283.712;   91.876;  111.223
547.308;  242.856; -376.127; -530.770
547.588;  309.147;  299.871;  371.232
547.868;  165.707;  458.870;  588.235
548.149;  168.911;  609.885;  593.207
548.429;   91.435; -347.127; -299.771
548.709;  126.444; -645.120; -461.784
548.989;  344.636;   84.882;   88.213
549.269; 1556.465;   10.868;  139.239
549.550; 3605.594;  215.877;  117.222
549.830; 3199.818; -758.111; -556.799
550.110;  628.150; -468.110; -320.801
550.390;  637.374; -128.122;  -56.779
550.670;  858.071; -868.114; -783.795
550.950;  597.637; -509.121; -471.782
551.230;  166.334;  549.879;  460.218
551.510;  -20.589; -381.121; -326.782
551.790;   30.457; -173.109; -127.803
552.070;  213.640;  940.877; 1181.223
552.350;  290.656; -492.119; -377.786
552.630;  444.332;   -2.121;   77.219
552.909;  259.855;  181.884;   73.209
553.189;  167.621;  -49.132;   33.237
553.469;  135.106; -703.119; -514.786
553.749;  110.688; -469.127; -357.772
554.029;  131.596;   33.883;  -24.790
554.308;  103.040; -154.115;  -37.794
554.588;   45.130; -196.128; -204.770
554.868;   34.038; -366.121;  -47.782
555.147;   96.212; -114.115;  -46.793
555.427;  425.207; -260.116; -250.792
555.707; 2849.685; -284.115; -200.793
555.986; 3425.646; -719.111; -538.800
556.266; 1837.349;   23.884;   72.210
556.546;   53.211; -888.121; -675.782
556.825;  166.044; -657.114; -556.794
557.105; 1315.353; -125.128;   17.230
557.384; 1559.953;  122.884;  187.209
557.664;  575.081; -717.116; -508.792
557.943;   70.538; -557.121; -411.782
558.222;  104.939; -345.118; -344.788
558.502;  220.339; -116.115;  -76.793
558.781;  394.409;  194.885;  499.208
559.061;  290.089; -232.118; -227.788
559.340;  231.594;  302.883;  353.211
559.619;  509.599;   93.884;  148.210
559.899;  718.846; -239.117; -266.789
560.178;  666.663; -778.115; -593.793
560.457; 2269.122; -623.117; -562.790
560.736; 3207.047; -472.111; -482.800
561.015; 2101.201; -500.128; -502.769
561.295;  309.751;  180.893;  215.193
561.574;  283.111;  119.885;  116.207
561.853;  424.161;  274.891;  303.197
562.132;  368.091;  -45.114;  182.206
562.411;  331.257;  396.879;  553.219
562.690;   81.409; -592.115; -458.792
562.969;  139.907;  472.888;  630.203
563.248;  485.380; 2966.878; 2487.219
563.527;  195.246; -290.111; -408.800
563.806;  250.785; -650.127; -521.771
564.085;  301.966; -297.105; -206.810
564.364;  149.523; -594.117; -405.790
564.643;  350.157; -276.121; -223.781
564.922; 1372.855;  221.890;  397.198
565.201; 1348.009; -640.109; -700.803
565.479;  582.058; -297.115; -219.792
565.758;  231.203; -810.128; -712.770
566.037;  344.735; -155.109; -100.803
566.316;  175.604; -286.116;  -28.791
566.595;   31.811;  -17.115;  -12.793
566.873;   98.348; -166.111;  -79.801
567.152;  -65.793; -490.113; -590.797
567.431;   23.350; -113.116;    6.210
567.709;  -11.949; -344.107; -212.807
567.988;  186.169; -810.114; -769.794
568.266;  380.586; -160.115;  -68.793
568.545;  280.685; -644.100; -514.819
568.824;  420.582;  160.885;  356.208
569.102;  379.419; -351.114; -235.794
569.381;  127.057; -492.116; -407.792
569.659;  -41.022; -553.113; -553.796
569.938;    4.978; -743.122; -465.780
570.216;   76.762; -225.109; -225.804
570.494;  -47.478; -632.114; -572.795
570.773;   41.836;  202.879;  114.218
571.051;  -11.007; -373.123; -357.778
571.330;   39.651; -221.113; -174.796
571.608;   24.727; -181.098; -173.823
571.886;  -69.909; -671.111; -581.799
572.164;  -66.887; -739.121; -621.782
572.443;  -41.156; -562.105; -512.811
572.721;  -49.428; -399.117; -289.790
572.999;  -36.284; -280.117; -168.788
573.277;   77.588;  379.894;  620.191
573.555;  195.990;   94.894;   37.190
573.834;  956.291;  -86.117; -114.788
574.112; 1167.553;  880.893;  811.193
574.390;  336.247; -143.111;  -96.801
574.668;    1.258;  -91.112;  -61.797
574.946;  -16.660; -165.106; -187.810
575.224;   19.934;   71.891;  -16.803
575.502;  -21.123; -200.116; -204.791
575.780;  -71.991; -767.112; -829.798
576.058;  106.646; 1589.889; 1004.200
576.336;  -16.948; -210.110; -129.801
576.614;  -55.491; -511.112; -340.798
576.891;   18.265; -711.115; -823.794
577.169;  327.545; -158.108; -285.805
577.447;  437.753;  169.893;  202.193
577.725;  205.413;  629.888;  854.201
578.003;    7.186;  -71.112; -371.798
578.280;   64.053; -208.104; -242.812
578.558;   73.689; -450.115; -422.793
578.836;  114.822; -210.114; -145.795
579.114;   48.807; -630.112; -670.797
579.391;   68.917;   -6.117;  -18.789
579.669;  -61.759; -595.114; -704.794
579.947;  113.325; -326.107; -127.806
580.224;  236.050; -692.107; -524.806
580.502;  220.254;  127.893;   76.193
580.779;   22.823;  -42.117;   75.210
581.057;  -76.637; -584.109; -470.804
581.334;  -84.208; -726.102; -695.815
581.612;   19.416;   54.895;  511.190
581.889;  -41.746;  -83.101; -129.818
582.167;  -44.157; -298.099; -190.821
582.444;  -90.701; -845.102; -814.817
582.721;   88.200;  657.899;  715.183
582.999;   25.891; -326.100; -167.821
583.276;  346.797; -812.123; -713.779
583.553;  499.020; -364.102; -294.816
583.831;  138.449; -607.104; -631.812
584.108;   45.443;  349.892;  174.195
584.385;   -7.334; -122.102;  -98.815
584.662;  -73.601; -651.111; -828.801
584.940;   21.373;  204.889;  204.199
585.217;  -23.647;  -73.113; -303.796
585.494;   20.931;   71.890;  118.198
585.771;  158.238; -250.109; -354.804
586.048;  387.528; -196.113;  -76.796
586.325;  238.001; -721.110; -773.801
586.602;   73.778;  230.896;  213.188
586.879;  -40.588; -499.100; -580.820
587.156;   19.592; -156.105; -331.810
587.433;  -51.678; -701.102; -667.817
587.710;   48.010;  152.888;  234.202
587.987;  242.172; -264.105; -236.811
588.264;  659.286;  315.888;  387.202
588.541; 1075.605;  -61.104;   26.187
588.818; 2118.041;   72.892;  171.196
589.095; 1846.901; -163.104; -174.812
589.371;  299.862; -459.109; -414.804
589.648;  -14.997; -581.107; -437.807
589.925;    2.648; -517.114; -621.795
590.202;  -12.141; -741.112; -607.798
590.478;   60.423; -166.105;  -73.811
590.755;  203.221; -241.108; -132.806
591.032; 1775.728; -741.110; -699.802
591.308; 2514.166; -732.094; -790.831
591.585; 1284.852; -573.110; -560.802
591.862;   67.324;-1056.102; -950.817
592.138;   38.519; -475.108; -474.805
592.415;   88.379; -486.104; -495.813
592.691; 1114.827;  460.896;  518.188
592.968; 1464.429; -208.098; -123.824
593.244;  670.175; -695.116; -595.790
593.521;   62.599; -105.102;  -42.817
593.797;  -35.974; -810.122; -720.780
594.074;  246.941; -611.096; -588.826
594.350;  535.452;  828.905;  729.172
594.626;  220.024; -303.111; -283.801
594.903;   55.750; -643.101; -645.817
595.179;  155.857;  243.896;  418.187
595.455;    6.505; -136.107; -150.807
595.731;    7.659;  -19.103;  -38.814
596.008;  -39.057; -464.111; -434.800
596.284;   23.264; -187.100; -242.820
596.560;   17.122; -501.093; -493.833
596.836;  141.169; -173.105;  -70.810
597.112;  260.745; -582.108; -437.805
597.388;  218.064;  -49.097;  -48.826
597.665;  103.855;  437.887;  530.203
597.941;  -60.250; -572.089; -658.839
598.217;  -15.044; -323.110; -293.802
598.493;  190.290;   61.891; -204.804
598.769;  382.084; -175.100;  -50.819
599.045;  226.398; -490.108; -562.806
599.321;   25.463; -193.100; -261.820
599.597;   76.664; -355.109; -476.804
599.872;  375.730;  409.896;  429.187
600.148;  282.266;  -61.097; -172.826
600.424;  212.602;   91.893;  202.193
600.700;  168.679; -170.107; -280.807
600.976;   43.685; -442.097; -464.825
601.252;  179.336; -226.109; -272.803
601.527;  119.881; -833.104; -840.813
601.803;  100.574; -453.105; -404.812
602.079;  122.509; -124.100; -118.819
602.354;  433.656; -620.092; -531.835
602.630;  621.828; -140.113; -482.796
602.906; 1714.504; -910.101; -863.818
603.181; 4996.156; -627.119; -534.786
603.457; 4272.988;   98.903; -278.826
603.733;  599.540; -605.120; -626.783
604.008;  735.541; -245.106; -164.810
604.284; 2348.201; -636.101; -580.817
604.559; 2050.288;   -3.112;  -42.799
604.835;  359.693; -163.105; -225.810
605.110;  282.968; -732.099; -892.821
605.385;  532.124;  224.907;  267.167
605.661;  460.629; -625.095; -729.829
605.936;  821.598; -664.108; -737.806
606.211;  718.640;  -17.103; -170.815
606.487;  130.418; -329.114; -376.794
606.762;  -13.644; -791.119; -745.786
607.037;  -39.006; -501.105; -433.810
607.313;  -61.627; -589.096; -574.828
607.588;  -12.110; -375.106; -137.810
607.863;   22.779;  -28.101; -143.818
608.138;  127.680;  513.890;  516.198
608.413;    4.272; -576.099; -592.822
608.688;   22.669; -203.108; -267.805
608.964;  131.685; -509.106; -218.809
609.239;  161.441; -107.105; -212.810
609.514;  202.223;  281.895;  240.188
609.789;  479.878; -187.104; -716.812
610.064;  664.397; -435.096; -609.827
610.339;  611.137; -855.109; -799.804
610.614;  828.814; -131.100; -315.820
610.889;  465.024;  215.895;  107.188
611.163;   11.149; -407.104; -591.812
611.438;   43.569;   81.886; -167.794
611.713;  -17.024; -467.101; -499.817
611.988;   29.003; -144.101; -328.818
612.263;  -42.183; -771.102; -717.815
612.538;  162.102;  385.887;  251.204
612.812;   97.690; -832.100; -911.820
613.087;   70.252; -358.098; -338.823
613.362;  -52.521; -497.107; -557.807
613.637;   32.011;  261.897;  138.186
613.911;   -2.193; -256.092; -345.835
614.186;   60.878; -249.107; -292.807
614.460;  466.321; -842.081; -758.854
614.735;  556.922;  -55.087;  -17.843
615.010;  123.212;   43.912;  -82.841
615.284;  190.719;  360.892;  246.195
615.559;  260.581; -792.092; -955.835
615.833;  202.845;  -76.099;  -87.822
616.108;  -12.358; -225.090; -390.837
616.382;  108.023;  274.913;  402.156
616.656;  106.167; -241.090; -232.837
616.931;  353.221; -785.099; -700.822
617.205;  811.932; -973.104; -979.813
617.480;  711.078;  -91.125;    6.225
617.754;  108.450; -396.125; -128.774
618.028;   -5.203; -369.129; -382.768
618.302;   54.767;   73.892;  -25.805
618.577;  -71.987; -371.103; -518.815
618.851;  -59.367; -399.109; -600.803
619.125;  -50.770; -335.134; -378.759
619.399;  -35.868; -244.104; -374.813
619.673;  -62.217; -330.115; -515.792
619.947;  -46.579; -333.114; -448.795
620.222;  -17.726; -198.110; -204.801
620.496;   -0.512;  -47.121;  -96.782
620.770;   -6.595; -187.122;  -93.781
621.044;  160.517;  323.895;  346.190
621.318;  565.816; -653.120; -614.783
621.592;  493.764; -430.121; -409.783
621.866;  215.189; -476.112; -572.799
622.140;   15.277; -207.116; -356.791
622.413;   48.318;  138.889;  112.200
622.687;  -55.024; -746.101; -492.817
622.961;   -2.508; -130.108; -143.805
623.235;  -68.706; -633.111; -661.800
623.509; -112.027; -816.105; -848.811
623.783;   10.326;  -12.107;   48.193
624.056;  -34.483; -254.120; -280.783
624.330;   40.083;   63.888;   -3.797
624.604;   30.098; -271.116; -355.790
624.877;   43.529;  180.890;   26.198
625.151;   17.266; -249.114; -238.794
625.425;  -45.666; -150.103; -283.814
625.698;  -70.449; -367.119; -374.785
625.972;  -94.769; -799.110; -765.802
626.245;   70.375;  685.884;  484.210
626.519;  -38.079; -426.120; -340.784
626.792;  -45.196; -192.107; -380.807
627.066;  -91.502; -485.122; -662.779
627.339; -106.198; -736.110; -663.802
627.613;   45.419;  351.880;  148.216
627.886;   38.808;  187.891; -612.803
628.160;  -24.060;  312.880; -161.783
628.433;  -94.470; -695.125; -703.775
628.706;  -76.329; -517.120; -615.784
628.979;    2.762;  296.876;  117.223
629.253;  -96.145; -785.119; -833.786
629.526;  245.566; -334.126; -253.772
629.799;  209.418; -641.123; -479.778
630.072;   93.924; -497.128; -516.769
630.346;  -76.475;-1115.116;-1080.790
630.619;  307.155; -467.107; -545.808
630.892;  468.719;  709.889;  593.200
631.165;  251.482;  790.896;  679.187
631.438; -108.189;-1092.112;-1055.798
631.711;   31.271;  453.877;  257.221
631.984;  -62.279; -523.117; -624.789
632.257;  -81.633; -636.117; -681.789
632.530;  -64.649; -412.119; -433.785
632.803;    3.890; -109.115;    7.207
633.076;  -71.185; -360.123; -422.777
633.349;   10.528;  173.872;  121.231
633.622;  -44.500; -187.119; -240.785
633.895; -123.708; -903.120; -823.783
634.167;  -75.807; -496.126; -525.773
634.440;  -22.669;  -19.116; -137.792
634.713;  -16.271;  -22.119; -120.786
634.986;   64.718;  593.871;  453.233
635.258;  -69.812; -507.115; -597.793
635.531;   87.364;  742.882; -343.788
635.804;  -18.855; -303.117; -318.789
636.077;  -98.172; -830.116; -852.791
636.349;  -27.914; -586.115; -474.793
636.622;  336.790; 1695.874; 1392.228
636.894;  156.071; -474.120; -909.784
637.167;   60.484; -836.127; -789.771
637.439;   20.406; -278.128; -213.770
637.712;  -63.058; -312.126; -293.772
637.984;  -80.047; -635.116; -707.791
638.257;  308.816;  515.877;  488.222
638.529;  438.431; -881.125; -924.776
638.802;  192.624; -508.128; -449.769
639.074; -115.246; -927.122; -952.781
639.346; -111.078; -942.135; -930.757
639.619;    0.835;  -79.142; -319.744
639.891;  -12.377;  -83.122; -168.779
640.163;  -75.650; -689.122; -756.780
640.435;   19.277;  273.878;  103.220
640.708;    3.579;  -72.122; -132.780
640.980;  -46.070; -366.122; -362.781
641.252;  163.557;  -25.121;  -71.781
641.524; 1519.309;  580.879;  573.219
641.796; 1511.435;-1094.121; -907.782
642.068;  271.437; -191.121; -300.782
642.340;  -62.036; -486.121; -566.783
642.613;   36.916;  294.880;  323.217
642.885;  -88.658; -787.120; -878.783
643.157;  -70.006; -810.120; -658.784
643.428;   58.946;  170.880;  218.216
643.700;  -87.277; -498.120; -425.784
643.972;  -37.001;  -16.119; -133.785
644.244;  -96.524; -474.119; -559.785
644.516;  -44.797; -250.119; -114.786
644.788;   60.730;  662.881;  548.214
645.060;  -18.744;  -12.119; -124.786
645.332;  -90.467; -525.118; -535.787
645.603;   40.510;  479.882;  342.213
645.875;  -72.863; -334.118; -369.787
646.147;  168.263; 1487.882; 1242.212
646.418; -102.410; -931.117; -918.788
646.690;   57.842; -714.117; -715.789
646.962;    3.294; -413.117; -451.789
647.233;   -6.330;   15.883;   11.211
647.505;  -98.253; -595.117; -475.790
647.776;   32.649;  328.884;  229.210
648.048;  -14.699; -248.116; -418.790
648.320;  -81.748; -752.116; -679.791
648.591; -154.596;-1055.116; -958.791
648.862;  -73.244; -505.116; -577.792
649.134;   -1.592;  115.885;  198.208
649.405;  -50.316; -661.115; -618.792
649.677;  -74.039; -475.115; -598.793
649.948;  -18.887; -181.115; -296.793
650.219;  -19.735;  -37.115; -147.793
650.491;  -65.959; -431.114; -520.794
650.762; -122.482; -705.114; -731.794
651.033;  -77.405; -437.114; -424.795
651.304; -101.579; -743.114; -728.795
651.576;  -58.102; -680.114; -645.795
651.847;  -34.075; -250.113; -140.796
652.118;  -12.498;  -32.113; -189.796
652.389; -113.122; -639.113; -722.796
652.660;  -32.170; -147.113;  -89.797
652.931; -145.118; -897.112; -871.797
653.202;  -78.141; -382.112; -541.798
653.473;  -68.090; -633.112; -533.798
653.744;  107.237; -595.112; -590.798
654.015;   94.339; -356.112; -303.799
654.286;  -78.309; -642.111; -663.799
654.557;  -71.083; -586.111; -521.799
654.828; -149.856;-1114.111;-1088.800
655.099;  -82.579; -404.111; -291.800
655.370;  -87.777; -427.111; -543.801
655.641; -113.526; -656.110; -714.801
655.911;  -91.599; -618.110; -638.801
656.182;   49.253;  437.890;  387.198
656.453;  105.680;  830.890;  746.198
656.724;  -80.569; -466.110; -426.802
656.994;  -77.667; -553.109; -568.803
657.265; -109.540; -862.109; -873.803
657.536;  -72.513; -500.109; -377.804
657.806; -112.487; -561.109; -593.804
658.077; -129.310; -866.109; -950.804
658.347;  -86.183; -523.108; -598.805
658.618; -119.481; -646.108; -694.805
658.888;  -30.130;  -41.108;  112.195
659.159;  -65.153; -432.108; -548.806
659.429;  -34.176; -292.108; -349.806
659.700;  -13.224; -435.107; -390.807
659.970;  -25.573; -370.107; -359.807
660.241;   -8.196; -754.107; -921.807
660.511;  373.481; -147.107; -174.808
660.781;   48.283; -793.106; -748.808
661.052;  -47.516; -222.106; -381.808
661.322;  -20.464;   21.894;   -9.809
661.592;    7.188;  257.894;  148.191
661.862;  -63.736; -369.106; -382.810
662.133; -103.359; -551.105; -502.810
662.403; -114.457; -770.105; -676.810
662.673;  -60.455; -256.105; -213.811
662.943;  -85.529; -612.105; -551.811
663.213;  -22.052;  -85.105;  -81.811
663.483;  -96.950; -593.104; -568.812
663.753;  -47.148; -194.104; -152.812
664.023;   -6.622;   68.896;  -32.813
664.293;  -55.095; -319.104; -126.813
664.563; -113.743; -694.104; -648.813
664.833; -121.491; -743.103; -608.814
665.103; -123.115; -730.103; -793.814
665.373; -119.613; -766.103; -806.814
665.643; -104.486; -863.103; -918.815
665.913;   14.466; -534.103; -714.815
666.182;   84.442; -685.102; -719.816
666.452;  195.644;  -22.102;  -89.816
666.722;  -39.629; -724.102; -784.816
666.992; -134.227; -948.102; -921.817
667.261;  -93.276; -824.102; -808.817
667.531;  189.451;  134.899;   45.183
667.801;  487.553; -440.101; -412.818
668.070;  228.505;  714.899;  697.182
668.340; -100.669; -883.101; -840.819
668.609;   76.083;  588.900;  301.181
668.879;  -78.990; -490.100; -558.819
669.149;  -93.688; -539.100; -516.820
669.418; -111.512; -698.100; -726.820
669.688;  -46.410; -482.100; -666.820
669.957;   35.767; -423.099; -546.821
670.226;  -38.531; -268.099; -331.821
670.496;  -77.155; -431.099; -635.822
670.765;  -78.453; -418.099; -501.822
671.034; -138.126; -872.099; -828.822
671.304;  -30.200;   55.902; -111.823
671.573; -147.898;-1085.098; -957.823
671.842;   23.504; -380.098; -294.823
672.112;    5.706; -692.098; -586.824
672.381;  -21.093; -239.098; -214.824
672.650; -140.241;-1005.097;-1021.825
672.919;  -94.289; -631.097; -507.825
673.188;  -94.512; -681.097; -878.825
673.457; -158.986;-1101.097;-1143.826
673.726;  -76.959; -579.096; -646.826
673.995;  -54.232; -533.096; -479.826
674.265;  -27.655; -263.096; -333.827
674.534;   -9.079; -183.096; -235.827
674.802;   -6.427; -618.096; -703.828
675.071;  713.775; -886.095; -801.828
675.340; 2990.427; -464.095; -339.828
675.609;  955.628;  103.905;   82.171
675.878;   29.330; -949.095; -893.829
676.147;    9.282;  -26.095;   -8.829
676.416;   57.234; -210.094; -294.830
676.685;  575.185; 1000.906; -622.830
676.953;   51.587; -603.094; -452.831
677.222;  -37.086; -193.094; -273.831
677.491;  -23.459;  -24.094; -127.831
677.759;  -11.058;   11.907;  172.168
678.028;  -17.256; -279.093; -222.832
678.297;  -14.679;   71.907;  197.168
678.565; -144.652; -898.093; -944.833
678.834;  -70.926; -311.093; -268.833
679.102;  -78.374; -411.092; -391.834
679.371; -159.222; -898.092; -727.834
679.639; -126.020; -797.092; -786.834
679.908; -129.294; -794.092; -724.835
680.176; -150.217; -895.091; -941.835
680.445;  -70.640; -346.091; -352.835
680.713;  -14.789;  -58.091;  -23.836
680.982;  -91.037; -523.091; -525.836
681.250; -103.985; -578.091; -507.837
681.518; -100.108; -534.090; -751.837
681.787;  -22.782; -204.090; -167.837
682.055;  -70.205; -490.090; -422.838
682.323; -132.078; -993.090; -992.838
682.591;   13.049; -216.090; -538.838
682.859;   52.575;    9.911;  -35.839
683.128;   10.327;  232.911;  497.161
683.396; -154.971;-1102.089;-1122.840
683.664;  -48.044; -241.089;   21.160
683.932;   -6.393;  144.911;  -76.840
684.200;  -75.816; -576.088; -320.841
684.468;  -29.314;  -73.088; -124.841
684.736;  -37.962; -214.088; -175.841
685.004; -127.861;-1024.088; -982.842
685.272;  -64.909; -880.088; -774.842
685.540;  -76.057; -499.087; -557.843
685.808;  -95.805; -651.087; -682.843
686.076;  -93.504; -894.087; -969.843
686.343;  -72.702; -601.087; -815.844
686.611;   20.050; -195.087; -224.844
686.879;  314.752; -530.086; -553.844
687.147; 2508.203; -483.086; -480.845
687.414;  694.255;  -12.086; -169.845
687.682;   -8.593; -658.086; -757.846
687.950;  229.059;  259.915;  263.154
688.217;  -13.315; -792.085; -760.846
688.485;  -35.938; -632.085; -636.847
688.753;  401.289;  -11.085; -102.847
689.020;   82.491; -820.085; -851.847
689.288; -102.158; -853.084; -787.848
689.555;  -32.731; -195.084; -148.848
689.823;  -58.104; -241.084; -345.849
690.090;  -92.902; -546.084; -651.849
690.358; -137.201; -877.084; -897.849
690.625;  -15.324;  120.917;   45.150
690.892;  -89.222; -403.083; -369.850
691.160;  -28.246;   72.917;  -35.850
691.427;    9.631;  141.917;  130.149
691.694; -153.292; -855.083; -929.851
691.962; -135.315;-1177.082;-1060.852
692.229;    9.461;  127.918;   56.148
692.496;   61.988;  130.918;  -49.852
692.763;    2.015; -164.082; -201.853
693.031;  -71.158; -739.082; -716.853
693.298;  -47.832; -509.081; -368.853
693.565;  224.145; -155.081; -163.854
693.832;  945.472;   -5.081;   -9.854
694.099;   77.724; -643.081; -642.855
694.366;  -71.125; -882.081; -896.855
694.633;  -43.823; -920.080; -633.855
694.900;  696.879; 4367.920; -114.856
695.167;  320.931; -214.080; -380.856
695.434;   61.657; -646.080; -623.856
695.701;  187.859;  121.921;  -61.857
695.968;  363.636; -365.079; -361.857
696.234;  916.238; -415.079; -646.858
696.501;10003.464; -776.079; -614.858
696.768; 5096.691; -554.079; -617.858
697.035;  304.393; -632.078; -667.859
697.302;   31.470; -448.078; -552.859
697.568;    7.221; -458.078; -497.859
697.835;  -40.952; -683.078; -624.860
698.102;  -34.825; -498.078; -407.860
698.368;   72.702;  384.923;  396.139
698.635;  -46.422;  -47.077; -424.861
698.901;   -7.695; -240.077; -348.861
699.168;   19.582; -534.077; -456.862
699.435;   57.359;  -72.077;  -13.862
699.701; -112.015; -868.076; -764.862
699.968;   21.137;  144.924; -441.863
700.234; -101.961; -783.076; -822.863
700.500;  -46.510; -448.076; -539.864
700.767;   -5.683;   -1.075;   26.136
701.033; -118.056;-1015.075; -963.864
701.299;  -64.704; -450.075; -483.865
701.566;  116.222;  950.925;  763.135
701.832;   11.774;  -31.075;  -76.865
702.098; -106.524;-1054.074;-1034.866
702.365;  -99.872;-1098.074;-1030.866
702.631;  -35.496;-1038.074;-1063.867
702.897; 1125.081; -765.074; -676.867
703.163; 1929.008;  348.926;  254.133
703.429;  136.710; -256.073; -273.868
703.695;  -32.539; -796.073; -792.868
703.961;    1.938; -214.073; -210.868
704.227;  -53.160; -630.073; -725.869
704.493;  122.467;  613.927;  510.131
704.759;  -15.407; -565.072; -540.870
705.025;   27.920; -203.072; -194.870
705.291;    1.397; -666.072; -562.870
705.557;  198.574;  719.928;   34.129
705.823;   39.125; -742.072; -694.871
706.089;  147.977; -307.071; -326.871
706.355;  377.979; -315.071; -244.872
706.620; 5837.931; -776.071; -729.872
706.886; 7827.632; -309.071; -362.873
707.152;  689.209; -818.070; -973.873
707.418;    6.786;-1153.070;-1186.873
707.683;  -11.912; -550.070; -530.874
707.949;  -35.886; -547.070; -578.874
708.215;   -6.584; -129.070; -207.874
708.480;  -10.882; -520.069; -420.875
708.746;   85.720;   68.931;   28.125
709.011;  -62.829; -578.069; -612.876
709.277;  -84.027; -538.069; -543.876
709.542;  -46.975; -428.069; -387.876
709.808;   -8.998;  -59.068;   89.123
710.073;  -89.872; -577.068; -695.877
710.339;  -33.670; -242.068; -228.877
710.604;   54.007; -780.068; -845.878
710.869;  277.558; -277.068; -366.878
711.135;  -76.165; -715.067; -628.879
711.400;  -92.888; -507.067; -608.879
711.665;  -66.786; -404.067; -479.879
711.931;  -96.835; -661.067; -677.880
712.196; -115.583; -876.067; -954.880
712.461;   69.894; -402.066; -490.880
712.726;   84.871; -727.066; -771.881
712.991;  -95.628; -647.066; -664.881
713.256;  -51.676; -350.066; -332.882
713.521;  -51.799; -417.065; -381.882
713.787;  -65.472; -454.065; -472.882
714.052;  -29.371; -214.065; -400.883
714.317;  -74.344;-1045.065; -981.883
714.581; 1052.958; -374.065; -268.883
714.846; 1457.785; -822.064; -888.884
715.111;  138.211;  261.936;  257.116
715.376;  -16.012;  -86.064; -223.885
715.641;  -26.260; -365.064; -367.885
715.906;  238.042;   15.936; -551.885
716.171;  105.368;  221.937;  209.114
716.436;   30.545;  -78.063; -104.886
716.700; -106.403; -818.063; -692.886
716.965; -119.851; -794.063; -807.887
717.230;  -79.875; -339.063; -392.887
717.494;  -17.498;  -40.062; -134.888
717.759;  -93.946; -784.062; -640.888
718.024;   13.006;  269.938;  250.112
718.288;   72.607;  685.938;  395.111
718.553; -144.391; -803.062; -977.889
718.817; -141.164; -883.061; -899.889
719.082;  -25.062; -115.061; -125.890
719.346; -150.536;-1000.061; -947.890
719.611;  -46.184; -300.061; -255.891
719.875; -104.107; -568.060; -537.891
720.140;  -70.381; -453.060; -603.891
720.404;   11.371; -136.060; -249.892
720.668;  665.023; -475.060; -411.892
720.933;  252.050;  146.940;  137.108
721.197;  -94.699; -667.059; -600.893
721.461; -133.547; -851.059; -826.893
721.725;   -3.045;  -21.059; -250.894
721.990;  -62.418; -284.059; -204.894
722.254;  -19.267;  -26.059; -108.894
722.518;  -78.790; -286.058; -442.895
722.782;  -93.988; -743.058; -594.895
723.046;  105.239;  614.942;  570.105
723.310;   27.740;  374.942;  210.104
723.574; -116.583; -654.058; -614.896
723.838; -101.431; -576.057; -642.897
724.102;  -60.779; -226.057; -239.897
724.366; -135.653;-1032.057; -978.897
724.630; -100.851; -749.057; -571.898
724.894;  -80.424; -722.057; -514.898
725.158;  -14.572;   38.944; -295.898
725.422;  -56.921; -394.056; -327.899
725.685;  -67.219; -441.056; -349.899
725.949;  -92.142; -566.056; -519.900
726.213;  -86.565; -732.056; -811.900
726.477;   89.436;-1020.055; -933.900
726.740;  109.463; -274.055; -104.901
727.004;  284.140; -384.055; -510.901
727.268; 3322.567; -442.055; -400.901
727.531;  922.468; -961.055; -775.902
727.795;  -54.280; -713.054; -673.902
728.059;  -61.453; -552.054; -557.903
728.322;  -85.901; -841.054; -669.903
728.586;   -6.950; -692.054; -701.903
728.849;  -99.198; -695.053; -756.904
729.112; -115.846; -812.053; -912.904
729.376; -120.945; -959.053; -905.904
729.639;  -69.543; -536.053; -536.905
729.903; -113.566; -733.053; -699.905
730.166;  -53.039; -437.052; -399.906
730.429;  -30.113; -317.052; -468.906
730.693;  -63.611; -355.052; -894.906
730.956;  184.641;  810.948;  651.093
731.219;  588.918; -310.052; -103.907
731.482;   68.269;-1003.051; -894.907
731.745;   52.721; -794.051; -935.908
732.009;   -6.977;  -30.051;   50.092
732.272; -101.950; -904.051; -771.909
732.535;  -38.674; -300.051; -310.909
732.798; -149.247;-1083.050;-1166.909
733.061;  -66.445; -430.050; -456.910
733.324;    1.257;   31.950; -180.910
733.587;   66.408;  290.950;  365.090
733.850;  -76.815; -973.049;-1050.911
734.113;   28.412;   33.951;   32.089
734.376;    4.439; -328.049; -447.912
734.639;  190.590; 1188.951; 1011.088
734.901;   53.217; -180.049; -402.912
735.164;  386.794; -883.048; -837.913
735.427; 1091.221; -166.048; -355.913
735.690;   86.972; -205.048; -234.913
735.952;  -42.726; -923.048; -925.914
736.215;  -39.774;-1113.048;-1009.914
736.478;   31.728; -771.047; -774.915
736.740;  183.629;   33.953;  129.085
737.003;  539.006; -658.047; -672.915
737.266; 3227.033;  -94.047;   46.084
737.528;  367.160; -682.047; -660.916
737.791;  279.111; -316.046; -327.916
738.053;  744.563;  465.954;  649.083
738.316;10124.865; -162.046; -136.917
738.578; 7197.267; -770.046; -736.918
738.841;  391.618; -382.046; -446.918
739.103;  151.870; -875.045; -777.918
739.365;  434.172;   79.955;  -69.919
739.628;   -4.277; -884.045; -805.919
739.890;  -37.225; -758.045; -710.919
740.152;  -63.223; -692.044; -754.920
740.414;  -18.371; -408.044; -359.920
740.677;  -53.795; -785.044; -634.921
740.939;  -65.718; -587.044; -487.921
741.201;  197.634; -432.044; -572.921
741.463;   16.436; -689.043; -745.922
741.725;   18.487;  -21.043; -199.922
741.987;   46.239;  220.957;  116.078
742.249;  -28.084; -751.043; -859.923
742.511;  149.493; -703.043; -794.923
742.773;    5.494; -546.042; -546.924
743.035;  124.246;  796.958;  533.076
743.297;  -64.952; -963.042;-1013.924
743.559;  603.700; -278.042; -262.925
743.821;   38.101; -735.042; -744.925
744.083;    2.853;  -44.041; -149.925
744.345;  -85.920; -869.041; -892.926
744.607;   44.007;   75.959;  122.074
744.868;  -49.167; -490.041; -554.927
745.130; -116.490; -994.041;-1008.927
745.392;   49.087;   -1.040;  -44.927
745.653;  -24.186; -411.040; -378.928
745.915;  141.440;  896.960;  631.072
746.177;   45.917;   35.960;  -43.928
746.438;  -11.681; -428.040; -543.929
746.700;  -62.929; -947.039; -988.929
746.961;   13.547; -659.039; -740.930
747.223;  109.799; -190.039;  -74.930
747.484;   60.501; -391.039; -471.930
747.746;  119.828;  -23.038; -106.931
748.007;   98.629; -647.038; -689.931
748.269;  229.881; -468.038; -440.931
748.530;  400.608; -852.038; -638.932
748.791;  202.159; -354.038; -420.932
749.053;  381.161;  286.963;  163.067
749.314;  390.488; -236.037; -169.933
749.575;  449.715; -945.037; -905.933
749.836;  741.991; -217.037;   86.066
750.098; 2158.443;  -60.037;  -21.934
750.359;31876.595;  414.964;  555.066
750.620; 8156.647; -121.036; -220.935
750.881;  879.173; -585.036; -513.935
751.142; 1185.400; -950.036; -938.936
751.403;15424.227; -789.036; -705.936
751.664; 6876.404;-1034.035; -999.936
751.925;  435.330; -175.035; -262.937
752.186;  238.332; -298.035; -278.937
752.447;   97.784; -590.035; -445.937
752.708;   29.711; -532.035; -648.938
752.969;  -14.463; -566.034; -576.938
753.230;  -13.386; -777.034; -672.939
753.491;  -16.009; -650.034; -631.939
753.751;   62.468;  109.966;   19.061
754.012;   77.144;  258.967;  181.060
754.273;   49.321; -174.033;  -71.940
754.534;  -21.752; -487.033; -580.940
754.794;  -89.225; -926.033; -911.941
755.055;  147.401; 1051.967;  881.059
755.316;  -50.647; -700.032; -566.942
755.576;  -42.345; -606.032; -576.942
755.837;  -42.243; -527.032; -695.942
756.097;  -51.342; -530.032; -564.943
756.358;  -66.990; -725.032; -770.943
756.618;  -63.288; -705.031; -641.943
756.879;   -5.036; -254.031; -349.944
757.139; -138.135;-1098.031;-1116.944
757.400;  -55.058; -538.031; -553.945
757.660;  -16.681; -365.031; -401.945
757.920;   -4.980; -266.030; -228.945
758.181;  -20.078; -468.030; -351.946
758.441;  -85.651; -870.030; -809.946
758.701;  -43.949; -308.030; -215.946
758.961;  -21.198; -220.030; -278.947
759.222;  -51.321; -574.029; -502.947
759.482;  -75.294; -683.029; -723.948
759.742; -105.167; -706.029; -547.948
760.002;   10.709;  -83.029; -143.948
760.262;   18.036;   50.972;  182.051
760.522;  -45.587; -498.028; -574.949
760.782;  -58.060; -738.028; -612.949
761.042;  -36.109; -618.028; -573.950
761.302;   51.143;   55.972;  -18.950
761.562;   46.395; -164.027; -154.951
761.822;   48.872; -710.027; -551.951
762.082;  -49.802;-1104.027;-1093.951
762.342;   58.625; -328.027; -403.952
762.601;   72.602; -567.027; -506.952
762.861;  289.679; -281.026; -207.952
763.121;  382.830; -406.026; -411.953
763.381; 6863.382; -499.026; -485.953
763.640; 7693.909; -139.026; -307.954
763.900;  324.961; -242.026; -203.954
764.160;   76.737; -458.025; -491.954
764.419;  -26.136; -726.025; -782.955
764.679;  -62.659; -795.025; -726.955
764.939;   -7.182; -124.025; -210.955
765.198;  -70.531; -608.025; -563.956
765.458;  -85.479; -710.024; -612.956
765.717;  -81.302; -454.024; -590.957
765.976;  -68.225; -428.024; -411.957
766.236;  -73.149; -475.024; -610.957
766.495;    5.828;  260.977;   73.042
766.755; -105.570;-1090.023; -987.958
767.014;  -31.618; -594.023; -665.958
767.273;  -55.217; -373.023; -397.959
767.533;  -50.665; -228.023; -307.959
767.792;  -17.463; -151.022; -188.960
768.051;  -51.462; -228.022; -276.960
768.310;  -83.235; -546.022; -650.960
768.569;   -3.108; -161.022;    4.039
768.828;  -32.056; -285.022; -363.961
769.088; -116.855;-1050.021; -942.961
769.347;  -80.528; -755.021; -599.962
769.606; -100.801; -876.021; -857.962
769.865; -111.249;-1016.021;-1033.963
770.124;   -5.773; -411.021; -336.963
770.383;  -60.221; -778.020; -910.963
770.641;   -2.794; -398.020; -400.964
770.900;  -67.842; -953.020; -846.964
771.159;  -45.541; -851.020; -951.964
771.418;   -0.414; -917.020; -779.965
771.677;  142.388; -224.019; -293.965
771.936;  161.640; -794.019; -865.966
772.194; 2302.166; -465.019; -437.966
772.453;11380.868; -213.019; -391.966
772.712;  770.670;  416.982;  329.033
772.970;  138.522;   32.982;   63.033
773.229;   79.648;  -22.018;  102.033
773.488;  -71.875; -814.018; -770.968
773.746;   60.752;  296.982;  335.032
774.005;   10.654;  190.983;  -22.969
774.263;    2.705;  243.983;  177.031
774.522;  -22.918; -422.017; -548.969
774.780;  -80.966; -484.017; -417.970
775.039;  -77.889; -551.017; -531.970
775.297;  -29.838; -135.016; -351.970
775.555; -102.111; -489.016; -612.971
775.814; -112.934; -618.016; -570.971
776.072; -130.032; -749.016; -740.971
776.330; -104.531; -630.016; -520.972
776.589; -105.479; -703.015; -721.972
776.847; -126.302; -645.015; -624.973
777.105; -169.376;-1016.015;-1032.973
777.363;  -86.499; -459.015; -454.973
777.621; -135.422; -660.015; -717.974
777.879;  -22.645;  -42.014;   32.026
778.138;  -91.669; -554.014; -717.974
778.396; -108.892; -585.014; -526.975
778.654; -160.840;-1015.014; -970.975
778.912;  -80.538; -269.014; -371.976
779.170; -124.837; -880.013; -803.976
779.427; -159.435; -922.013; -897.976
779.685; -130.083; -880.013; -832.977
779.943; -101.381; -654.013; -593.977
780.201; -151.055; -964.012; -883.978
780.459; -122.528; -651.012; -610.978
780.717;  -85.026; -440.012; -390.978
780.974; -112.624; -449.012; -490.979
781.232;  -72.923; -358.012; -338.979
781.490;  -90.696; -551.011; -472.979
781.747;  -97.919; -555.011; -476.980
782.005;   17.383;  462.989;  254.020
782.263; -152.666; -542.011;-1004.981
782.520;  -87.564; -326.011; -501.981
782.778; -167.412;-1013.010;-1051.981
783.035; -178.560; -962.010; -938.982
783.293;  -51.934; -248.010; -206.982
783.550;  -53.207; -134.010; -198.982
783.808; -121.830; -764.010; -776.983
784.065; -162.953; -745.009; -874.983
784.322;  -48.752;   25.991;  -86.984
784.580; -137.700; -915.009; -771.984
784.837;  -78.698; -392.009; -466.984
785.094; -140.471; -783.009; -762.985
785.352;  -58.695; -304.008; -404.985
785.609; -124.368; -934.008; -839.985
785.866;  -91.266; -345.008; -401.986
786.123;  -90.264; -639.008; -583.986
786.380; -114.088; -665.008; -604.987
786.637;  -51.336; -225.007; -380.987
786.895;  -23.384; -456.007; -543.987
787.152;  -55.633; -135.007; -267.988
787.409;  -41.231; -123.007; -225.988
787.666;  -86.704; -299.006; -378.988
787.923; -103.202; -616.006; -695.989
788.179; -101.001; -551.006; -584.989
788.436;  -94.674; -585.006; -585.990
788.693;  -34.497;  -92.006;  -87.990
788.950;  105.705; -125.005; -112.990
789.207;  150.456; -381.005; -372.991
789.464;  -58.242; -161.005; -301.991
789.720;  -12.065;  150.995;  110.009
789.977; -161.313;-1003.005; -671.992
790.234;  -40.462;   44.996;  -66.992
790.490; -146.510; -884.004;-1031.993
790.747;  -22.208;  -85.004;   22.007
791.004;  -29.906; -426.004; -348.993
791.260;  -77.455; -430.004; -560.994
791.517; -102.753; -843.003; -788.994
791.773;  -57.851; -379.003; -342.994
792.030; -111.374; -596.003; -660.995
792.286; -104.998; -686.003; -636.995
792.543;  -14.771;  -74.002; -159.995
792.799;  -64.219; -584.002; -382.996
793.055; -154.842;-1179.002;-1210.996
793.312;  -92.741; -827.002; -816.997
793.568;  -49.314; -746.002; -599.997
793.824;    7.613; -226.001; -284.997
794.081;    5.890; -447.001; -508.998
794.337;   45.691; -664.001; -561.998
794.593; 1175.618; -319.001; -271.999
794.849; 6023.120; -746.001; -772.999
795.105;  310.672; -270.000; -261.999
795.361;   17.623; -490.000; -457.000
795.617;  -65.050; -875.000; -945.000
795.873;  -57.875; -360.000; -407.000
796.129;  -39.275; -368.000; -306.000
796.385;  -33.950; -124.000; -156.000
796.641;   71.325;  412.000;  550.000
796.897;  -91.550; -666.000; -635.000
797.153;   67.525;  453.000;  357.000
797.409; -105.750; -785.000; -868.000
797.665;  -68.700; -625.000; -732.000
797.921;  -81.200; -775.000; -762.000
798.176;  -51.550; -744.000; -747.000
798.432;  -60.850; -824.000; -596.000
798.688;  -75.425;-1174.000;-1078.000
798.943;   70.275; -165.000; -147.000
799.199;   13.725;-1005.000; -959.000
799.455;  215.750;  369.000;  316.000
799.710;  129.250; -813.000; -380.000
799.966;  285.500; -162.000; -160.000
800.221;  482.975; -638.000; -721.000
800.477; 9876.725; -743.000; -710.000
800.732; 9000.900; -773.000; -800.000
800.988;  631.200;  205.000;  -19.000
801.243; 2010.600; -454.000; -344.000
801.498; 8995.350; -814.000; -739.000
801.754;  519.175; -289.000; -163.000
802.009;  100.900; -257.000; -335.000
802.264;  -27.225; -967.000;-1033.000
802.520;   12.825;  222.000;   -3.000
802.775;  -41.850; -524.000; -359.000
803.030;   36.475;  395.000;  356.000
803.285; -112.625; -840.000; -903.000
803.540;  -71.625; -686.000; -699.000
803.795;  -60.125; -648.000; -583.000
804.051;  -49.400; -279.000; -346.000
804.306;   13.700;  168.000;  128.000
804.561;  119.025;  451.000;  362.000
804.816;  133.500;  714.000;  861.000
805.071;   -8.525; -185.000; -280.000
805.325;  161.400; -257.000; -427.000
805.580; -108.575; -841.000; -877.000
805.835;   -8.400; -204.000; -297.000
806.090;  -82.375; -760.000; -676.000
806.345;  -24.025; -344.000; -264.000
806.600;  -59.075; -549.000; -632.000
806.854;  -43.200; -408.000; -538.000
807.109;  -22.450; -493.000; -577.000
807.364;    9.500; -407.000; -328.000
807.618;  -10.600; -415.000; -381.000
807.873;   38.150; -470.000; -494.000
808.128;   71.000; -257.000; -518.000
808.382;   92.575; -224.000; -332.000
808.637;   60.200; -440.000; -511.000
808.891;  181.675; -257.000; -180.000
809.146;   75.475; -902.000; -794.000
809.400;  226.425; -848.000; -923.000
809.654;  266.825; -779.000; -551.000
809.909;  422.450; -841.000; -927.000
810.163; 5656.950; -813.000; -651.000
810.418;14902.025; -940.000; -861.000
810.672;  926.675; -685.000; -690.000
810.926;  668.750; -993.000; -973.000
811.180; 1335.025; -439.000; -372.000
811.434;30602.250;  240.000;  135.000
811.689;12554.375; -231.000; -365.000
811.943;  576.025; -936.000; -953.000
812.197;  296.125; -893.000; -671.000
812.451;  119.100; -379.000; -514.000
812.705;  -26.425; -809.000; -619.000
812.959;   -0.750; -263.000; -388.000
813.213;   -6.650; -283.000; -209.000
813.467;   63.025;  470.000;  253.000
813.721; -107.150; -764.000; -792.000
813.975; -109.200; -826.000; -877.000
814.229;   42.500;  430.000;  353.000
814.482;  -69.000; -517.000; -566.000
814.736; -116.950; -766.000; -744.000
814.990; -122.250; -779.000; -872.000
815.244;  -55.150; -228.000; -285.000
815.497;  -95.350; -636.000; -601.000
815.751;  -24.875; -141.000;   82.000
816.005;  -78.175; -470.000; -586.000
816.258;  -57.425; -510.000; -363.000
816.512; -104.375; -693.000; -610.000
816.766;    1.100;  121.000;  157.000
817.019;   26.500;  148.000;  149.000
817.273; -123.225;-1000.000; -802.000
817.526;  -39.825; -206.000; -173.000
817.779;  -74.375;-1049.000; -960.000
818.033;  -86.100; -693.000; -807.000
818.286; -125.300; -725.000; -792.000
818.540;  -92.900; -403.000; -403.000
818.793;  -81.400; -402.000; -489.000
819.046;  -94.775; -582.000; -520.000
819.299;  -44.000; -157.000; -166.000
819.553; -105.625; -552.000; -592.000
819.806; -174.275;-1016.000; -838.000
820.059;  -65.525; -334.000; -354.000
820.312;    3.200;  152.000;  185.000
820.565;  -30.925;  110.000;  -27.000
820.818;  -55.900;  -59.000; -173.000
821.071; -156.175;-1041.000; -957.000
821.324; -113.875; -536.000; -540.000
821.577; -100.750; -457.000; -483.000
821.830;  -65.075; -270.000; -172.000
822.083; -119.625; -733.000; -288.000
822.336;  -51.375; -261.000; -167.000
822.589; -137.950; -805.000; -688.000
822.842; -159.750; -875.000; -770.000
823.094; -176.350;-1076.000;-1114.000
823.347; -119.475; -925.000; -729.000
823.600;   10.950;  402.000;  187.000
823.853;  -54.825; -311.000; -267.000
824.105;  -69.050; -331.000; -575.000
824.358; -114.550; -617.000; -716.000
824.611;   21.300;  234.000;   40.000
824.863;  -51.850; -612.000; -591.000
825.116;   45.100;  -33.000;   27.000
825.368;   46.650; -366.000; -372.000
825.621;  141.650; -186.000; -240.000
825.873;   58.225; -704.000; -737.000
826.126;  532.075; -669.000; -641.000
826.378;10959.875; -389.000; -505.000
826.630; 2738.350; -890.000; -898.000
826.883;   33.600; -754.000; -693.000
827.135;   46.425; -279.000; -270.000
827.387; -113.900; -893.000; -839.000
827.639;  -24.975;  -86.000;   32.000
827.892; -121.375; -742.000; -582.000
828.144; -136.400; -848.000; -804.000
828.396;  -48.475;  104.000;  -80.000
828.648;  -97.550; -440.000; -333.000
828.900; -147.925; -702.000; -795.000
829.152; -116.775; -684.000; -683.000
829.404;  -75.875; -215.000; -267.000
829.656;  -49.300;  321.000;  214.000
829.908;  -36.550;  393.000;  229.000
830.160; -159.750;-1064.000;-1047.000
830.412;  -99.300; -481.000; -430.000
830.664; -129.275; -557.000; -665.000
830.916;  -74.950; -268.000; -206.000
831.167; -172.425;-1073.000; -951.000
831.419; -116.025; -623.000; -566.000
831.671; -134.450; -764.000; -809.000
831.923;  -96.175; -311.000; -447.000
832.174;  -76.900; -273.000; -331.000
832.426; -120.825; -493.000; -582.000
832.678; -182.275;-1043.000;-1091.000
832.929; -173.050; -947.000; -935.000
833.181;  -78.950; -575.000; -677.000
833.432;  -47.900;  -59.000; -186.000
833.684;  -20.075;  112.000;  -27.000
833.935; -124.400; -610.000; -566.000
834.187; -133.150; -829.000; -823.000
834.438;  -50.875;  -58.000;  -25.000
834.689;  -60.675; -255.000; -123.000
834.941;  -51.725; -343.000; -244.000
835.192;  -96.900; -590.000; -533.000
835.443; -108.325; -419.000; -506.000
835.695;   -6.050;  138.000;  -16.000
835.946;  -87.750; -608.000; -378.000
836.197; -110.550; -599.000; -622.000
836.448;  -92.400; -528.000; -395.000
836.699;  -51.050; -253.000; -341.000
836.950;   -8.200;   72.000;    7.000
837.201; -142.775;-1003.000; -987.000
837.452;  -47.900; -356.000; -170.000
837.703; -111.850; -791.000; -737.000
837.954;  -52.725; -205.000; -365.000
838.205;  -93.625;-1029.000;-1008.000
838.456;  133.350; -196.000; -282.000
838.707;    2.600; -423.000; -519.000
838.958;  -23.825; -634.000; -647.000
839.209;  234.750;   18.000;   40.000
839.460;  105.000; -439.000; -201.000
839.710;  153.275; -135.000; -297.000
839.961;  382.450;  730.000;  612.000
840.212;  312.050; -382.000; -497.000
840.462; 1069.025; -328.000; -277.000
840.713;17123.500; -571.000; -536.000
840.964; 7099.750;  -62.000; -143.000
841.214;  458.150; -384.000; -624.000
841.465;  495.700; -214.000; -141.000
841.715;  417.750; -417.000; -380.000
841.966;  525.900; -746.000; -685.000
842.216; 7415.725; -330.000; -431.000
842.466;29050.550; -169.000; -313.000
842.717; 1637.750; -964.000; -952.000
842.967;  250.700; -635.000; -641.000
843.217;  218.275;   20.000;   28.000
843.468;   37.400; -104.000; -132.000
843.718;  -56.450; -718.000; -726.000
843.968; -105.700; -837.000; -765.000
844.218;   -5.150; -315.000; -262.000
844.469;  -62.350; -577.000; -561.000
844.719; -107.675; -537.000; -682.000
844.969;  -91.950; -550.000; -580.000
845.219; -142.375; -814.000; -862.000
845.469;  -75.500; -392.000; -342.000
845.719; -143.225; -792.000; -884.000
845.969;  -11.400;  119.000;  174.000
846.219; -119.575; -738.000; -720.000
846.469;   16.900;  464.000;  432.000
846.718;  -47.550; -115.000;   31.000
846.968; -142.750; -827.000; -827.000
847.218;  -49.575; -224.000; -371.000
847.468;   -5.650; -586.000; -555.000
847.718; -138.100; -827.000; -798.000
847.967; -144.700; -826.000; -915.000
848.217;  -80.425; -449.000; -569.000
848.467;  -78.025; -405.000; -376.000
848.716; -102.200; -708.000; -725.000
848.966;  -30.350; -372.000; -358.000
849.215;  -54.925; -428.000; -419.000
849.465; -102.925; -785.000; -615.000
849.714; -150.075;-1132.000;-1150.000
849.964;  -66.900; -551.000; -613.000
850.213;  -30.400; -393.000; -355.000
850.463;   66.400;  137.000;  340.000
850.712;   -3.500; -542.000; -567.000
850.961;   10.875; -739.000; -678.000
851.211;   97.050; -513.000; -504.000
851.460;  148.125; -635.000; -650.000
851.709;  535.650;  -25.000;   18.000
851.958; 9728.675; -912.000; -750.000
852.208;12282.925; -859.000; -879.000
852.457;  462.475; -181.000;  -13.000
852.706;   64.900; -791.000; -823.000
852.955;   -1.650; -507.000; -528.000
853.204;  -78.125; -521.000; -461.000
853.453;  -82.975; -418.000; -458.000
853.702; -126.800; -660.000; -750.000
853.951; -115.575; -532.000; -520.000
854.200; -100.025; -613.000; -562.000
854.449; -158.125; -695.000; -661.000
854.698;  -96.675; -340.000; -279.000
854.946;  -74.575; -181.000; -284.000
855.195; -147.500; -843.000; -868.000
855.444;  -97.675; -395.000; -420.000
855.693; -138.200; -345.000; -432.000
855.941; -114.125; -387.000; -516.000
856.190;  -60.675; -256.000; -382.000
856.439; -145.825; -652.000; -703.000
856.687;  -65.725;  -99.000;  -72.000
856.936; -123.775; -621.000; -323.000
857.184; -182.200;-1067.000;-1020.000
857.433; -100.325; -423.000; -512.000
857.681; -168.525; -989.000; -953.000
857.930;  -75.325; -282.000; -433.000
858.178; -176.950; -856.000; -929.000
858.427; -157.875; -802.000; -781.000
858.675; -110.175; -377.000; -544.000
858.923; -109.925; -527.000; -819.000
859.172; -178.675;-1094.000;-1070.000
859.420;  -99.550; -339.000; -239.000
859.668; -134.225; -624.000; -628.000
859.916;  -30.375;  109.000;  115.000
860.164; -113.425; -699.000; -603.000
860.413;  180.750; -878.000; -696.000
860.661;  147.400; -709.000; -577.000
860.909;  -90.700; -339.000; -325.000
861.157;  -95.350; -277.000; -444.000
861.405; -129.225; -534.000; -670.000
861.653;    8.475;  310.000;  310.000
861.901;   89.075; -543.000; -613.000
862.149;  -28.225; -801.000; -824.000
862.396;  -88.900; -297.000; -187.000
862.644;  -88.650; -368.000; -347.000
862.892;  -36.500;   98.000;  138.000
863.140; -106.475; -549.000; -530.000
863.388; -170.525; -815.000; -759.000
863.635; -123.700; -642.000; -601.000
863.883;  -18.750;  231.000;  190.000
864.131;  -88.525; -288.000; -357.000
864.378; -130.025; -675.000; -540.000
864.626;  -97.725; -347.000; -415.000
864.873; -129.875; -556.000; -505.000
865.121; -139.225; -714.000; -799.000
865.368;  -47.050; -173.000;   75.000
865.616;  -34.600;  -33.000;  -40.000
865.863;  -70.775; -462.000; -506.000
866.111;  -82.400; -795.000; -824.000
866.358;   43.875; -426.000; -420.000
866.605; 2617.525;  -64.000; -804.000
866.853; 2802.175; -621.000; -537.000
867.100;  -19.850; -728.000; -775.000
867.347;  -90.675; -672.000; -611.000
867.594;  -92.175; -740.000; -714.000
867.841;   51.175;   97.000;   17.000
868.089; -149.000; -746.000; -698.000
868.336; -115.625; -477.000; -420.000
868.583; -142.600; -637.000; -741.000
868.830;  -63.725; -131.000; -170.000
869.077; -162.825; -859.000; -787.000
869.324; -130.525; -502.000; -458.000
869.571; -129.425; -398.000; -430.000
869.818; -133.525; -485.000; -439.000
870.065; -108.600; -439.000; -513.000
870.311; -120.500; -456.000; -542.000
870.558; -109.425; -332.000; -311.000
870.805;  -93.275; -320.000; -384.000
871.052; -106.450; -494.000; -369.000
871.298;  -73.950; -204.000; -131.000
871.545;  -65.725; -151.000; -185.000
871.792;  -92.725; -173.000; -222.000
872.038;  -63.725;   43.000; -126.000
872.285; -133.725; -496.000; -387.000
872.532; -101.450; -357.000; -387.000
872.778;  -11.450;  556.000;  403.000
873.025;  -89.575; -384.000; -359.000
873.271;    7.375;  501.000;  578.000
873.517;  -28.300; -133.000; -209.000
873.764;  -51.150; -193.000;  -80.000
874.010;  -70.150; -143.000; -230.000
874.257;  -43.525;  123.000;   90.000
874.503; -124.325; -579.000; -479.000
874.749;  -71.825;   31.000;  275.000
874.995;  -60.575;  -80.000;  -20.000
875.242; -130.150; -540.000; -478.000
875.488; -108.100; -414.000; -439.000
875.734;  -79.425; -106.000; -234.000
875.980;  109.575; -872.000;-1032.000
876.226;  253.775; -157.000; -255.000
876.472;  -14.925;  343.000;  237.000
876.718;  -51.875;  184.000;  158.000
876.964;  -34.925;   56.000;   55.000
877.210; -154.025; -547.000; -677.000
877.456; -113.100; -630.000; -557.000
877.702; -177.950; -821.000; -832.000
877.948; -116.000; -377.000; -497.000
878.193;    9.925;  361.000;  255.000
878.439;  -84.475; -487.000; -472.000
878.685; -106.925; -272.000; -343.000
878.931; -136.475; -618.000; -676.000
879.176;  -91.175; -201.000; -201.000
879.422; -166.200; -933.000; -820.000
879.668;   -0.625;   10.000;   79.000
879.913;  104.350;   53.000;  137.000
880.159;  -64.775; -112.000;  -17.000
880.404;  -59.175; -152.000; -162.000
880.650;  -47.375;   91.000;  141.000
880.895; -164.750; -670.000; -710.000
881.141; -116.300; -454.000; -428.000
881.386; -137.050; -503.000; -658.000
881.631;  -86.475; -311.000; -166.000
881.877;  -33.325;  112.000;  -13.000
882.122; -144.500; -684.000; -600.000
882.367;  -75.925; -136.000; -186.000
882.612;  -85.050;  -80.000; -176.000
882.858; -168.650; -877.000; -823.000
883.103; -103.225; -297.000; -267.000
883.348; -143.050; -759.000; -852.000
883.593; -149.225; -677.000; -602.000
883.838;  -44.500; -311.000;  -24.000
884.083;    3.375;  353.000;  288.000
884.328;  -96.825; -564.000; -545.000
884.573;  -60.450; -196.000; -143.000
884.818;  120.700; -694.000; -531.000
885.063;  120.000; -348.000; -315.000
885.308;  -95.950; -475.000; -398.000
885.553;  -19.825;  245.000;  325.000
885.797; -125.675; -545.000; -615.000
886.042;  -48.825;    8.000;   58.000
886.287;  -86.450; -253.000; -211.000
886.532;  -47.925;   26.000;  204.000
886.776; -101.500; -407.000; -525.000
887.021; -149.725; -621.000; -574.000
887.265; -149.600; -685.000; -689.000
887.510; -138.050; -557.000; -496.000
887.755;  -96.375; -194.000; -164.000
887.999; -133.025; -552.000; -575.000
888.244;  -48.575;  -58.000;  161.000
888.488;  -10.050;  371.000;  393.000
888.732; -114.425; -368.000; -520.000
888.977; -138.225; -622.000; -567.000
889.221; -155.450; -683.000; -659.000
889.465; -132.675; -422.000; -566.000
889.710;  -60.775;  -56.000; -299.000
889.954;  -12.800;  579.000;  467.000
890.198; -127.850; -584.000; -707.000
890.442; -145.775; -716.000; -712.000
890.687; -153.125; -800.000; -753.000
890.931;  -86.075; -273.000; -210.000
891.175; -125.700; -502.000; -500.000
891.419;  -81.875; -105.000; -110.000
891.663;  -95.500; -239.000; -112.000
891.907; -162.150; -801.000; -545.000
892.151; -181.700; -920.000; -815.000
892.395; -126.625; -274.000; -387.000
892.638;  -20.700;  408.000;  291.000
892.882; -172.450; -780.000; -867.000
893.126;   21.425;  758.000;  558.000
893.370;  -94.425; -167.000; -168.000
893.614; -138.700; -714.000; -715.000
893.857; -113.375; -183.000; -197.000
894.101; -132.775; -527.000; -631.000
894.345;  -64.550;  300.000;  150.000
894.588;   13.825;  569.000;  380.000
894.832;  -95.200; -178.000;  -84.000
895.075;  -69.425;   15.000;  -92.000
895.319; -133.750; -552.000; -420.000
895.563; -104.100; -413.000; -353.000
895.806; -163.300; -628.000; -741.000
896.049;  -78.000; -576.000; -368.000
896.293;   60.225;  527.000;  405.000
896.536;  -92.900; -465.000; -468.000
896.779;  -71.050; -149.000;   -1.000
897.023; -143.700; -751.000; -714.000
897.266;  -35.800;  325.000;  269.000
897.509; -169.450; -900.000; -901.000
897.752;  -56.875;  149.000;  171.000
897.996; -186.025; -972.000; -864.000
898.239;  -48.750;  168.000;  102.000
898.482; -122.875; -431.000; -453.000
898.725;  -56.975;  101.000;   53.000
898.968; -146.925; -609.000; -744.000
899.211; -121.850; -513.000; -361.000
899.454; -124.375; -633.000; -539.000
899.697;  -62.900;   90.000;  -43.000
899.940; -164.375; -761.000; -757.000
900.182; -111.875; -335.000; -405.000
900.425;  -91.450; -150.000; -298.000
900.668;  -38.675;  491.000;  350.000
900.911;  -98.075; -292.000; -345.000
901.154;  -58.725;  141.000;   -3.000
901.396; -126.275; -407.000; -412.000
901.639; -151.675; -430.000; -496.000
901.882; -175.975; -790.000; -809.000
902.124;  -89.750;  -29.000; -143.000
902.367; -117.700; -315.000; -361.000
902.609; -139.500; -476.000; -453.000
902.852;  -98.025; -108.000; -260.000
903.094; -130.925; -458.000; -337.000
903.337;  -58.850;  -26.000;   53.000
903.579; -120.850; -228.000; -441.000
903.821; -160.825; -597.000; -744.000
904.064;  -61.150;   85.000;  127.000
904.306;  -84.200; -126.000; -166.000
904.548; -106.475; -152.000; -366.000
904.790;  -97.575; -195.000; -340.000
905.033; -133.075; -625.000; -577.000
905.275; -135.000; -513.000; -524.000
905.517;   11.400;  468.000;  256.000
905.759;  -73.475; -667.000; -761.000
906.001; -114.700; -322.000; -369.000
906.243;  -68.175; -162.000; -224.000
906.485;   74.625; -265.000; -207.000
906.727;   54.075; -499.000; -542.000
906.969;  -46.950;  -30.000; -135.000
907.211;   56.775; -316.000; -382.000
907.453;  173.575; -188.000; -237.000
907.695;  -12.600; -158.000; -385.000
907.936;   35.925;  818.000;  706.000
908.178;  -56.400;   92.000; -135.000
908.420;  -73.175; -111.000; -162.000
908.662; -141.475; -633.000; -682.000
908.903; -111.625; -208.000; -123.000
909.145;  -50.925; -240.000; -305.000
909.386;   12.150;  315.000;  280.000
909.628;   28.725;  363.000;  397.000
909.870;  -19.350;   29.000;  264.000
910.111; -109.400; -809.000; -949.000
910.353;    8.775; -123.000; -161.000
910.594;  -15.000; -574.000; -606.000
910.835;   78.625; -265.000; -326.000
911.077;  133.875; -503.000; -604.000
911.318;  254.450; -505.000; -471.000
911.559;  437.200; -577.000; -880.000
911.801; 1255.850; -284.000; -280.000
912.042; 9880.050;  -50.000; -159.000
912.283;25899.525;  404.000;  371.000
912.524; 4031.575; -396.000; -457.000
912.765;  458.450; -193.000;   79.000
913.006;  199.075; -307.000; -338.000
913.247;   37.600; -270.000; -290.000
913.488;  -10.650;  -43.000;   30.000
913.729;  -92.875; -373.000; -373.000
913.970;  -56.075;  -96.000; -292.000
914.211;  -70.475; -160.000; -198.000
914.452;  -56.975; -118.000;  -11.000
914.693;    1.575;  510.000;  592.000
914.934;    8.475;  510.000;  440.000
915.175;  -65.025;   53.000;  -95.000
915.415;  -77.575; -137.000;   27.000
915.656;  -74.600;  -28.000;  192.000
915.897;  -88.475; -252.000;  -82.000
916.137;  -70.575;   74.000;   -9.000
916.378; -123.075; -573.000; -517.000
916.619; -101.900; -159.000;  -63.000
916.859;   -4.900;  303.000;  330.000
917.100;  126.675; 1655.000; 1070.000
917.340;   47.475;  930.000;  728.000
917.581;   42.625;  965.000;  789.000
917.821;  -43.350; -171.000;  143.000
918.061;  -18.350; -199.000;  -72.000
918.302;  -56.775; -152.000; -211.000
918.542;  -32.425;  -22.000;    3.000
918.782;   27.825;  369.000;  377.000
919.023;  107.050;  360.000;  427.000
919.263; 1655.600; 8131.000;  202.000
919.503;  948.775; -137.000;  -54.000
919.743;  504.075;  390.000;  266.000
919.983;  202.800; -134.000;  -26.000
920.223;   60.325;  135.000;   14.000
920.463;  143.950;  631.000;  554.000
920.703;  136.275;   84.000;   39.000
920.943;  180.725; -110.000;   90.000
921.183;  231.325; -414.000; -405.000
921.423;  496.650;  307.000;  546.000
921.663;  748.200; -174.000; -257.000
921.903; 1566.475;  237.000;  173.000
922.143; 8822.350;  372.000;  389.000
922.383;34252.400;  158.000;  115.000
922.622;11792.700; -120.000;  -15.000
922.862; 1263.725;  796.000;  785.000
923.102;  484.950;  -51.000;   33.000
923.341;  193.475;   59.000;   74.000
923.581;   91.225;  450.000;  360.000
923.821;   12.475;  301.000;  398.000
924.060;   11.500;  351.000;  193.000
924.300;  -56.725;  -16.000; -128.000
924.539;   -4.400;  584.000;  473.000
924.779;    5.700;  812.000;  597.000
925.018;  -49.100;  247.000;  353.000
925.257;  -17.100;  595.000;  666.000
925.497;  -29.375;  447.000;  412.000
925.736;  -72.025;  -35.000;  102.000
925.975;   -7.100;  687.000;  669.000
926.214;    8.800;  907.000;  850.000
926.454;   28.550;  706.000;  757.000
926.693;  -41.625;  419.000;  543.000
926.932;   49.350; 1021.000;  825.000
927.171;   58.250; 1107.000; 1044.000
927.410;   64.775; 1144.000;  967.000
927.649;   27.800;  924.000;  742.000
927.888;  -18.250;  590.000;  564.000
928.127;   -5.125;  680.000;  678.000
928.366;   42.225;  842.000;  826.000
928.605;   38.175;  831.000;  737.000
928.844;  230.375; 1451.000; 1393.000
929.083;  529.225;  770.000;  613.000
929.321;  303.950; 1335.000; 1359.000
929.560;   68.950; 1158.000; 1122.000
929.799;  -23.550;  574.000;  475.000
930.038;   91.900; 1025.000; 1394.000
930.276;  -41.450;  334.000;  397.000
930.515;  -16.150;  827.000;  681.000
930.753;  -26.550;  614.000;  589.000
930.992;  -27.975;  664.000;  717.000
931.230;    3.875;  847.000;  847.000
931.469;  182.425; 2162.000;  892.000
931.707;   71.100;  840.000;  751.000
931.946;   71.025; 1278.000; 1344.000
932.184;   69.575; 1437.000; 1175.000
932.423;   35.650; 1265.000;  963.000
932.661;   82.025; 1296.000; 1428.000
932.899;   30.550;  987.000;  821.000
933.137;   13.825;  754.000;  564.000
933.376;  127.500; 1664.000; 1335.000
933.614;  146.500; 1759.000; 1196.000
933.852;   50.875; 1357.000; 1171.000
934.090;  137.775; 1722.000; 1747.000
934.328;  105.900; 1252.000; 1457.000
934.566;  107.250; 1431.000; 1110.000
934.804;  150.225; 1263.000; 1309.000
935.042;  520.250; 1861.000; 1850.000
935.280; 2156.800; 2088.000; 2063.000
935.518; 2064.525; 2113.000; 2007.000
935.756;  409.500; 2481.000; 2316.000
935.994;  172.625; 1808.000; 1751.000
936.231;  315.075; 2890.000; 2950.000
936.469;  189.750; 2367.000; 2378.000
936.707;  171.025; 2220.000; 2167.000
936.945;  226.750; 2825.000; 2882.000
937.182;  204.000; 2679.000; 2741.000
937.420;  297.125; 3602.000; 3031.000
937.657;  379.600; 3365.000; 3478.000
937.895;  362.825; 3331.000; 3488.000
938.133;  288.425; 3540.000; 3528.000
938.370;  349.700; 3896.000; 4191.000
938.607;  398.925; 4488.000; 4205.000
938.845;  555.375; 5587.000; 5549.000
939.082;  479.700; 5387.000; 5177.000
939.320;  509.800; 5799.000; 5728.000
939.557;  631.900; 6549.000; 6491.000
939.794;  710.850; 7285.000; 7097.000
940.031;  902.250; 8421.000; 8368.000
940.269; 1070.375; 9552.000; 9107.000
940.506; 1099.700;10901.000;10507.000

