
Integration time [ms]: 100.000
Averaging Nr. [scans]: 40
Smoothing Nr. [pixels]: 0
Data measured with spectrometer [name]: 2101013U2
Wave   ;Sample   ;Dark     ;Reference
[nm]   ;[counts] ;[counts] ;[counts] 

394.013;   66.331; -450.257; -315.536
394.305;  216.879; -461.258; -419.536
394.596; 1086.000; -676.269; -527.514
394.887; 2611.967; -796.268; -654.518
395.178; 1035.472;  145.736;   11.476
395.470;   99.284; -210.263; -356.526
395.761;  215.257;  305.734;  394.479
396.052;  330.849; -545.284; -306.489
396.343;  318.019; -557.276; -454.503
396.634;  127.613; -200.279; -290.497
396.926;  127.314; -618.268; -565.517
397.217;  122.199;   11.725;  -17.504
397.508;   43.615; -366.273; -154.507
397.799;   64.563; -555.279; -571.497
398.090;    2.732; -973.280; -902.495
398.381;  144.873;   11.708;  -11.473
398.672;   -1.650; -585.292; -742.473
398.963;   71.994; -348.279; -373.498
399.254;  119.359;   54.709; -209.475
399.545;   -7.697;-1017.266; -883.520
399.836;   59.308; -407.277; -343.501
400.127;   68.274; -205.295; -209.468
400.418;   59.684; -423.274; -392.506
400.709;   95.519; -359.281; -333.493
401.000;   57.038; -268.291; -309.476
401.290;  120.836;  225.698;  115.545
401.581;   59.657; -166.286; -228.485
401.872;   23.421; -542.298; -486.462
402.163;   63.592; -313.296; -252.467
402.454;  103.859; -123.291; -163.475
402.744;   92.908; -844.297; -813.465
403.035;  499.465; -226.293;  -86.471
403.326;  646.227; -366.292; -384.474
403.617;  417.916;  204.701;  165.539
403.907;  260.330; -593.283; -679.490
404.198; 2348.814; -545.307; -599.446
404.489; 6118.510; -618.283; -588.491
404.779; 2121.789; -618.302; -660.456
405.070;  224.293;  -67.304; -174.451
405.360;  342.342; -259.293; -238.472
405.651;  349.900;  125.699;   98.542
405.942;  221.227;  209.714;  127.516
406.232;  318.916; -432.285; -413.487
406.523;  545.734;  641.706;  758.530
406.813;  129.354; -579.286; -644.484
407.104;  387.447;  261.708;  144.527
407.394;  210.417; -604.299; -591.462
407.685;  178.966;  336.715;  222.513
407.975;   75.958; -400.283; -382.490
408.265;  129.324; -134.289; -190.478
408.556;   69.606; -472.291; -459.475
408.846;  183.785;  474.706;  429.530
409.137;  101.957;   -1.288; -216.480
409.427;   73.066; -193.285; -271.487
409.717;   26.343; -776.273; -692.508
410.007;  169.885;    4.715; -170.486
410.298;  100.852; -360.295; -342.469
410.588;   80.438; -495.285; -510.486
410.878;   49.643; -792.287; -873.482
411.168;  136.624; -481.298; -478.463
411.459;  139.728; -295.283; -242.489
411.749;   63.830; -609.292; -507.474
412.039;   60.931; -755.289; -386.480
412.329;  213.301;   40.722;  132.501
412.619;  210.154;  -62.286; -148.485
412.909;  405.552;  639.711;  594.521
413.199;  347.082; -130.280; -251.495
413.490;  437.317;  521.710;  352.523
413.780;  151.936;-1013.279; -913.496
414.070;  338.345;  -46.276;  235.497
414.360;  386.347; -729.278; -666.498
414.650;  447.514; -726.288; -688.482
414.940;  526.161; -538.280; -441.496
415.230;  908.261;   50.712;   74.519
415.520; 5962.624;  155.730;   66.486
415.809;23500.244; -305.281; -125.493
416.099;18226.210; -388.277; -229.501
416.389; 4973.057;  435.726;  236.494
416.679; 2988.537;   91.738;   85.473
416.969;  527.698; -527.287; -503.483
417.259;  482.788;  341.721;  171.503
417.549;  710.392;  522.718;  318.508
417.838; 1620.041; -205.268; -147.518
418.128; 5292.198;  650.710;  492.522
418.418; 4446.499; -491.272; -579.509
418.708; 3032.232;    9.726;  -48.506
418.997;11220.878; -474.275; -480.505
419.287;11745.789; -733.273; -790.507
419.577;10964.227; -160.283; -123.489
419.866;36424.983; -588.277; -498.501
420.156;37677.695; -242.270;  -55.513
420.446; 6907.480; -112.263;  -26.526
420.735;  919.414; -376.271; -446.512
421.025;  883.721; 1830.722;  315.502
421.314;  752.287; -203.271; -226.512
421.604; 1643.859;   89.732;  233.484
421.893;  954.683; -705.271; -602.511
422.183;  244.705; -487.263; -461.526
422.472;  389.285;  -36.271; -107.511
422.762;  484.459; -416.266; -379.521
423.051;  271.621; -916.276; -916.503
423.341;  352.441; -491.273; -439.507
423.630;  434.815; -121.265;   15.477
423.919;  408.227;   58.725;   49.495
424.209;  392.385;  -31.263;   56.473
424.498;  511.964;   68.732;  161.483
424.787; 1091.745; -535.267; -601.518
425.077; 3373.439;   34.735;   29.478
425.366; 4935.366; -734.262; -744.528
425.655; 9694.916;  639.727;  259.493
425.945;20360.021; -313.247; -268.554
426.234;11412.714;  117.741;  300.467
426.523; 4932.319;  -86.259; -350.534
426.812; 6786.555;  107.734;  159.480
427.101; 9959.680; -127.269; -323.515
427.390;12715.699;  -55.270;  -86.514
427.680; 3113.689; -624.257; -411.538
427.969;  504.250; -330.255; -301.540
428.258;  322.405; -385.257; -477.536
428.547;  573.628;  449.728;  397.490
428.836; 1384.741; -421.253; -398.543
429.125; 2027.071; -199.259;  -72.534
429.414;  871.789; -330.251; -294.548
429.703; 3065.489; -231.251; -213.548
429.992; 9129.767; -938.250; -828.549
430.281; 6006.498; -397.264; -331.524
430.570;  609.604;  -21.252;   32.454
430.859;  628.319;  279.741;  352.466
431.148;  463.592;  636.752;  631.446
431.437;  308.279;  391.748;  367.454
431.725;  156.057; -544.257; -481.536
432.014;  128.373; -845.253; -756.545
432.303;  409.143; -149.239; -105.569
432.592;  666.279; -460.263; -178.525
432.881; 1042.518; -601.248; -437.554
433.169; 5993.926; -343.255;  -61.540
433.458;12119.352;  445.765;  540.424
433.747; 5175.597; -397.261; -289.529
434.036;  954.694; -275.242; -280.564
434.324; 2096.330; -395.249; -379.551
434.613; 3579.237;   40.757;  159.437
434.902; 1232.033;  333.760;  439.433
435.190;  667.642;   75.761;  295.431
435.479;  383.944;  -52.245;   83.441
435.767;  124.852; -411.244; -427.561
436.056;  240.014; -340.242; -294.563
436.345;  373.685; -372.240; -223.568
436.633;  429.400;   60.750;  383.450
436.922;  289.288;  208.760;  414.432
437.210;  729.717; -194.236;    1.426
437.499; 2311.900; -583.235; -432.576
437.787; 2581.666; -339.236;  -10.574
438.075;  637.447;   56.761;  162.430
438.364;  858.700;  -44.238;  250.429
438.652;  542.930; -286.226; -138.592
438.941;  156.419;    3.770;  269.415
439.229;   16.601; -665.252; -466.545
439.517;   46.583; -160.234;  -85.577
439.806;   13.421; -501.225; -290.595
440.094;  204.216;  377.766;  650.421
440.382;  226.720; -653.233; -302.580
440.670;  255.049; -361.235; -285.576
440.959;   46.538; -347.223; -170.599
441.247;   89.480; -151.229; -109.587
441.535;  128.432; -266.235;   31.423
441.823;   50.038; -497.234; -305.578
442.111;  205.610;  173.771;  327.412
442.400;  628.418; -628.245; -335.559
442.688; 1657.966; -111.234; -620.579
442.976; 1218.502; -786.213; -450.617
443.264;  132.453; -324.224; -364.597
443.552;  127.931; -258.226;   51.408
443.840;  188.230;  602.765;  876.423
444.128;  124.619;  265.767;  269.420
444.416;    5.262; -694.228; -312.588
444.704;   44.818; -465.219;  -92.605
444.992;   72.659;   -0.226;  240.407
445.280;   63.895; -517.230;  -94.585
445.568;   49.130; -694.212; -396.618
445.856;  400.152; -174.221;  357.398
446.143;  890.139;  -54.220;   -7.604
446.431;  743.066;  -25.228;  625.411
446.719;  259.787;  489.783;  675.391
447.007;  204.714;  481.769;  705.416
447.295;  195.635;  597.777;  871.402
447.583;  102.328; -464.229;  -34.587
447.870;  174.949; -434.221; -202.601
448.158;  483.443; -104.230;  129.415
448.446;  371.015; -800.219; -338.604
448.733;  177.579;   13.776;  269.403
449.021;  280.980;   60.788;  341.382
449.309;  210.420; -296.210;  208.379
449.596;  225.759;  128.783;   59.392
449.884;  173.067; -571.222; -325.600
450.172;  156.696; -756.227; -406.590
450.459;  431.385;  645.786;  780.387
450.747; 2286.007; -411.218; -147.608
451.034; 7225.417;  493.772;  889.411
451.322; 6018.113; -413.214; -170.614
451.609;  521.855;  292.777;  508.403
451.897;  573.633; -550.203; -183.634
452.184; 1739.861; -622.223; -400.598
452.472; 1659.541;   97.792;  269.375
452.759;  353.116;  512.781;  864.395
453.047;  133.552; -407.212; -125.617
453.334;  109.674; -732.219; -216.606
453.621;  100.365; -438.214; -161.615
453.909;  136.275;   13.796;  384.368
454.196;  115.271; -299.199; -123.641
454.483;  207.021;  317.798;  540.364
454.771;  141.744; -215.208;  196.374
455.058;   64.848; -316.207;  102.374
455.345;  107.201;   71.807;  344.347
455.632;  104.926; -128.207;  235.373
455.919;   50.268;  -82.196;  182.354
456.207;  -52.200; -774.198; -450.642
456.494;   -2.917; -475.200;  -66.639
456.781;   25.092; -399.202; -198.635
457.068;   66.658; -253.206;  -29.628
457.355;   22.484; -698.206; -401.629
457.642;    6.089; -552.205; -290.630
457.929;   13.217; -778.194; -417.651
458.216;   75.853; -575.212; -354.617
458.503;  238.147; -173.193;  -19.652
458.790;  212.442; -864.208; -630.625
459.077;  275.922;  -77.202;  110.364
459.364;  783.210; -350.195; -210.649
459.651; 1612.680;  -46.206;  220.372
459.938;  769.383; -864.209; -665.623
460.225;  163.700;  132.799;  276.363
460.512;  -41.635; -836.197; -688.645
460.799;  123.656;  -32.218;  320.392
461.086;   87.813; -370.200; -251.640
461.372;   75.626; -509.198; -279.642
461.659;  135.495; -165.196;  108.354
461.946;   71.495; -445.193;  -54.651
462.233;  258.636;  842.800;  888.361
462.519;  358.907; -814.201; -464.639
462.806;  999.391; -768.197; -497.645
463.093;  873.366; -445.191;  -66.656
463.380;  -21.792; -920.186; -824.664
463.666;   57.193; -259.197;  -18.646
463.953;  110.430; -406.195; -243.648
464.239;  184.405; -173.195;  -77.648
464.526;  405.541;  413.806;  743.350
464.813;  387.153; -565.190; -304.658
465.099;  370.471;  606.807;  607.348
465.386;  360.050;  903.807;  921.348
465.672;   58.666; -694.197; -522.645
465.959;   41.196; -598.188; -520.662
466.245;   22.100; -468.193; -359.652
466.532;  123.203; -109.195;   63.352
466.818;   83.582; -357.186; -216.664
467.104;   15.973; -488.182; -415.672
467.391;  -20.345; -628.189; -459.658
467.677;   49.311; -289.186;    9.335
467.964;    9.411; -682.189; -471.660
468.250;   87.064; -331.186; -160.665
468.536;   81.631;   90.811;  180.341
468.822;  -33.399; -821.184; -574.668
469.109;  151.629;  351.827;  471.311
469.395;  194.235;  729.808;  787.346
469.681;  187.384;   46.811;  156.341
469.967; 1226.414; -699.188; -382.660
470.254; 2600.122; -494.188; -306.662
470.540; 1646.118; -601.196; -476.646
470.826;  244.609; -488.181; -397.675
471.112;  296.529;  288.816;  113.331
471.398;   92.659; -253.183;  -58.670
471.684;   52.112; -626.177; -447.680
471.970;   -3.337; -918.180; -981.675
472.256;   25.409; -521.192; -441.654
472.542;   20.715; -499.171; -434.691
472.828;   21.644; -743.182; -607.672
473.114;   23.084; -380.166; -283.700
473.400;   39.654; -504.175; -293.684
473.686;   45.965; -452.166; -400.701
473.972;   55.619; -230.174; -131.687
474.258;  -43.696; -925.173; -843.689
474.544;  195.379; -183.178;   -2.679
474.830;  287.731;  -65.175;   45.316
475.116;  437.154; -123.190; -196.658
475.401;  613.840; -558.180; -467.676
475.687;  204.714; -725.180; -718.676
475.973;   14.602; -673.181; -770.673
476.259;  253.308;  736.825;  764.315
476.544;  357.720; -539.176; -437.682
476.830;  777.261; -398.172; -322.690
477.116;  676.594; -430.177; -336.682
477.401;  159.664;  346.820;  358.324
477.687;  -10.496; -289.175; -405.684
477.973;   44.955;   21.819;   28.326
478.258;    2.835; -448.163; -348.706
478.544;   73.519;   21.815;   61.334
478.829;  -38.480; -818.171; -738.692
479.115;  -38.090; -749.172; -651.690
479.401;  -14.261; -444.174; -449.686
479.686;   30.063; -253.180;  -74.676
479.972;  -20.966; -886.178; -776.680
480.257;   46.210; -258.166;  -65.700
480.542;   15.349; -614.170; -469.693
480.828;  244.652; 1288.824; 1392.317
481.113;  -33.700; -464.176; -426.683
481.399;   11.009; -236.161; -202.711
481.684;  -53.666; -620.166; -462.700
481.969;   31.248; -158.159;  -73.713
482.255;    0.660; -439.169; -285.695
482.540;   15.434; -569.178; -441.680
482.825;   16.603; -395.187; -404.663
483.110;   96.663;  -85.169; -105.696
483.396;  181.844; -840.157; -652.718
483.681;  463.119;  543.826;  730.313
483.966;  150.842; -696.160; -700.712
484.251;   13.593; -404.174; -310.687
484.536;    2.195; -356.165; -378.703
484.822;   25.146; -205.173; -218.687
485.107;  -30.092; -599.152; -502.726
485.392;  135.926;  662.836;  541.296
485.677;   76.173;  354.832;  163.302
485.962;  120.317;  160.843;  270.283
486.247;  101.318;  -14.162;   -8.707
486.532;   52.561; -178.166; -325.701
486.817;  171.304;  381.839;  431.291
487.102;  127.916; -453.154; -514.722
487.387;  618.121; -637.156; -652.718
487.672; 1091.756; -154.164;  -38.705
487.957;  701.711; -394.160; -286.711
488.241;  206.650; -290.150; -314.729
488.526;  698.309; -280.152; -148.726
488.811; 1136.161; -881.177; -818.680
489.096;  847.818; -666.154; -702.723
489.381;  468.130;    3.847;  162.275
489.666;  355.834; -428.161; -510.710
489.950;  188.121;  558.846;  627.277
490.235;  -33.105; -480.151; -458.728
490.520;  -27.642; -756.161; -723.710
490.804;  -54.102; -827.156; -736.719
491.089;   18.990; -469.149; -299.732
491.374;   41.355; -132.164;  -75.704
491.658;    1.152; -817.147; -717.735
491.943;  174.163; -657.152; -609.727
492.227;  281.912; -178.155;  -38.721
492.512;   66.967; -294.157; -341.717
492.797;  -54.016; -713.149; -716.731
493.081;  -43.545; -588.147; -598.735
493.366;  -34.765; -751.161; -635.711
493.650;  219.858;  831.859;  917.254
493.935;   38.801; -648.147; -447.734
494.219;  -43.980; -778.142; -687.743
494.503;  -40.071; -585.150; -487.730
494.788;   53.033;   46.842;   74.285
495.072;  111.251;  184.850;  434.271
495.356;  160.569; -463.148; -343.733
495.641;  488.061; -812.146; -736.736
495.925;  432.678; -976.156; -903.719
496.209;   56.365; -599.149; -451.732
496.494;  -43.929; -763.142; -544.744
496.778;   23.691; -364.154; -360.722
497.062;  -59.647; -819.156; -627.719
497.346;  -21.112; -869.160; -640.711
497.631;  142.097;  580.852;  560.266
497.915;   88.872;  -64.145;  175.261
498.199;   46.794; -341.157; -277.718
498.483;   55.357; -562.152; -508.725
498.767;  190.852;  301.850;  300.271
499.051;  186.862; -126.149; -100.732
499.335;   33.436; -693.149; -739.731
499.619;  -23.565; -381.129; -423.767
499.903;   33.710; -272.155;  -65.721
500.187;   43.273; -588.153; -316.724
500.471;   20.363; -796.152; -595.727
500.755;  117.258;   62.839;  -96.710
501.039;   40.386; -270.155; -357.721
501.323;  101.535;  -21.141;  264.254
501.607;   47.011; -447.163; -503.706
501.891;    6.371; -607.156; -512.718
502.174;  -19.067; -726.144; -585.741
502.458;   87.442;   89.849;  370.273
502.742;   48.934; -180.138; -191.751
503.026;  105.076; -412.147; -254.734
503.310;  169.472; -437.159; -375.713
503.593;  113.603; -464.147; -325.735
503.877;  137.399; -232.133; -156.760
504.161;  207.600;    2.847;  -50.724
504.444;  135.960; -841.158; -710.716
504.728;  435.279; -487.164; -522.704
505.012;  673.824; -257.150;  -76.729
505.295;  523.459; -417.161; -212.711
505.579;  523.203; -256.156; -496.719
505.862;  705.893; -555.145; -333.738
506.146;  675.874; -681.159; -758.714
506.429;  397.300;  568.841;  461.286
506.713;   48.921; -732.151; -667.728
506.996;  304.315;   90.846;  295.278
507.280;  323.999; -633.165; -474.703
507.563;  227.484; -469.155; -261.721
507.847;   99.299; -423.153; -112.724
508.130;   83.110; -665.161; -456.711
508.413;  114.881; -758.167; -577.700
508.697;  231.181; -151.167;   12.300
508.980;  129.975; -422.153; -312.724
509.263;   10.380; -466.155; -450.720
509.547;   46.449; -124.150;   82.271
509.830;   66.712; -172.160;  140.289
510.113;   83.502;  128.844;  298.281
510.396;   39.656; -530.152; -300.725
510.680;  210.095; -818.145; -812.738
510.963;  750.170;  184.846;  180.277
511.246;  676.456; -493.150; -357.730
511.529;  272.124; -482.145;  -83.739
511.812;  370.646; -250.134;   10.241
512.095;  248.268; -740.151; -396.728
512.378;   82.682; -317.147; -245.736
512.661;   26.791; -703.137; -623.753
512.944;   24.347; -750.142; -637.744
513.227;   65.814; -170.137; -171.752
513.510;   27.558; -479.144; -671.741
513.793;   41.589; -485.140; -435.747
514.076;  131.730;  -43.127;  -39.771
514.359;  104.841; -294.149; -135.732
514.642;   69.975; -442.142; -567.744
514.925;  723.688;  581.860;  561.253
515.208;  933.992; -498.134; -443.758
515.491;  630.706; -276.133; -182.761
515.773;  350.287; -410.143; -337.742
516.056; 1958.073;  249.864;  409.246
516.339; 2713.052; -754.136; -652.755
516.622; 2033.979; -518.150; -488.730
516.904; 1454.769;  882.857;  975.257
517.187;  689.712; -730.138; -523.752
517.470;  410.093; -568.143; -510.743
517.752;  413.855; -624.136; -470.756
518.035;  338.000; -708.139; -725.749
518.318;  356.452; -799.136; -744.755
518.600; 2236.385; -300.132; -325.762
518.883; 3131.400;  310.858;   88.256
519.165; 1536.355; -585.138; -426.751
519.448;  416.359;  -61.132;  -19.762
519.730;  218.588; -573.126; -415.773
520.013;  350.927;  588.867;  664.240
520.295; 1010.722;  -94.134;  -15.759
520.578; 2226.147; -335.131; -305.764
520.860; 2447.209; -254.132;   56.238
521.143; 1263.707; -763.135; -584.756
521.425;  492.751; -251.125; -279.775
521.707;  653.956; -622.127; -380.771
521.990; 1671.981; -199.127;  167.229
522.272; 1909.241; -116.140;   -4.748
522.554;  919.437; -237.143; -157.742
522.836;  414.995;  -24.134;   99.241
523.119;  244.925; -496.148; -189.734
523.401;  184.604; -448.130; -314.766
523.683;   95.567; -865.137; -693.753
523.965;  285.585;  408.862;  260.248
524.247;  258.597;   54.878;  170.220
524.529;  200.447; -451.134; -367.759
524.812;  355.081;   -3.130;  191.234
525.094;  804.135; -773.138; -631.751
525.376; 1277.010; -143.124;   78.223
525.658;  773.299; -441.136; -339.754
525.940;   17.069; -805.131; -671.764
526.222;   48.353; -188.136;  -88.755
526.504;  141.042; -190.131;   32.237
526.786;  233.450; -960.133; -647.760
527.068;  379.066; -124.123;  -67.778
527.349;  171.821; -865.137; -774.754
527.631;  141.859; -137.132;   22.238
527.913;  142.205; -664.127; -450.771
528.195;  152.619; -761.125; -639.774
528.477;  246.767;  -93.134;  -30.758
528.759;  131.956; -648.130; -522.766
529.040;   76.714; -569.123; -293.778
529.322;   53.572; -235.125;  -10.774
529.604;  151.033;  -47.130;   93.233
529.886;  152.163; -546.126; -302.773
530.167;  156.150;  232.870;  192.235
530.449;   48.106;    1.853;   63.265
530.731;   27.096; -572.122; -459.779
531.012;   66.642; -513.120; -216.784
531.294;   69.281; -118.116;  -43.792
531.575;  158.601;  290.875;  538.225
531.857;   54.962; -548.135; -266.757
532.138;  103.458; -113.141;   40.254
532.420;  192.333;  294.865;  403.244
532.701;  250.502; -722.133; -751.760
532.983;  392.855;  232.867;  182.239
533.264;  155.161; -243.126;  175.228
533.546;  -20.498; -491.136; -508.755
533.827;   66.999;  173.867;   -1.759
534.109;   70.062; -352.135;  -80.757
534.390;   97.713; -725.132; -582.762
534.671;  274.458; -270.135;  -82.756
534.953;  140.717; -751.123; -611.779
535.234;   19.366; -426.117; -255.789
535.515;  -75.499; -891.119; -735.785
535.796;   -2.274; -431.128; -193.770
536.078; -121.140;-1050.124; -904.777
536.359;   14.418;  -22.123;    3.221
536.640;   -2.755; -480.125; -197.774
536.921;  173.189;  225.871;  143.232
537.202;  359.656;  -87.138;  -16.751
537.483;  458.922;  251.869;  377.236
537.764;  164.000;   17.870;   98.235
538.045;  -24.609; -543.134; -371.758
538.326;  -29.260; -596.129; -447.768
538.607;   29.132; -686.127; -476.771
538.888;  182.933;   98.879;    5.218
539.169;  193.578; -704.122; -535.781
539.450;  349.887;  236.871;   16.233
539.731;  232.337; -361.121; -182.783
540.012;  136.067;  199.880;  412.216
540.293;   90.604;   82.876;  158.224
540.574;   33.852; -895.113; -717.796
540.855;  464.536;  435.879;  377.218
541.136;  528.900;   47.878;  139.220
541.416;  279.457; -161.130; -220.766
541.697;  179.717; -274.131; -170.763
541.978;  979.435; -270.135; -315.757
542.259; 1241.957; -211.127; -236.771
542.539;  616.350; -191.116; -186.790
542.820;  208.076;  461.875;  480.225
543.101;  153.871;  -52.145;  -77.738
543.381;   49.281; -638.127; -591.771
543.662;  281.429;  159.873; -254.771
543.942;  547.177; -751.127; -830.770
544.223; 1008.152;  193.878;  161.219
544.504;  665.784; -275.124; -182.777
544.784;  580.063; -592.126; -408.773
545.065; 1591.379;  104.884; -254.791
545.345; 1884.101;  227.881;   14.215
545.626; 1216.851;  -14.113; -108.796
545.906;  840.974;   77.869;   98.235
546.186;  340.342;   92.874;  -95.773
546.467;  200.162;   99.877;  -95.778
546.747;  308.050;  264.884;  327.210
547.027;  367.758;   91.876;  111.223
547.308;  305.226; -376.127; -530.770
547.588;  391.241;  299.871;  371.232
547.868;  182.151;  458.870;  588.235
548.149;  197.711;  609.885;  593.207
548.429;  126.730; -347.127; -299.771
548.709;  181.167; -645.120; -461.784
548.989;  463.035;   84.882;   88.213
549.269; 1985.783;   10.868;  139.239
549.550; 4536.216;  215.877;  117.222
549.830; 4031.869; -758.111; -556.799
550.110;  817.502; -468.110; -320.801
550.390;  774.422; -128.122;  -56.779
550.670; 1083.947; -868.114; -783.795
550.950;  762.985; -509.121; -471.782
551.230;  196.082;  549.879;  460.218
551.510;    5.134; -381.121; -326.782
551.790;   34.635; -173.109; -127.803
552.070;  263.612;  940.877; 1181.223
552.350;  356.280; -492.119; -377.786
552.630;  542.904;   -2.121;   77.219
552.909;  338.455;  181.884;   73.209
553.189;  232.914;  -49.132;   33.237
553.469;  179.779; -703.119; -514.786
553.749;  174.008; -469.127; -357.772
554.029;  152.746;   33.883;  -24.790
554.308;  129.191; -154.115;  -37.794
554.588;   56.925; -196.128; -204.770
554.868;   72.786; -366.121;  -47.782
555.147;  153.563; -114.115;  -46.793
555.427;  571.957; -260.116; -250.792
555.707; 3643.486; -284.115; -200.793
555.986; 4372.923; -719.111; -538.800
556.266; 2317.524;   23.884;   72.210
556.546;  104.909; -888.121; -675.782
556.825;  233.420; -657.114; -556.794
557.105; 1692.973; -125.128;   17.230
557.384; 1951.153;  122.884;  187.209
557.664;  742.806; -717.116; -508.792
557.943;  107.360; -557.121; -411.782
558.222;  164.738; -345.118; -344.788
558.502;  267.789; -116.115;  -76.793
558.781;  469.135;  194.885;  499.208
559.061;  372.713; -232.118; -227.788
559.340;  282.993;  302.883;  353.211
559.619;  652.999;   93.884;  148.210
559.899;  978.145; -239.117; -266.789
560.178;  876.514; -778.115; -593.793
560.457; 2956.072; -623.117; -562.790
560.736; 4073.574; -472.111; -482.800
561.015; 2753.271; -500.128; -502.769
561.295;  385.055;  180.893;  215.193
561.574;  340.686;  119.885;  116.207
561.853;  487.714;  274.891;  303.197
562.132;  485.641;  -45.114;  182.206
562.411;  413.680;  396.879;  553.219
562.690;  112.134; -592.115; -458.792
562.969;  149.759;  472.888;  630.203
563.248;  496.402; 2966.878; 2487.219
563.527;  251.898; -290.111; -408.800
563.806;  358.805; -650.127; -521.771
564.085;  366.170; -297.105; -206.810
564.364;  233.798; -594.117; -405.790
564.643;  470.280; -276.121; -223.781
564.922; 1742.833;  221.890;  397.198
565.201; 1769.087; -640.109; -700.803
565.479;  754.183; -297.115; -219.792
565.758;  307.223; -810.128; -712.770
566.037;  454.388; -155.109; -100.803
566.316;  232.454; -286.116;  -28.791
566.595;   59.986;  -17.115;  -12.793
566.873;   95.475; -166.111;  -79.801
567.152;  -49.892; -490.113; -590.797
567.431;    2.600; -113.116;    6.210
567.709;   17.280; -344.107; -212.807
567.988;  245.945; -810.114; -769.794
568.266;  483.311; -160.115;  -68.793
568.545;  371.392; -644.100; -514.819
568.824;  540.132;  160.885;  356.208
569.102;  511.019; -351.114; -235.794
569.381;  209.182; -492.116; -407.792
569.659;  -49.846; -553.113; -553.796
569.938;   50.426; -743.122; -465.780
570.216;   97.740; -225.109; -225.804
570.494;  -11.127; -632.114; -572.795
570.773;   48.584;  202.879;  114.218
571.051;    9.240; -373.123; -357.778
571.330;   59.852; -221.113; -174.796
571.608;   45.410; -181.098; -173.823
571.886;  -61.807; -671.111; -581.799
572.164;  -60.089; -739.121; -621.782
572.443;  -46.726; -562.105; -512.811
572.721;  -21.303; -399.117; -289.790
572.999;  -31.410; -280.117; -168.788
573.277;   89.217;  379.894;  620.191
573.555;  259.069;   94.894;   37.190
573.834; 1243.115;  -86.117; -114.788
574.112; 1471.382;  880.893;  811.193
574.390;  448.499; -143.111;  -96.801
574.668;    3.034;  -91.112;  -61.797
574.946;   -1.606; -165.106; -187.810
575.224;   20.811;   71.891;  -16.803
575.502;  -17.624; -200.116; -204.791
575.780;  -77.515; -767.112; -829.798
576.058;  199.323; 1589.889; 1004.200
576.336;  -20.146; -210.110; -129.801
576.614;  -41.739; -511.112; -340.798
576.891;   37.765; -711.115; -823.794
577.169;  449.098; -158.108; -285.805
577.447;  544.607;  169.893;  202.193
577.725;  268.765;  629.888;  854.201
578.003;   -2.762;  -71.112; -371.798
578.280;   99.583; -208.104; -242.812
578.558;   71.789; -450.115; -422.793
578.836;  124.422; -210.114; -145.795
579.114;   62.434; -630.112; -670.797
579.391;  101.442;   -6.117;  -18.789
579.669;  -76.759; -595.114; -704.794
579.947;  173.954; -326.107; -127.806
580.224;  302.503; -692.107; -524.806
580.502;  302.108;  127.893;   76.193
580.779;   23.173;  -42.117;   75.210
581.057;  -63.234; -584.109; -470.804
581.334;  -83.027; -726.102; -695.815
581.612;   51.620;   54.895;  511.190
581.889;  -18.964;  -83.101; -129.818
582.167;  -28.925; -298.099; -190.821
582.444; -102.995; -845.102; -814.817
582.721;  110.156;  657.899;  715.183
582.999;   51.872; -326.100; -167.821
583.276;  473.669; -812.123; -713.779
583.553;  645.526; -364.102; -294.816
583.831;  214.929; -607.104; -631.812
584.108;   63.546;  349.892;  174.195
584.385;    0.472; -122.102;  -98.815
584.662;  -77.599; -651.111; -828.801
584.940;   39.700;  204.889;  204.199
585.217;  -18.546;  -73.113; -303.796
585.494;   44.134;   71.890;  118.198
585.771;  208.541; -250.109; -354.804
586.048;  485.654; -196.113;  -76.796
586.325;  294.028; -721.110; -773.801
586.602;  101.808;  230.896;  213.188
586.879;  -21.906; -499.100; -580.820
587.156;   61.821; -156.105; -331.810
587.433;  -45.947; -701.102; -667.817
587.710;   62.886;  152.888;  234.202
587.987;  272.151; -264.105; -236.811
588.264;  770.163;  315.888;  387.202
588.541; 1292.060;  -61.104;   26.187
588.818; 2546.544;   72.892;  171.196
589.095; 2181.806; -163.104; -174.812
589.371;  378.364; -459.109; -414.804
589.648;   12.457; -581.107; -437.807
589.925;   28.473; -517.114; -621.795
590.202;   14.036; -741.112; -607.798
590.478;   80.853; -166.105;  -73.811
590.755;  254.350; -241.108; -132.806
591.032; 2324.080; -741.110; -699.802
591.308; 3219.875; -732.094; -790.831
591.585; 1650.580; -573.110; -560.802
591.862;  119.655;-1056.102; -950.817
592.138;   58.522; -475.108; -474.805
592.415;  130.459; -486.104; -495.813
592.691; 1432.032;  460.896;  518.188
592.968; 1798.387; -208.098; -123.824
593.244;  857.100; -695.116; -595.790
593.521;   53.155; -105.102;  -42.817
593.797;   -7.702; -810.122; -720.780
594.074;  305.950; -611.096; -588.826
594.350;  613.436;  828.905;  729.172
594.626;  304.751; -303.111; -283.801
594.903;   95.256; -643.101; -645.817
595.179;  190.138;  243.896;  418.187
595.455;   20.534; -136.107; -150.807
595.731;   10.814;  -19.103;  -38.814
596.008;  -38.855; -464.111; -434.800
596.284;   46.846; -187.100; -242.820
596.560;   51.132; -501.093; -493.833
596.836;  177.373; -173.105;  -70.810
597.112;  327.248; -582.108; -437.805
597.388;  271.947;  -49.097;  -48.826
597.665;  113.532;  437.887;  530.203
597.941;  -70.064; -572.089; -658.839
598.217;   21.083; -323.110; -293.802
598.493;  238.393;   61.891; -204.804
598.769;  487.191; -175.100;  -50.819
599.045;  290.351; -490.108; -562.806
599.321;   50.395; -193.100; -261.820
599.597;  141.817; -355.109; -476.804
599.872;  465.285;  409.896;  429.187
600.148;  338.749;  -61.097; -172.826
600.424;  283.656;   91.893;  202.193
600.700;  223.833; -170.107; -280.807
600.976;  119.568; -442.097; -464.825
601.252;  240.939; -226.109; -272.803
601.527;  202.361; -833.104; -840.813
601.803;  129.079; -453.105; -404.812
602.079;  179.416; -124.100; -118.819
602.354;  536.966; -620.092; -531.835
602.630;  782.354; -140.113; -482.796
602.906; 2184.061; -910.101; -863.818
603.181; 6262.805; -627.119; -534.786
603.457; 5284.372;   98.903; -278.826
603.733;  787.488; -605.120; -626.783
604.008;  929.920; -245.106; -164.810
604.284; 2869.932; -636.101; -580.817
604.559; 2499.765;   -3.112;  -42.799
604.835;  482.898; -163.105; -225.810
605.110;  388.651; -732.099; -892.821
605.385;  664.934;  224.907;  267.167
605.661;  596.288; -625.095; -729.829
605.936; 1076.776; -664.108; -737.806
606.211;  907.696;  -17.103; -170.815
606.487;  205.093; -329.114; -376.794
606.762;    9.855; -791.119; -745.786
607.037;  -14.327; -501.105; -433.810
607.313;  -59.068; -589.096; -574.828
607.588;   -3.405; -375.106; -137.810
607.863;   37.810;  -28.101; -143.818
608.138;  182.707;  513.890;  516.198
608.413;   30.154; -576.099; -592.822
608.688;   47.173; -203.108; -267.805
608.964;  188.539; -509.106; -218.809
609.239;  230.320; -107.105; -212.810
609.514;  226.278;  281.895;  240.188
609.789;  631.158; -187.104; -716.812
610.064;  812.930; -435.096; -609.827
610.339;  819.014; -855.109; -799.804
610.614; 1075.296; -131.100; -315.820
610.889;  636.479;  215.895;  107.188
611.163;   35.754; -407.104; -591.812
611.438;   86.169;   81.886; -167.794
611.713;   -4.368; -467.101; -499.817
611.988;   42.784; -144.101; -328.818
612.263;  -43.027; -771.102; -717.815
612.538;  202.703;  385.887;  251.204
612.812;  151.022; -832.100; -911.820
613.087;  122.060; -358.098; -338.823
613.362;  -49.192; -497.107; -557.807
613.637;   49.792;  261.897;  138.186
613.911;  -12.833; -256.092; -345.835
614.186;  104.732; -249.107; -292.807
614.460;  638.611; -842.081; -758.854
614.735;  735.084;  -55.087;  -17.843
615.010;  155.699;   43.912;  -82.841
615.284;  247.847;  360.892;  246.195
615.559;  328.491; -792.092; -955.835
615.833;  281.253;  -76.099;  -87.822
616.108;    3.603; -225.090; -390.837
616.382;  136.586;  274.913;  402.156
616.656;  137.378; -241.090; -232.837
616.931;  463.228; -785.099; -700.822
617.205;  972.312; -973.104; -979.813
617.480;  905.874;  -91.125;    6.225
617.754;  140.496; -396.125; -128.774
618.028;   26.042; -369.129; -382.768
618.302;   65.571;   73.892;  -25.805
618.577;  -42.707; -371.103; -518.815
618.851;  -65.314; -399.109; -600.803
619.125;  -40.153; -335.134; -378.759
619.399;  -28.238; -244.104; -374.813
619.673;  -39.192; -330.115; -515.792
619.947;  -55.028; -333.114; -448.795
620.222;   -9.223; -198.110; -204.801
620.496;   -2.414;  -47.121;  -96.782
620.770;   18.477; -187.122;  -93.781
621.044;  189.646;  323.895;  346.190
621.318;  711.139; -653.120; -614.783
621.592;  613.361; -430.121; -409.783
621.866;  324.191; -476.112; -572.799
622.140;   10.751; -207.116; -356.791
622.413;   67.795;  138.889;  112.200
622.687;  -41.968; -746.101; -492.817
622.961;   19.771; -130.108; -143.805
623.235;  -64.129; -633.111; -661.800
623.509; -107.747; -816.105; -848.811
623.783;   12.879;  -12.107;   48.193
624.056;  -13.135; -254.120; -280.783
624.330;   49.934;   63.888;   -3.797
624.604;   62.148; -271.116; -355.790
624.877;   77.431;  180.890;   26.198
625.151;   36.117; -249.114; -238.794
625.425;  -26.611; -150.103; -283.814
625.698;  -44.401; -367.119; -374.785
625.972;  -93.841; -799.110; -765.802
626.245;   77.525;  685.884;  484.210
626.519;  -52.256; -426.120; -340.784
626.792;  -30.292; -192.107; -380.807
627.066;  -93.430; -485.122; -662.779
627.339;  -87.895; -736.110; -663.802
627.613;   31.092;  351.880;  148.216
627.886;   68.710;  187.891; -612.803
628.160;  -26.812;  312.880; -161.783
628.433;  -85.573; -695.125; -703.775
628.706;  -71.681; -517.120; -615.784
628.979;   42.933;  296.876;  117.223
629.253;  -78.396; -785.119; -833.786
629.526;  331.561; -334.126; -253.772
629.799;  298.790; -641.123; -479.778
630.072;  145.818; -497.128; -516.769
630.346;  -68.600;-1115.116;-1080.790
630.619;  427.384; -467.107; -545.808
630.892;  594.921;  709.889;  593.200
631.165;  325.362;  790.896;  679.187
631.438;  -92.237;-1092.112;-1055.798
631.711;   56.193;  453.877;  257.221
631.984;  -65.705; -523.117; -624.789
632.257;  -54.208; -636.117; -681.789
632.530;  -49.476; -412.119; -433.785
632.803;   32.790; -109.115;    7.207
633.076;  -63.563; -360.123; -422.777
633.349;   32.022;  173.872;  121.231
633.622;  -34.227; -187.119; -240.785
633.895; -111.360; -903.120; -823.783
634.167;  -70.212; -496.126; -525.773
634.440;    2.531;  -19.116; -137.792
634.713;    6.578;  -22.119; -120.786
634.986;   93.412;  593.871;  453.233
635.258;  -80.512; -507.115; -597.793
635.531;   90.938;  742.882; -343.788
635.804;  -33.706; -303.117; -318.789
636.077;  -78.548; -830.116; -852.791
636.349;  -15.638; -586.115; -474.793
636.622;  393.510; 1695.874; 1392.228
636.894;  224.619; -474.120; -909.784
637.167;  133.954; -836.127; -789.771
637.439;   30.126; -278.128; -213.770
637.712;  -48.013; -312.126; -293.772
637.984;  -91.897; -635.116; -707.791
638.257;  391.212;  515.877;  488.222
638.529;  529.678; -881.125; -924.776
638.802;  234.168; -508.128; -449.769
639.074; -119.548; -927.122; -952.781
639.346; -113.136; -942.135; -930.757
639.619;    9.549;  -79.142; -319.744
639.891;    7.470;  -83.122; -168.779
640.163;  -82.053; -689.122; -756.780
640.435;   46.874;  273.878;  103.220
640.708;    6.276;  -72.122; -132.780
640.980;  -14.597; -366.122; -362.781
641.252;  176.005;  -25.121;  -71.781
641.524; 1756.456;  580.879;  573.219
641.796; 1747.133;-1094.121; -907.782
642.068;  324.135; -191.121; -300.782
642.340;  -58.038; -486.121; -566.783
642.613;   42.214;  294.880;  323.217
642.885;  -99.884; -787.120; -878.783
643.157;  -51.333; -810.120; -658.784
643.428;   56.644;  170.880;  218.216
643.700;  -57.554; -498.120; -425.784
643.972;  -39.877;  -16.119; -133.785
644.244;  -79.375; -474.119; -559.785
644.516;  -41.598; -250.119; -114.786
644.788;   71.153;  662.881;  548.214
645.060;   -9.345;  -12.119; -124.786
645.332;  -88.643; -525.118; -535.787
645.603;   35.934;  479.882;  342.213
645.875;  -64.789; -334.118; -369.787
646.147;  164.513; 1487.882; 1242.212
646.418;  -73.311; -931.117; -918.788
646.690;  122.841; -714.117; -715.789
646.962;   16.343; -413.117; -451.789
647.233;   -0.030;   15.883;   11.211
647.505; -105.628; -595.117; -475.790
647.776;   40.224;  328.884;  229.210
648.048;    3.925; -248.116; -418.790
648.320;  -79.798; -752.116; -679.791
648.591; -157.971;-1055.116; -958.791
648.862;  -83.369; -505.116; -577.792
649.134;   14.708;  115.885;  198.208
649.405;  -53.915; -661.115; -618.792
649.677;  -51.364; -475.115; -598.793
649.948;  -22.737; -181.115; -296.793
650.219;    9.440;  -37.115; -147.793
650.491;  -72.683; -431.114; -520.794
650.762; -113.456; -705.114; -731.794
651.033;  -85.154; -437.114; -424.795
651.304;  -91.228; -743.114; -728.795
651.576;  -73.951; -680.114; -645.795
651.847;  -13.974; -250.113; -140.796
652.118;  -31.922;  -32.113; -189.796
652.389; -115.970; -639.113; -722.796
652.660;  -36.093; -147.113;  -89.797
652.931; -128.092; -897.112; -871.797
653.202;  -85.990; -382.112; -541.798
653.473;  -74.638; -633.112; -533.798
653.744;  137.864; -595.112; -590.798
654.015;  134.391; -356.112; -303.799
654.286;  -70.782; -642.111; -663.799
654.557;  -47.556; -586.111; -521.799
654.828; -164.704;-1114.111;-1088.800
655.099;  -68.852; -404.111; -291.800
655.370;  -90.900; -427.111; -543.801
655.641; -113.248; -656.110; -714.801
655.911; -113.096; -618.110; -638.801
656.182;   51.105;  437.890;  387.198
656.453;  101.982;  830.890;  746.198
656.724;  -64.866; -466.110; -426.802
656.994;  -79.639; -553.109; -568.803
657.265; -103.137; -862.109; -873.803
657.536;  -84.235; -500.109; -377.804
657.806; -104.309; -561.109; -593.804
658.077; -134.932; -866.109; -950.804
658.347;  -79.605; -523.108; -598.805
658.618; -121.203; -646.108; -694.805
658.888;   -8.851;  -41.108;  112.195
659.159;  -72.449; -432.108; -548.806
659.429;  -23.773; -292.108; -349.806
659.700;   -0.471; -435.107; -390.807
659.970;    1.856; -370.107; -359.807
660.241;   10.133; -754.107; -921.807
660.511;  486.060; -147.107; -174.808
660.781;   90.337; -793.106; -748.808
661.052;  -38.537; -222.106; -381.808
661.322;  -15.360;   21.894;   -9.809
661.592;   17.742;  257.894;  148.191
661.862;  -66.556; -369.106; -382.810
662.133;  -83.854; -551.105; -502.810
662.403; -126.478; -770.105; -676.810
662.673;  -49.526; -256.105; -213.811
662.943;  -91.749; -612.105; -551.811
663.213;   -5.172;  -85.105;  -81.811
663.483;  -85.370; -593.104; -568.812
663.753;  -49.868; -194.104; -152.812
664.023;   -9.742;   68.896;  -32.813
664.293;  -60.165; -319.104; -126.813
664.563; -114.588; -694.104; -648.813
664.833; -110.961; -743.103; -608.814
665.103; -134.334; -730.103; -793.814
665.373; -118.357; -766.103; -806.814
665.643;  -89.606; -863.103; -918.815
665.913;   41.071; -534.103; -714.815
666.182;  130.373; -685.102; -719.816
666.452;  267.000;  -22.102;  -89.816
666.722;  -29.198; -724.102; -784.816
666.992; -128.196; -948.102; -921.817
667.261; -102.795; -824.102; -808.817
667.531;  210.882;  134.899;   45.183
667.801;  546.809; -440.101; -412.818
668.070;  248.286;  714.899;  697.182
668.340;  -91.587; -883.101; -840.819
668.609;   97.615;  588.900;  301.181
668.879;  -79.109; -490.100; -558.819
669.149;  -69.657; -539.100; -516.820
669.418;  -86.855; -698.100; -726.820
669.688;  -27.878; -482.100; -666.820
669.957;   56.824; -423.099; -546.821
670.226;  -13.799; -268.099; -331.821
670.496;  -93.523; -431.099; -635.822
670.765;  -65.571; -418.099; -501.822
671.034; -134.169; -872.099; -828.822
671.304;    2.383;   55.902; -111.823
671.573; -146.940;-1085.098; -957.823
671.842;   74.612; -380.098; -294.823
672.112;   13.338; -692.098; -586.824
672.381;    1.415; -239.098; -214.824
672.650; -129.808;-1005.097;-1021.825
672.919;  -93.956; -631.097; -507.825
673.188;  -94.679; -681.097; -878.825
673.457; -140.302;-1101.097;-1143.826
673.726;  -77.176; -579.096; -646.826
673.995;  -47.899; -533.096; -479.826
674.265;  -15.097; -263.096; -333.827
674.534;    7.530; -183.096; -235.827
674.802;    7.182; -618.096; -703.828
675.071;  931.409; -886.095; -801.828
675.340; 3685.060; -464.095; -339.828
675.609; 1239.712;  103.905;   82.171
675.878;   54.864; -949.095; -893.829
676.147;   48.791;  -26.095;   -8.829
676.416;   84.693; -210.094; -294.830
676.685;  699.345; 1000.906; -622.830
676.953;   94.221; -603.094; -452.831
677.222;  -22.252; -193.094; -273.831
677.491;  -20.675;  -24.094; -127.831
677.759;   -0.973;   11.907;  172.168
678.028;  -27.246; -279.093; -222.832
678.297;   -3.894;   71.907;  197.168
678.565; -155.218; -898.093; -944.833
678.834;  -52.741; -311.093; -268.833
679.102;  -74.489; -411.092; -391.834
679.371; -141.087; -898.092; -727.834
679.639; -131.060; -797.092; -786.834
679.908; -112.558; -794.092; -724.835
680.176; -156.632; -895.091; -941.835
680.445;  -60.430; -346.091; -352.835
680.713;  -27.803;  -58.091;  -23.836
680.982;  -88.076; -523.091; -525.836
681.250;  -98.349; -578.091; -507.837
681.518; -100.647; -534.090; -751.837
681.787;  -21.871; -204.090; -167.837
682.055;  -59.794; -490.090; -422.838
682.323; -144.692; -993.090; -992.838
682.591;   28.360; -216.090; -538.838
682.859;   88.362;    9.911;  -35.839
683.128;   18.289;  232.911;  497.161
683.396; -161.485;-1102.089;-1122.840
683.664;  -47.408; -241.089;   21.160
683.932;  -14.356;  144.911;  -76.840
684.200;  -69.929; -576.088; -320.841
684.468;  -34.602;  -73.088; -124.841
684.736;  -31.300; -214.088; -175.841
685.004; -130.399;-1024.088; -982.842
685.272;  -48.572; -880.088; -774.842
685.540;  -61.270; -499.087; -557.843
685.808;  -79.718; -651.087; -682.843
686.076; -104.291; -894.087; -969.843
686.343;  -58.964; -601.087; -815.844
686.611;   46.762; -195.087; -224.844
686.879;  448.014; -530.086; -553.844
687.147; 3136.391; -483.086; -480.845
687.414;  890.768;  -12.086; -169.845
687.682;   -5.830; -658.086; -757.846
687.950;  294.522;  259.915;  263.154
688.217;   -1.377; -792.085; -760.846
688.485;    2.950; -632.085; -636.847
688.753;  486.027;  -11.085; -102.847
689.020;  148.854; -820.085; -851.847
689.288;  -88.269; -853.084; -787.848
689.555;  -30.092; -195.084; -148.848
689.823;  -36.116; -241.084; -345.849
690.090;  -82.064; -546.084; -651.849
690.358; -150.462; -877.084; -897.849
690.625;   17.740;  120.917;   45.150
690.892;  -95.783; -403.083; -369.850
691.160;    0.869;   72.917;  -35.850
691.427;   -5.380;  141.917;  130.149
691.694; -132.678; -855.083; -929.851
691.962; -146.876;-1177.082;-1060.852
692.229;   27.451;  127.918;   56.148
692.496;   75.378;  130.918;  -49.852
692.763;   12.555; -164.082; -201.853
693.031;  -70.344; -739.082; -716.853
693.298;  -42.592; -509.081; -368.853
693.565;  284.210; -155.081; -163.854
693.832; 1193.937;   -5.081;   -9.854
694.099;  136.014; -643.081; -642.855
694.366;  -53.509; -882.081; -896.855
694.633;  -40.533; -920.080; -633.855
694.900;  763.744; 4367.920; -114.856
695.167;  401.446; -214.080; -380.856
695.434;  100.048; -646.080; -623.856
695.701;  202.250;  121.921;  -61.857
695.968;  460.827; -365.079; -361.857
696.234; 1012.903; -415.079; -646.858
696.501;10446.080; -776.079; -614.858
696.768; 5257.507; -554.079; -617.858
697.035;  323.159; -632.078; -667.859
697.302;   39.761; -448.078; -552.859
697.568;   12.088; -458.078; -497.859
697.835;  -49.561; -683.078; -624.860
698.102;   -7.534; -498.078; -407.860
698.368;   70.343;  384.923;  396.139
698.635;  -32.930;  -47.077; -424.861
698.901;  -12.303; -240.077; -348.861
699.168;   65.524; -534.077; -456.862
699.435;   61.400;  -72.077;  -13.862
699.701; -107.923; -868.076; -764.862
699.968;   14.154;  144.924; -441.863
700.234;  -99.869; -783.076; -822.863
700.500;  -55.667; -448.076; -539.864
700.767;   14.435;   -1.075;   26.136
701.033; -123.339;-1015.075; -963.864
701.299;  -59.362; -450.075; -483.865
701.566;  133.265;  950.925;  763.135
701.832;   42.342;  -31.075;  -76.865
702.098; -106.031;-1054.074;-1034.866
702.365;  -82.954;-1098.074;-1030.866
702.631;  -25.553;-1038.074;-1063.867
702.897; 1342.374; -765.074; -676.867
703.163; 2159.801;  348.926;  254.133
703.429;  159.903; -256.073; -273.868
703.695;  -21.395; -796.073; -792.868
703.961;   30.732; -214.073; -210.868
704.227;  -47.567; -630.073; -725.869
704.493;  138.760;  613.927;  510.131
704.759;  -38.788; -565.072; -540.870
705.025;   35.814; -203.072; -194.870
705.291;  -14.784; -666.072; -562.870
705.557;  214.118;  719.928;   34.129
705.823;   33.069; -742.072; -694.871
706.089;  141.421; -307.071; -326.871
706.355;  384.848; -315.071; -244.872
706.620; 5814.975; -776.071; -729.872
706.886; 7915.527; -309.071; -362.873
707.152;  742.354; -818.070; -973.873
707.418;  -31.420;-1153.070;-1186.873
707.683;   -5.868; -550.070; -530.874
707.949;  -37.366; -547.070; -578.874
708.215;    9.286; -129.070; -207.874
708.480;  -29.087; -520.069; -420.875
708.746;   86.465;   68.931;   28.125
709.011;  -49.134; -578.069; -612.876
709.277;  -59.232; -538.069; -543.876
709.542;  -52.055; -428.069; -387.876
709.808;    3.247;  -59.068;   89.123
710.073;  -79.751; -577.068; -695.877
710.339;  -22.674; -242.068; -228.877
710.604;   75.302; -780.068; -845.878
710.869;  311.604; -277.068; -366.878
711.135;  -69.569; -715.067; -628.879
711.400;  -71.917; -507.067; -608.879
711.665;  -64.415; -404.067; -479.879
711.931;  -87.113; -661.067; -677.880
712.196; -118.137; -876.067; -954.880
712.461;  107.490; -402.066; -490.880
712.726;  135.242; -727.066; -771.881
712.991;  -85.656; -647.066; -664.881
713.256;  -34.954; -350.066; -332.882
713.521;  -65.052; -417.065; -381.882
713.787;  -72.276; -454.065; -472.882
714.052;   -7.349; -214.065; -400.883
714.317;  -88.322;-1045.065; -981.883
714.581; 1111.980; -374.065; -268.883
714.846; 1447.932; -822.064; -888.884
715.111;  141.659;  261.936;  257.116
715.376;  -14.515;  -86.064; -223.885
715.641;  -14.313; -365.064; -367.885
715.906;  290.839;   15.936; -551.885
716.171;  136.091;  221.937;  209.114
716.436;   33.468;  -78.063; -104.886
716.700;  -97.080; -818.063; -692.886
716.965; -121.579; -794.063; -807.887
717.230;  -72.052; -339.063; -392.887
717.494;  -28.400;  -40.062; -134.888
717.759;  -88.773; -784.062; -640.888
718.024;  -12.096;  269.938;  250.112
718.288;   79.381;  685.938;  395.111
718.553; -142.118; -803.062; -977.889
718.817; -132.641; -883.061; -899.889
719.082;  -36.414; -115.061; -125.890
719.346; -120.212;-1000.061; -947.890
719.611;  -43.285; -300.061; -255.891
719.875;  -95.058; -568.060; -537.891
720.140;  -51.632; -453.060; -603.891
720.404;   33.695; -136.060; -249.892
720.668;  791.072; -475.060; -411.892
720.933;  308.974;  146.940;  137.108
721.197;  -94.949; -667.059; -600.893
721.461; -136.047; -851.059; -826.893
721.725;   -5.421;  -21.059; -250.894
721.990;  -45.244; -284.059; -204.894
722.254;  -26.917;  -26.059; -108.894
722.518;  -57.415; -286.058; -442.895
722.782;  -88.463; -743.058; -594.895
723.046;  118.989;  614.942;  570.105
723.310;   22.340;  374.942;  210.104
723.574;  -94.183; -654.058; -614.896
723.838;  -96.881; -576.057; -642.897
724.102;  -35.304; -226.057; -239.897
724.366; -134.077;-1032.057; -978.897
724.630;  -99.325; -749.057; -571.898
724.894;  -77.574; -722.057; -514.898
725.158;  -12.472;   38.944; -295.898
725.422;  -53.870; -394.056; -327.899
725.685;  -57.618; -441.056; -349.899
725.949;  -86.291; -566.056; -519.900
726.213;  -61.189; -732.056; -811.900
726.477;  149.812;-1020.055; -933.900
726.740;  143.639; -274.055; -104.901
727.004;  331.041; -384.055; -510.901
727.268; 3412.168; -442.055; -400.901
727.531;  928.245; -961.055; -775.902
727.795;  -35.103; -713.054; -673.902
728.059;  -71.477; -552.054; -557.903
728.322;  -58.650; -841.054; -669.903
728.586;   28.627; -692.054; -701.903
728.849;  -73.796; -695.053; -756.904
729.112; -109.944; -812.053; -912.904
729.376; -110.617; -959.053; -905.904
729.639;  -75.116; -536.053; -536.905
729.903; -105.689; -733.053; -699.905
730.166;  -46.187; -437.052; -399.906
730.429;  -21.285; -317.052; -468.906
730.693;  -63.208; -355.052; -894.906
730.956;  218.069;  810.948;  651.093
731.219;  691.170; -310.052; -103.907
731.482;  105.722;-1003.051; -894.907
731.745;   83.599; -794.051; -935.908
732.009;   28.501;  -30.051;   50.092
732.272;  -96.247; -904.051; -771.909
732.535;  -41.495; -300.051; -310.909
732.798; -143.894;-1083.050;-1166.909
733.061;  -55.267; -430.050; -456.910
733.324;   -4.615;   31.950; -180.910
733.587;   60.187;  290.950;  365.090
733.850;  -75.661; -973.049;-1050.911
734.113;   50.141;   33.951;   32.089
734.376;    2.317; -328.049; -447.912
734.639;  233.769; 1188.951; 1011.088
734.901;   68.746; -180.049; -402.912
735.164;  501.048; -883.048; -837.913
735.427; 1224.125; -166.048; -355.913
735.690;  108.052; -205.048; -234.913
735.952;  -37.472; -923.048; -925.914
736.215;   -8.670;-1113.048;-1009.914
736.478;   29.332; -771.047; -774.915
736.740;  218.709;   33.953;  129.085
737.003;  674.361; -658.047; -672.915
737.266; 3838.588;  -94.047;   46.084
737.528;  426.589; -682.047; -660.916
737.791;  324.941; -316.046; -327.916
738.053;  818.143;  465.954;  649.083
738.316;11093.070; -162.046; -136.917
738.578; 7575.872; -770.046; -736.918
738.841;  431.999; -382.046; -446.918
739.103;  190.250; -875.045; -777.918
739.365;  507.652;   79.955;  -69.919
739.628;  -12.921; -884.045; -805.919
739.890;  -12.469; -758.045; -710.919
740.152;  -30.592; -692.044; -754.920
740.414;  -14.890; -408.044; -359.920
740.677;  -49.214; -785.044; -634.921
740.939;  -39.687; -587.044; -487.921
741.201;  246.240; -432.044; -572.921
741.463;   34.092; -689.043; -745.922
741.725;   14.019;  -21.043; -199.922
741.987;   59.696;  220.957;  116.078
742.249;   -8.178; -751.043; -859.923
742.511;  219.724; -703.043; -794.923
742.773;    7.276; -546.042; -546.924
743.035;  145.403;  796.958;  533.076
743.297;  -52.420; -963.042;-1013.924
743.559;  726.632; -278.042; -262.925
743.821;   39.658; -735.042; -744.925
744.083;   23.385;  -44.041; -149.925
744.345;  -84.513; -869.041; -892.926
744.607;   39.414;   75.959;  122.074
744.868;  -56.559; -490.041; -554.927
745.130; -113.507; -994.041;-1008.927
745.392;   29.694;   -1.040;  -44.927
745.653;  -15.604; -411.040; -378.928
745.915;  150.773;  896.960;  631.072
746.177;   72.600;   35.960;  -43.928
746.438;    4.327; -428.040; -543.929
746.700;  -45.471; -947.039; -988.929
746.961;    3.205; -659.039; -740.930
747.223;  150.732; -190.039;  -74.930
747.484;   81.784; -391.039; -471.930
747.746;  148.086;  -23.038; -106.931
748.007;  120.063; -647.038; -689.931
748.269;  298.190; -468.038; -440.931
748.530;  438.366; -852.038; -638.932
748.791;  279.168; -354.038; -420.932
749.053;  425.495;  286.963;  163.067
749.314;  455.197; -236.037; -169.933
749.575;  477.649; -945.037; -905.933
749.836;  858.151; -217.037;   86.066
750.098; 2422.952;  -60.037;  -21.934
750.359;35819.454;  414.964;  555.066
750.620; 8987.856; -121.036; -220.935
750.881; 1037.808; -585.036; -513.935
751.142; 1317.635; -950.036; -938.936
751.403;16809.362; -789.036; -705.936
751.664; 7196.038;-1034.035; -999.936
751.925;  506.565; -175.035; -262.937
752.186;  265.942; -298.035; -278.937
752.447;  131.569; -590.035; -445.937
752.708;   44.571; -532.035; -648.938
752.969;    4.973; -566.034; -576.938
753.230;   -7.126; -777.034; -672.939
753.491;    0.151; -650.034; -631.939
753.751;   58.703;  109.966;   19.061
754.012;   96.480;  258.967;  181.060
754.273;   47.557; -174.033;  -71.940
754.534;    8.434; -487.033; -580.940
754.794;  -84.265; -926.033; -911.941
755.055;  166.412; 1051.967;  881.059
755.316;  -42.686; -700.032; -566.942
755.576;   -9.959; -606.032; -576.942
755.837;  -55.757; -527.032; -695.942
756.097;  -31.155; -530.032; -564.943
756.358;  -53.754; -725.032; -770.943
756.618;  -47.752; -705.031; -641.943
756.879;    7.275; -254.031; -349.944
757.139; -113.498;-1098.031;-1116.944
757.400;  -64.521; -538.031; -553.945
757.660;   -7.319; -365.031; -401.945
757.920;    9.632; -266.030; -228.945
758.181;   -9.216; -468.030; -351.946
758.441;  -95.189; -870.030; -809.946
758.701;  -31.212; -308.030; -215.946
758.961;  -23.235; -220.030; -278.947
759.222;  -43.958; -574.029; -502.947
759.482;  -87.207; -683.029; -723.948
759.742;  -71.380; -706.029; -547.948
760.002;   -1.478;  -83.029; -143.948
760.262;   19.449;   50.972;  182.051
760.522;  -40.024; -498.028; -574.949
760.782;  -50.722; -738.028; -612.949
761.042;  -36.596; -618.028; -573.950
761.302;   57.131;   55.972;  -18.950
761.562;   36.008; -164.027; -154.951
761.822;   84.260; -710.027; -551.951
762.082;  -50.663;-1104.027;-1093.951
762.342;   70.889; -328.027; -403.952
762.601;   86.165; -567.027; -506.952
762.861;  365.442; -281.026; -207.952
763.121;  420.619; -406.026; -411.953
763.381; 7529.696; -499.026; -485.953
763.640; 8032.673; -139.026; -307.954
763.900;  370.000; -242.026; -203.954
764.160;   78.026; -458.025; -491.954
764.419;  -10.747; -726.025; -782.955
764.679;  -65.270; -795.025; -726.955
764.939;  -14.218; -124.025; -210.955
765.198;  -74.991; -608.025; -563.956
765.458;  -72.239; -710.024; -612.956
765.717;  -84.263; -454.024; -590.957
765.976;  -65.986; -428.024; -411.957
766.236;  -83.584; -475.024; -610.957
766.495;   28.668;  260.977;   73.042
766.755;  -91.580;-1090.023; -987.958
767.014;    8.722; -594.023; -665.958
767.273;  -42.102; -373.023; -397.959
767.533;  -41.625; -228.023; -307.959
767.792;  -29.473; -151.022; -188.960
768.051;  -44.396; -228.022; -276.960
768.310;  -77.319; -546.022; -650.960
768.569;   16.583; -161.022;    4.039
768.828;  -47.591; -285.022; -363.961
769.088; -109.739;-1050.021; -942.961
769.347;  -86.487; -755.021; -599.962
769.606;  -85.085; -876.021; -857.962
769.865; -118.033;-1016.021;-1033.963
770.124;   15.969; -411.021; -336.963
770.383;  -57.280; -778.020; -910.963
770.641;   15.747; -398.020; -400.964
770.900;  -61.301; -953.020; -846.964
771.159;  -41.674; -851.020; -951.964
771.418;   -6.797; -917.020; -779.965
771.677;  124.355; -224.019; -293.965
771.936;  153.906; -794.019; -865.966
772.194; 2335.633; -465.019; -437.966
772.453;11250.160; -213.019; -391.966
772.712;  779.762;  416.982;  329.033
772.970;  134.789;   32.982;   63.033
773.229;   95.016;  -22.018;  102.033
773.488;  -99.183; -814.018; -770.968
773.746;   58.319;  296.982;  335.032
774.005;    2.121;  190.983;  -22.969
774.263;   16.173;  243.983;  177.031
774.522;  -44.875; -422.017; -548.969
774.780;  -65.248; -484.017; -417.970
775.039; -104.647; -551.017; -531.970
775.297;  -13.520; -135.016; -351.970
775.555; -120.868; -489.016; -612.971
775.814; -116.516; -618.016; -570.971
776.072; -120.164; -749.016; -740.971
776.330;  -99.837; -630.016; -520.972
776.589; -126.586; -703.015; -721.972
776.847; -122.109; -645.015; -624.973
777.105; -160.657;-1016.015;-1032.973
777.363;  -74.055; -459.015; -454.973
777.621; -140.628; -660.015; -717.974
777.879;   -5.926;  -42.014;   32.026
778.138;  -90.150; -554.014; -717.974
778.396; -106.848; -585.014; -526.975
778.654; -166.746;-1015.014; -970.975
778.912;  -58.044; -269.014; -371.976
779.170; -139.642; -880.013; -803.976
779.427; -139.765; -922.013; -897.976
779.685; -141.139; -880.013; -832.977
779.943;  -86.937; -654.013; -593.977
780.201; -167.485; -964.012; -883.978
780.459; -113.758; -651.012; -610.978
780.717;  -77.556; -440.012; -390.978
780.974;  -86.929; -449.012; -490.979
781.232;  -70.353; -358.012; -338.979
781.490;  -78.001; -551.011; -472.979
781.747;  -93.024; -555.011; -476.980
782.005;   36.703;  462.989;  254.020
782.263; -168.895; -542.011;-1004.981
782.520;  -92.268; -326.011; -501.981
782.778; -172.042;-1013.010;-1051.981
783.035; -148.940; -962.010; -938.982
783.293;  -57.688; -248.010; -206.982
783.550;  -60.186; -134.010; -198.982
783.808; -142.309; -764.010; -776.983
784.065; -144.932; -745.009; -874.983
784.322;  -48.781;   25.991;  -86.984
784.580; -138.204; -915.009; -771.984
784.837;  -96.052; -392.009; -466.984
785.094; -128.375; -783.009; -762.985
785.352;  -76.048; -304.008; -404.985
785.609;  -97.146; -934.008; -839.985
785.866;  -87.470; -345.008; -401.986
786.123;  -61.268; -639.008; -583.986
786.380;  -94.066; -665.008; -604.987
786.637;  -21.139; -225.007; -380.987
786.895;  -34.587; -456.007; -543.987
787.152;  -43.535; -135.007; -267.988
787.409;  -30.884; -123.007; -225.988
787.666;  -79.182; -299.006; -378.988
787.923; -113.780; -616.006; -695.989
788.179;  -93.628; -551.006; -584.989
788.436; -102.126; -585.006; -585.990
788.693;  -33.724;  -92.006;  -87.990
788.950;  132.252; -125.005; -112.990
789.207;  197.679; -381.005; -372.991
789.464;  -59.194; -161.005; -301.991
789.720;   -3.467;  150.995;  110.009
789.977; -170.465;-1003.005; -671.992
790.234;  -33.913;   44.996;  -66.992
790.490; -141.237; -884.004;-1031.993
790.747;  -15.710;  -85.004;   22.007
791.004;  -22.358; -426.004; -348.993
791.260;  -70.156; -430.004; -560.994
791.517; -103.054; -843.003; -788.994
791.773;  -43.327; -379.003; -342.994
792.030; -110.426; -596.003; -660.995
792.286; -107.424; -686.003; -636.995
792.543;  -28.022;  -74.002; -159.995
792.799;  -49.520; -584.002; -382.996
793.055; -166.943;-1179.002;-1210.996
793.312;  -88.841; -827.002; -816.997
793.568;  -61.940; -746.002; -599.997
793.824;   16.712; -226.001; -284.997
794.081;   17.614; -447.001; -508.998
794.337;   75.166; -664.001; -561.998
794.593; 1359.343; -319.001; -271.999
794.849; 6567.720; -746.001; -772.999
795.105;  320.696; -270.000; -261.999
795.361;   23.498; -490.000; -457.000
795.617;  -74.875; -875.000; -945.000
795.873;  -45.950; -360.000; -407.000
796.129;  -30.600; -368.000; -306.000
796.385;  -18.775; -124.000; -156.000
796.641;   57.525;  412.000;  550.000
796.897;  -65.550; -666.000; -635.000
797.153;   59.375;  453.000;  357.000
797.409;  -97.650; -785.000; -868.000
797.665;  -80.650; -625.000; -732.000
797.921;  -60.150; -775.000; -762.000
798.176;  -57.875; -744.000; -747.000
798.432;  -56.275; -824.000; -596.000
798.688;  -73.450;-1174.000;-1078.000
798.943;   84.750; -165.000; -147.000
799.199;    6.500;-1005.000; -959.000
799.455;  238.125;  369.000;  316.000
799.710;  118.725; -813.000; -380.000
799.966;  308.525; -162.000; -160.000
800.221;  482.650; -638.000; -721.000
800.477;10770.025; -743.000; -710.000
800.732; 9180.900; -773.000; -800.000
800.988;  652.725;  205.000;  -19.000
801.243; 1928.125; -454.000; -344.000
801.498; 8116.825; -814.000; -739.000
801.754;  458.825; -289.000; -163.000
802.009;   95.875; -257.000; -335.000
802.264;  -45.750; -967.000;-1033.000
802.520;   34.175;  222.000;   -3.000
802.775;  -44.875; -524.000; -359.000
803.030;   59.750;  395.000;  356.000
803.285; -120.925; -840.000; -903.000
803.540;  -67.800; -686.000; -699.000
803.795;  -47.900; -648.000; -583.000
804.051;  -30.600; -279.000; -346.000
804.306;   22.425;  168.000;  128.000
804.561;  132.400;  451.000;  362.000
804.816;  129.750;  714.000;  861.000
805.071;    5.450; -185.000; -280.000
805.325;  213.350; -257.000; -427.000
805.580;  -94.300; -841.000; -877.000
805.835;  -14.250; -204.000; -297.000
806.090;  -71.325; -760.000; -676.000
806.345;  -28.550; -344.000; -264.000
806.600;  -23.550; -549.000; -632.000
806.854;  -40.825; -408.000; -538.000
807.109;   -5.450; -493.000; -577.000
807.364;    0.825; -407.000; -328.000
807.618;   -9.525; -415.000; -381.000
807.873;   50.600; -470.000; -494.000
808.128;   94.425; -257.000; -518.000
808.382;   97.775; -224.000; -332.000
808.637;   70.675; -440.000; -511.000
808.891;  178.125; -257.000; -180.000
809.146;  118.700; -902.000; -794.000
809.400;  240.875; -848.000; -923.000
809.654;  320.800; -779.000; -551.000
809.909;  483.750; -841.000; -927.000
810.163; 6592.425; -813.000; -651.000
810.418;16500.475; -940.000; -861.000
810.672; 1032.850; -685.000; -690.000
810.926;  710.475; -993.000; -973.000
811.180; 1437.875; -439.000; -372.000
811.434;32538.525;  240.000;  135.000
811.689;12642.000; -231.000; -365.000
811.943;  636.925; -936.000; -953.000
812.197;  329.875; -893.000; -671.000
812.451;  138.775; -379.000; -514.000
812.705;  -14.525; -809.000; -619.000
812.959;    2.450; -263.000; -388.000
813.213;    9.125; -283.000; -209.000
813.467;   78.225;  470.000;  253.000
813.721;  -95.775; -764.000; -792.000
813.975; -119.575; -826.000; -877.000
814.229;   58.950;  430.000;  353.000
814.482;  -58.925; -517.000; -566.000
814.736; -108.500; -766.000; -744.000
814.990; -121.575; -779.000; -872.000
815.244;  -36.800; -228.000; -285.000
815.497;  -88.425; -636.000; -601.000
815.751;  -15.825; -141.000;   82.000
816.005;  -90.000; -470.000; -586.000
816.258;  -63.375; -510.000; -363.000
816.512;  -94.675; -693.000; -610.000
816.766;    8.975;  121.000;  157.000
817.019;   14.850;  148.000;  149.000
817.273; -112.050;-1000.000; -802.000
817.526;  -40.325; -206.000; -173.000
817.779;  -43.975;-1049.000; -960.000
818.033;  -85.050; -693.000; -807.000
818.286; -118.625; -725.000; -792.000
818.540;  -98.350; -403.000; -403.000
818.793;  -69.425; -402.000; -489.000
819.046;  -98.775; -582.000; -520.000
819.299;  -32.750; -157.000; -166.000
819.553; -104.225; -552.000; -592.000
819.806; -152.700;-1016.000; -838.000
820.059;  -56.575; -334.000; -354.000
820.312;   25.600;  152.000;  185.000
820.565;  -18.750;  110.000;  -27.000
820.818;  -51.400;  -59.000; -173.000
821.071; -151.550;-1041.000; -957.000
821.324; -107.925; -536.000; -540.000
821.577; -102.825; -457.000; -483.000
821.830;  -59.925; -270.000; -172.000
822.083; -129.575; -733.000; -288.000
822.336;  -39.400; -261.000; -167.000
822.589; -146.450; -805.000; -688.000
822.842; -132.400; -875.000; -770.000
823.094; -177.925;-1076.000;-1114.000
823.347; -129.200; -925.000; -729.000
823.600;   17.925;  402.000;  187.000
823.853;  -39.625; -311.000; -267.000
824.105;  -77.000; -331.000; -575.000
824.358; -106.500; -617.000; -716.000
824.611;   23.325;  234.000;   40.000
824.863;  -56.575; -612.000; -591.000
825.116;   48.975;  -33.000;   27.000
825.368;   72.850; -366.000; -372.000
825.621;  155.950; -186.000; -240.000
825.873;   80.950; -704.000; -737.000
826.126;  596.325; -669.000; -641.000
826.378;11621.050; -389.000; -505.000
826.630; 2756.075; -890.000; -898.000
826.883;   55.000; -754.000; -693.000
827.135;   42.650; -279.000; -270.000
827.387; -104.800; -893.000; -839.000
827.639;  -24.225;  -86.000;   32.000
827.892; -124.450; -742.000; -582.000
828.144; -149.800; -848.000; -804.000
828.396;  -30.100;  104.000;  -80.000
828.648; -100.600; -440.000; -333.000
828.900; -146.975; -702.000; -795.000
829.152; -113.450; -684.000; -683.000
829.404;  -62.775; -215.000; -267.000
829.656;  -50.975;  321.000;  214.000
829.908;   -8.050;  393.000;  229.000
830.160; -173.325;-1064.000;-1047.000
830.412;  -87.250; -481.000; -430.000
830.664; -126.450; -557.000; -665.000
830.916;  -65.500; -268.000; -206.000
831.167; -179.600;-1073.000; -951.000
831.419;  -98.050; -623.000; -566.000
831.671; -145.800; -764.000; -809.000
831.923;  -81.725; -311.000; -447.000
832.174;  -77.650; -273.000; -331.000
832.426; -113.350; -493.000; -582.000
832.678; -177.825;-1043.000;-1091.000
832.929; -153.250; -947.000; -935.000
833.181;  -75.050; -575.000; -677.000
833.432;  -45.025;  -59.000; -186.000
833.684;  -16.125;  112.000;  -27.000
833.935; -109.050; -610.000; -566.000
834.187; -128.825; -829.000; -823.000
834.438;  -34.800;  -58.000;  -25.000
834.689;  -49.725; -255.000; -123.000
834.941;  -50.400; -343.000; -244.000
835.192; -101.175; -590.000; -533.000
835.443; -107.725; -419.000; -506.000
835.695;  -21.525;  138.000;  -16.000
835.946;  -89.200; -608.000; -378.000
836.197; -121.225; -599.000; -622.000
836.448;  -82.900; -528.000; -395.000
836.699;  -62.775; -253.000; -341.000
836.950;    4.575;   72.000;    7.000
837.201; -145.575;-1003.000; -987.000
837.452;  -54.800; -356.000; -170.000
837.703; -103.525; -791.000; -737.000
837.954;  -33.325; -205.000; -365.000
838.205;  -88.525;-1029.000;-1008.000
838.456;  168.075; -196.000; -282.000
838.707;    6.425; -423.000; -519.000
838.958;   12.525; -634.000; -647.000
839.209;  279.500;   18.000;   40.000
839.460;  121.525; -439.000; -201.000
839.710;  165.925; -135.000; -297.000
839.961;  433.150;  730.000;  612.000
840.212;  326.100; -382.000; -497.000
840.462; 1117.250; -328.000; -277.000
840.713;18073.050; -571.000; -536.000
840.964; 7040.275;  -62.000; -143.000
841.214;  472.300; -384.000; -624.000
841.465;  538.100; -214.000; -141.000
841.715;  492.325; -417.000; -380.000
841.966;  630.650; -746.000; -685.000
842.216; 8908.600; -330.000; -431.000
842.466;32985.725; -169.000; -313.000
842.717; 1711.650; -964.000; -952.000
842.967;  293.250; -635.000; -641.000
843.217;  260.075;   20.000;   28.000
843.468;   65.775; -104.000; -132.000
843.718;  -46.400; -718.000; -726.000
843.968;  -79.825; -837.000; -765.000
844.218;   15.025; -315.000; -262.000
844.469;  -42.825; -577.000; -561.000
844.719;  -97.000; -537.000; -682.000
844.969;  -95.825; -550.000; -580.000
845.219; -146.275; -814.000; -862.000
845.469;  -77.275; -392.000; -342.000
845.719; -141.950; -792.000; -884.000
845.969;   -9.050;  119.000;  174.000
846.219; -122.175; -738.000; -720.000
846.469;   25.900;  464.000;  432.000
846.718;  -69.275; -115.000;   31.000
846.968; -126.575; -827.000; -827.000
847.218;  -60.625; -224.000; -371.000
847.468;   16.425; -586.000; -555.000
847.718; -138.675; -827.000; -798.000
847.967; -133.525; -826.000; -915.000
848.217;  -81.675; -449.000; -569.000
848.467;  -77.275; -405.000; -376.000
848.716; -117.175; -708.000; -725.000
848.966;    8.950; -372.000; -358.000
849.215;  -44.025; -428.000; -419.000
849.465;  -97.325; -785.000; -615.000
849.714; -140.325;-1132.000;-1150.000
849.964;  -64.050; -551.000; -613.000
850.213;  -27.250; -393.000; -355.000
850.463;   92.675;  137.000;  340.000
850.712;    6.275; -542.000; -567.000
850.961;   27.250; -739.000; -678.000
851.211;   97.000; -513.000; -504.000
851.460;  168.550; -635.000; -650.000
851.709;  574.875;  -25.000;   18.000
851.958;10534.275; -912.000; -750.000
852.208;12578.500; -859.000; -879.000
852.457;  463.425; -181.000;  -13.000
852.706;   65.200; -791.000; -823.000
852.955;   16.375; -507.000; -528.000
853.204;  -78.425; -521.000; -461.000
853.453;  -79.725; -418.000; -458.000
853.702; -139.375; -660.000; -750.000
853.951;  -97.225; -532.000; -520.000
854.200; -127.725; -613.000; -562.000
854.449; -135.750; -695.000; -661.000
854.698;  -90.175; -340.000; -279.000
854.946;  -71.675; -181.000; -284.000
855.195; -160.950; -843.000; -868.000
855.444;  -96.550; -395.000; -420.000
855.693; -133.850; -345.000; -432.000
855.941; -103.425; -387.000; -516.000
856.190;  -67.950; -256.000; -382.000
856.439; -121.275; -652.000; -703.000
856.687;  -59.800;  -99.000;  -72.000
856.936; -108.550; -621.000; -323.000
857.184; -185.900;-1067.000;-1020.000
857.433; -100.800; -423.000; -512.000
857.681; -170.675; -989.000; -953.000
857.930;  -64.125; -282.000; -433.000
858.178; -190.500; -856.000; -929.000
858.427; -161.450; -802.000; -781.000
858.675; -118.825; -377.000; -544.000
858.923; -114.900; -527.000; -819.000
859.172; -185.625;-1094.000;-1070.000
859.420;  -93.075; -339.000; -239.000
859.668; -134.775; -624.000; -628.000
859.916;   -5.450;  109.000;  115.000
860.164; -121.325; -699.000; -603.000
860.413;  280.975; -878.000; -696.000
860.661;  181.575; -709.000; -577.000
860.909;  -81.600; -339.000; -325.000
861.157;  -92.150; -277.000; -444.000
861.405; -122.000; -534.000; -670.000
861.653;   -9.125;  310.000;  310.000
861.901;  157.400; -543.000; -613.000
862.149;  -22.550; -801.000; -824.000
862.396;  -69.925; -297.000; -187.000
862.644;  -92.100; -368.000; -347.000
862.892;  -28.425;   98.000;  138.000
863.140; -114.250; -549.000; -530.000
863.388; -154.500; -815.000; -759.000
863.635; -128.475; -642.000; -601.000
863.883;  -22.350;  231.000;  190.000
864.131;  -88.675; -288.000; -357.000
864.378; -134.275; -675.000; -540.000
864.626;  -97.700; -347.000; -415.000
864.873; -114.475; -556.000; -505.000
865.121; -133.950; -714.000; -799.000
865.368;  -46.500; -173.000;   75.000
865.616;  -38.425;  -33.000;  -40.000
865.863;  -69.775; -462.000; -506.000
866.111;  -98.550; -795.000; -824.000
866.358;   46.200; -426.000; -420.000
866.605; 2457.350;  -64.000; -804.000
866.853; 2442.600; -621.000; -537.000
867.100;  -39.250; -728.000; -775.000
867.347;  -98.775; -672.000; -611.000
867.594; -100.175; -740.000; -714.000
867.841;   76.675;   97.000;   17.000
868.089; -154.225; -746.000; -698.000
868.336; -107.950; -477.000; -420.000
868.583; -138.000; -637.000; -741.000
868.830;  -44.425; -131.000; -170.000
869.077; -173.575; -859.000; -787.000
869.324; -128.225; -502.000; -458.000
869.571; -142.000; -398.000; -430.000
869.818; -118.575; -485.000; -439.000
870.065; -107.925; -439.000; -513.000
870.311; -118.775; -456.000; -542.000
870.558; -112.650; -332.000; -311.000
870.805;  -78.225; -320.000; -384.000
871.052; -115.175; -494.000; -369.000
871.298;  -60.950; -204.000; -131.000
871.545;  -84.125; -151.000; -185.000
871.792;  -70.600; -173.000; -222.000
872.038;  -74.900;   43.000; -126.000
872.285; -122.875; -496.000; -387.000
872.532;  -92.475; -357.000; -387.000
872.778;    8.450;  556.000;  403.000
873.025;  -88.450; -384.000; -359.000
873.271;   28.650;  501.000;  578.000
873.517;  -34.275; -133.000; -209.000
873.764;  -28.750; -193.000;  -80.000
874.010;  -70.900; -143.000; -230.000
874.257;  -43.175;  123.000;   90.000
874.503; -132.750; -579.000; -479.000
874.749;  -58.450;   31.000;  275.000
874.995;  -70.350;  -80.000;  -20.000
875.242; -113.625; -540.000; -478.000
875.488; -115.225; -414.000; -439.000
875.734;  -44.000; -106.000; -234.000
875.980;  156.300; -872.000;-1032.000
876.226;  329.625; -157.000; -255.000
876.472;    3.375;  343.000;  237.000
876.718;  -36.575;  184.000;  158.000
876.964;  -44.075;   56.000;   55.000
877.210; -151.500; -547.000; -677.000
877.456; -131.675; -630.000; -557.000
877.702; -168.625; -821.000; -832.000
877.948; -113.350; -377.000; -497.000
878.193;  -12.825;  361.000;  255.000
878.439;  -98.250; -487.000; -472.000
878.685;  -97.100; -272.000; -343.000
878.931; -143.350; -618.000; -676.000
879.176;  -83.475; -201.000; -201.000
879.422; -174.375; -933.000; -820.000
879.668;   66.075;   10.000;   79.000
879.913;  127.325;   53.000;  137.000
880.159;  -55.275; -112.000;  -17.000
880.404;  -59.050; -152.000; -162.000
880.650;  -40.950;   91.000;  141.000
880.895; -166.050; -670.000; -710.000
881.141; -109.825; -454.000; -428.000
881.386; -144.550; -503.000; -658.000
881.631;  -86.275; -311.000; -166.000
881.877;  -44.250;  112.000;  -13.000
882.122; -130.300; -684.000; -600.000
882.367;  -93.475; -136.000; -186.000
882.612;  -81.250;  -80.000; -176.000
882.858; -179.875; -877.000; -823.000
883.103;  -96.325; -297.000; -267.000
883.348; -145.075; -759.000; -852.000
883.593; -157.675; -677.000; -602.000
883.838;  -52.350; -311.000;  -24.000
884.083;   37.325;  353.000;  288.000
884.328;  -90.450; -564.000; -545.000
884.573;  -53.600; -196.000; -143.000
884.818;  169.800; -694.000; -531.000
885.063;  168.050; -348.000; -315.000
885.308; -110.675; -475.000; -398.000
885.553;   -6.025;  245.000;  325.000
885.797; -121.950; -545.000; -615.000
886.042;  -51.250;    8.000;   58.000
886.287;  -86.300; -253.000; -211.000
886.532;  -38.950;   26.000;  204.000
886.776;  -91.725; -407.000; -525.000
887.021; -131.400; -621.000; -574.000
887.265; -157.700; -685.000; -689.000
887.510; -136.275; -557.000; -496.000
887.755;  -88.025; -194.000; -164.000
887.999; -134.475; -552.000; -575.000
888.244;  -64.550;  -58.000;  161.000
888.488;    5.975;  371.000;  393.000
888.732; -139.150; -368.000; -520.000
888.977; -126.175; -622.000; -567.000
889.221; -172.400; -683.000; -659.000
889.465; -137.575; -422.000; -566.000
889.710;  -77.000;  -56.000; -299.000
889.954;    3.125;  579.000;  467.000
890.198; -141.850; -584.000; -707.000
890.442; -150.275; -716.000; -712.000
890.687; -167.850; -800.000; -753.000
890.931;  -89.500; -273.000; -210.000
891.175; -138.625; -502.000; -500.000
891.419;  -70.400; -105.000; -110.000
891.663;  -91.600; -239.000; -112.000
891.907; -161.475; -801.000; -545.000
892.151; -181.000; -920.000; -815.000
892.395; -112.825; -274.000; -387.000
892.638;  -41.175;  408.000;  291.000
892.882; -177.925; -780.000; -867.000
893.126;   14.200;  758.000;  558.000
893.370;  -88.500; -167.000; -168.000
893.614; -141.600; -714.000; -715.000
893.857; -118.275; -183.000; -197.000
894.101; -142.100; -527.000; -631.000
894.345;  -46.350;  300.000;  150.000
894.588;    9.350;  569.000;  380.000
894.832;  -92.700; -178.000;  -84.000
895.075;  -86.250;   15.000;  -92.000
895.319; -125.450; -552.000; -420.000
895.563; -119.200; -413.000; -353.000
895.806; -149.400; -628.000; -741.000
896.049;  -68.600; -576.000; -368.000
896.293;   94.725;  527.000;  405.000
896.536;  -93.925; -465.000; -468.000
896.779;  -52.225; -149.000;   -1.000
897.023; -152.975; -751.000; -714.000
897.266;  -27.825;  325.000;  269.000
897.509; -187.875; -900.000; -901.000
897.752;  -43.500;  149.000;  171.000
897.996; -205.875; -972.000; -864.000
898.239;  -43.500;  168.000;  102.000
898.482; -129.600; -431.000; -453.000
898.725;  -51.350;  101.000;   53.000
898.968; -157.300; -609.000; -744.000
899.211; -106.500; -513.000; -361.000
899.454; -129.175; -633.000; -539.000
899.697;  -64.375;   90.000;  -43.000
899.940; -174.450; -761.000; -757.000
900.182; -108.725; -335.000; -405.000
900.425;  -91.825; -150.000; -298.000
900.668;  -18.025;  491.000;  350.000
900.911; -108.375; -292.000; -345.000
901.154;  -44.625;  141.000;   -3.000
901.396; -154.575; -407.000; -412.000
901.639; -125.200; -430.000; -496.000
901.882; -182.200; -790.000; -809.000
902.124;  -95.050;  -29.000; -143.000
902.367; -108.725; -315.000; -361.000
902.609; -123.375; -476.000; -453.000
902.852;  -82.275; -108.000; -260.000
903.094; -121.800; -458.000; -337.000
903.337;  -73.925;  -26.000;   53.000
903.579; -111.450; -228.000; -441.000
903.821; -168.075; -597.000; -744.000
904.064;  -53.850;   85.000;  127.000
904.306;  -87.925; -126.000; -166.000
904.548; -107.075; -152.000; -366.000
904.790; -104.400; -195.000; -340.000
905.033; -136.050; -625.000; -577.000
905.275; -140.425; -513.000; -524.000
905.517;   50.075;  468.000;  256.000
905.759;  -74.775; -667.000; -761.000
906.001; -104.600; -322.000; -369.000
906.243;  -71.225; -162.000; -224.000
906.485;  122.125; -265.000; -207.000
906.727;   77.025; -499.000; -542.000
906.969;  -38.800;  -30.000; -135.000
907.211;  103.750; -316.000; -382.000
907.453;  255.350; -188.000; -237.000
907.695;  -12.700; -158.000; -385.000
907.936;   53.300;  818.000;  706.000
908.178;  -70.600;   92.000; -135.000
908.420;  -76.500; -111.000; -162.000
908.662; -130.775; -633.000; -682.000
908.903;  -69.800; -208.000; -123.000
909.145;  -61.100; -240.000; -305.000
909.386;    4.600;  315.000;  280.000
909.628;   42.650;  363.000;  397.000
909.870;   -1.225;   29.000;  264.000
910.111;  -98.275; -809.000; -949.000
910.353;   14.450; -123.000; -161.000
910.594;   -2.125; -574.000; -606.000
910.835;   84.200; -265.000; -326.000
911.077;  152.000; -503.000; -604.000
911.318;  284.050; -505.000; -471.000
911.559;  446.275; -577.000; -880.000
911.801; 1362.375; -284.000; -280.000
912.042;10560.950;  -50.000; -159.000
912.283;26829.150;  404.000;  371.000
912.524; 3963.600; -396.000; -457.000
912.765;  478.350; -193.000;   79.000
913.006;  240.825; -307.000; -338.000
913.247;   41.675; -270.000; -290.000
913.488;   -5.925;  -43.000;   30.000
913.729;  -86.575; -373.000; -373.000
913.970;  -57.050;  -96.000; -292.000
914.211;  -60.525; -160.000; -198.000
914.452;  -77.025; -118.000;  -11.000
914.693;   10.250;  510.000;  592.000
914.934;    6.425;  510.000;  440.000
915.175;  -71.000;   53.000;  -95.000
915.415;  -91.600; -137.000;   27.000
915.656;  -47.075;  -28.000;  192.000
915.897;  -95.075; -252.000;  -82.000
916.137;  -64.350;   74.000;   -9.000
916.378; -138.575; -573.000; -517.000
916.619;  -90.250; -159.000;  -63.000
916.859;  -16.550;  303.000;  330.000
917.100;  159.100; 1655.000; 1070.000
917.340;   38.725;  930.000;  728.000
917.581;   58.000;  965.000;  789.000
917.821;  -28.150; -171.000;  143.000
918.061;    8.625; -199.000;  -72.000
918.302;  -54.850; -152.000; -211.000
918.542;  -15.950;  -22.000;    3.000
918.782;   30.650;  369.000;  377.000
919.023;  121.725;  360.000;  427.000
919.263; 1374.950; 8131.000;  202.000
919.503; 1075.275; -137.000;  -54.000
919.743;  582.675;  390.000;  266.000
919.983;  248.125; -134.000;  -26.000
920.223;   80.825;  135.000;   14.000
920.463;  152.250;  631.000;  554.000
920.703;  131.475;   84.000;   39.000
920.943;  177.625; -110.000;   90.000
921.183;  236.800; -414.000; -405.000
921.423;  535.425;  307.000;  546.000
921.663;  753.625; -174.000; -257.000
921.903; 1625.600;  237.000;  173.000
922.143; 9045.625;  372.000;  389.000
922.383;34409.250;  158.000;  115.000
922.622;11226.050; -120.000;  -15.000
922.862; 1201.725;  796.000;  785.000
923.102;  470.475;  -51.000;   33.000
923.341;  190.525;   59.000;   74.000
923.581;   85.225;  450.000;  360.000
923.821;   32.575;  301.000;  398.000
924.060;   -0.550;  351.000;  193.000
924.300;  -49.750;  -16.000; -128.000
924.539;   -5.725;  584.000;  473.000
924.779;   17.350;  812.000;  597.000
925.018;  -49.425;  247.000;  353.000
925.257;    2.950;  595.000;  666.000
925.497;  -31.875;  447.000;  412.000
925.736;  -89.250;  -35.000;  102.000
925.975;   -8.075;  687.000;  669.000
926.214;   45.375;  907.000;  850.000
926.454;   11.225;  706.000;  757.000
926.693;  -32.475;  419.000;  543.000
926.932;   38.775; 1021.000;  825.000
927.171;   64.025; 1107.000; 1044.000
927.410;   50.825; 1144.000;  967.000
927.649;   32.850;  924.000;  742.000
927.888;  -19.475;  590.000;  564.000
928.127;   -5.625;  680.000;  678.000
928.366;   25.550;  842.000;  826.000
928.605;   37.950;  831.000;  737.000
928.844;  233.225; 1451.000; 1393.000
929.083;  610.725;  770.000;  613.000
929.321;  314.000; 1335.000; 1359.000
929.560;   99.200; 1158.000; 1122.000
929.799;  -29.575;  574.000;  475.000
930.038;   98.175; 1025.000; 1394.000
930.276;  -44.400;  334.000;  397.000
930.515;   -4.950;  827.000;  681.000
930.753;  -15.900;  614.000;  589.000
930.992;   -9.050;  664.000;  717.000
931.230;  -11.050;  847.000;  847.000
931.469;  174.625; 2162.000;  892.000
931.707;   62.600;  840.000;  751.000
931.946;   70.175; 1278.000; 1344.000
932.184;   62.325; 1437.000; 1175.000
932.423;   63.625; 1265.000;  963.000
932.661;  100.525; 1296.000; 1428.000
932.899;   14.300;  987.000;  821.000
933.137;    5.225;  754.000;  564.000
933.376;  155.225; 1664.000; 1335.000
933.614;  148.625; 1759.000; 1196.000
933.852;   55.950; 1357.000; 1171.000
934.090;  130.675; 1722.000; 1747.000
934.328;  115.100; 1252.000; 1457.000
934.566;   88.625; 1431.000; 1110.000
934.804;  132.700; 1263.000; 1309.000
935.042;  484.675; 1861.000; 1850.000
935.280; 1955.100; 2088.000; 2063.000
935.518; 1768.375; 2113.000; 2007.000
935.756;  379.950; 2481.000; 2316.000
935.994;  154.500; 1808.000; 1751.000
936.231;  359.825; 2890.000; 2950.000
936.469;  202.225; 2367.000; 2378.000
936.707;  177.200; 2220.000; 2167.000
936.945;  227.575; 2825.000; 2882.000
937.182;  200.250; 2679.000; 2741.000
937.420;  292.575; 3602.000; 3031.000
937.657;  412.350; 3365.000; 3478.000
937.895;  357.575; 3331.000; 3488.000
938.133;  314.250; 3540.000; 3528.000
938.370;  346.425; 3896.000; 4191.000
938.607;  404.475; 4488.000; 4205.000
938.845;  532.700; 5587.000; 5549.000
939.082;  494.250; 5387.000; 5177.000
939.320;  552.475; 5799.000; 5728.000
939.557;  653.700; 6549.000; 6491.000
939.794;  725.250; 7285.000; 7097.000
940.031;  934.000; 8421.000; 8368.000
940.269; 1096.600; 9552.000; 9107.000
940.506; 1117.350;10901.000;10507.000

