
Integration time [ms]: 100.000
Averaging Nr. [scans]: 40
Smoothing Nr. [pixels]: 0
Data measured with spectrometer [name]: 2101013U2
Wave   ;Sample   ;Dark     ;Reference
[nm]   ;[counts] ;[counts] ;[counts] 

394.013;   54.259; -450.257; -315.536
394.305;  230.057; -461.258; -419.536
394.596; 1059.928; -676.269; -527.514
394.887; 2562.470; -796.268; -654.518
395.178;  995.326;  145.736;   11.476
395.470;  107.212; -210.263; -356.526
395.761;  223.685;  305.734;  394.479
396.052;  321.702; -545.284; -306.489
396.343;  345.398; -557.276; -454.503
396.634;  163.616; -200.279; -290.497
396.926;  164.342; -618.268; -565.517
397.217;  126.527;   11.725;  -17.504
397.508;   76.943; -366.273; -154.507
397.799;   85.191; -555.279; -571.497
398.090;   19.285; -973.280; -902.495
398.381;  162.352;   11.708;  -11.473
398.672;   20.953; -585.292; -742.473
398.963;   65.772; -348.279; -373.498
399.254;  135.912;   54.709; -209.475
399.545;   -8.093;-1017.266; -883.520
399.836;   96.362; -407.277; -343.501
400.127;   79.353; -205.295; -209.468
400.418;   78.988; -423.274; -392.506
400.709;   78.398; -359.281; -333.493
401.000;   74.191; -268.291; -309.476
401.290;  129.714;  225.698;  115.545
401.581;   92.585; -166.286; -228.485
401.872;   43.325; -542.298; -486.462
402.163;   68.971; -313.296; -252.467
402.454;  117.763; -123.291; -163.475
402.744;   90.762; -844.297; -813.465
403.035;  542.643; -226.293;  -86.471
403.326;  713.956; -366.292; -384.474
403.617;  450.769;  204.701;  165.539
403.907;  261.108; -593.283; -679.490
404.198; 2306.618; -545.307; -599.446
404.489; 6051.738; -618.283; -588.491
404.779; 2158.493; -618.302; -660.456
405.070;  262.021;  -67.304; -174.451
405.360;  327.820; -259.293; -238.472
405.651;  376.829;  125.699;   98.542
405.942;  225.030;  209.714;  127.516
406.232;  354.545; -432.285; -413.487
406.523;  595.363;  641.706;  758.530
406.813;  133.007; -579.286; -644.484
407.104;  429.476;  261.708;  144.527
407.394;  245.696; -604.299; -591.462
407.685;  169.394;  336.715;  222.513
407.975;   88.862; -400.283; -382.490
408.265;  133.627; -134.289; -190.478
408.556;   87.560; -472.291; -459.475
408.846;  191.164;  474.706;  429.530
409.137;  102.511;   -1.288; -216.480
409.427;   57.770; -193.285; -271.487
409.717;   48.421; -776.273; -692.508
410.007;  161.138;    4.715; -170.486
410.298;  113.956; -360.295; -342.469
410.588;   65.717; -495.285; -510.486
410.878;   48.922; -792.287; -873.482
411.168;  114.752; -481.298; -478.463
411.459;  124.156; -295.283; -242.489
411.749;   64.833; -609.292; -507.474
412.039;   74.709; -755.289; -386.480
412.329;  221.829;   40.722;  132.501
412.619;  221.208;  -62.286; -148.485
412.909;  401.205;  639.711;  594.521
413.199;  385.636; -130.280; -251.495
413.490;  447.221;  521.710;  352.523
413.780;  167.990;-1013.279; -913.496
414.070;  358.824;  -46.276;  235.497
414.360;  402.126; -729.278; -666.498
414.650;  443.943; -726.288; -688.482
414.940;  530.039; -538.280; -441.496
415.230;  913.190;   50.712;   74.519
415.520; 5938.327;  155.730;   66.486
415.809;23070.847; -305.281; -125.493
416.099;17976.964; -388.277; -229.501
416.389; 4859.760;  435.726;  236.494
416.679; 2899.991;   91.738;   85.473
416.969;  527.952; -527.287; -503.483
417.259;  612.967;  341.721;  171.503
417.549;  695.571;  522.718;  318.508
417.838; 1605.394; -205.268; -147.518
418.128; 5196.526;  650.710;  492.522
418.418; 4351.153; -491.272; -579.509
418.708; 2957.635;    9.726;  -48.506
418.997;10949.781; -474.275; -480.505
419.287;11417.717; -733.273; -790.507
419.577;10602.256; -160.283; -123.489
419.866;35281.287; -588.277; -498.501
420.156;36866.998; -242.270;  -55.513
420.446; 6833.708; -112.263;  -26.526
420.735;  971.392; -376.271; -446.512
421.025;  895.750; 1830.722;  315.502
421.314;  794.390; -203.271; -226.512
421.604; 1837.212;   89.732;  233.484
421.893; 1072.962; -705.271; -602.511
422.183;  254.083; -487.263; -461.526
422.472;  406.913;  -36.271; -107.511
422.762;  484.412; -416.266; -379.521
423.051;  277.524; -916.276; -916.503
423.341;  349.594; -491.273; -439.507
423.630;  447.943; -121.265;   15.477
423.919;  416.806;   58.725;   49.495
424.209;  396.289;  -31.263;   56.473
424.498;  506.567;   68.732;  161.483
424.787; 1083.473; -535.267; -601.518
425.077; 3347.942;   34.735;   29.478
425.366; 5067.894; -734.262; -744.528
425.655; 9609.145;  639.727;  259.493
425.945;19397.049; -313.247; -268.554
426.234;10945.767;  117.741;  300.467
426.523; 4902.097;  -86.259; -350.534
426.812; 6763.758;  107.734;  159.480
427.101; 9726.709; -127.269; -323.515
427.390;12652.227;  -55.270;  -86.514
427.680; 3243.917; -624.257; -411.538
427.969;  552.028; -330.255; -301.540
428.258;  345.659; -385.257; -477.536
428.547;  597.607;  449.728;  397.490
428.836; 1484.469; -421.253; -398.543
429.125; 2178.499; -199.259;  -72.534
429.414;  904.567; -330.251; -294.548
429.703; 3026.917; -231.251; -213.548
429.992; 8884.396; -938.250; -828.549
430.281; 5926.226; -397.264; -331.524
430.570;  638.557;  -21.252;   32.454
430.859;  674.347;  279.741;  352.466
431.148;  489.295;  636.752;  631.446
431.437;  321.332;  391.748;  367.454
431.725;  178.585; -544.257; -481.536
432.014;  147.227; -845.253; -756.545
432.303;  443.021; -149.239; -105.569
432.592;  715.408; -460.263; -178.525
432.881; 1068.621; -601.248; -437.554
433.169; 5825.854; -343.255;  -61.540
433.458;11772.180;  445.765;  540.424
433.747; 5099.850; -397.261; -289.529
434.036; 1012.622; -275.242; -280.564
434.324; 2038.483; -395.249; -379.551
434.613; 3568.665;   40.757;  159.437
434.902; 1268.036;  333.760;  439.433
435.190;  767.445;   75.761;  295.431
435.479;  432.472;  -52.245;   83.441
435.767;  149.405; -411.244; -427.561
436.056;  262.467; -340.242; -294.563
436.345;  381.338; -372.240; -223.568
436.633;  426.053;   60.750;  383.450
436.922;  330.015;  208.760;  414.432
437.210;  840.770; -194.236;    1.426
437.499; 2639.378; -583.235; -432.576
437.787; 2961.969; -339.236;  -10.574
438.075;  732.000;   56.761;  162.430
438.364;  949.603;  -44.238;  250.429
438.652;  579.158; -286.226; -138.592
438.941;  169.672;    3.770;  269.415
439.229;   40.355; -665.252; -466.545
439.517;   52.086; -160.234;  -85.577
439.806;   13.224; -501.225; -290.595
440.094;  211.869;  377.766;  650.421
440.382;  262.623; -653.233; -302.580
440.670;  294.077; -361.235; -285.576
440.959;   52.966; -347.223; -170.599
441.247;   80.358; -151.229; -109.587
441.535;  133.035; -266.235;   31.423
441.823;   69.091; -497.234; -305.578
442.111;  210.212;  173.771;  327.412
442.400;  670.821; -628.245; -335.559
442.688; 1884.643; -111.234; -620.579
442.976; 1421.854; -786.213; -450.617
443.264;  159.130; -324.224; -364.597
443.552;  128.984; -258.226;   51.408
443.840;  194.208;  602.765;  876.423
444.128;  139.147;  265.767;  269.420
444.416;   23.765; -694.228; -312.588
444.704;   36.996; -465.219;  -92.605
444.992;   97.087;   -0.226;  240.407
445.280;   70.247; -517.230;  -94.585
445.568;   75.133; -694.212; -396.618
445.856;  446.630; -174.221;  357.398
446.143;  993.392;  -54.220;   -7.604
446.431;  833.919;  -25.228;  625.411
446.719;  283.740;  489.783;  675.391
447.007;  212.492;  481.769;  705.416
447.295;  189.063;  597.777;  871.402
447.583;  111.256; -464.229;  -34.587
447.870;  195.177; -434.221; -202.601
448.158;  508.771; -104.230;  129.415
448.446;  419.993; -800.219; -338.604
448.733;  204.782;   13.776;  269.403
449.021;  286.207;   60.788;  341.382
449.309;  208.422; -296.210;  208.379
449.596;  242.186;  128.783;   59.392
449.884;  172.395; -571.222; -325.600
450.172;  150.374; -756.227; -406.590
450.459;  435.887;  645.786;  780.387
450.747; 2184.060; -411.218; -147.608
451.034; 6992.420;  493.772;  889.411
451.322; 5783.365; -413.214; -170.614
451.609;  521.608;  292.777;  508.403
451.897;  551.061; -550.203; -183.634
452.184; 1705.663; -622.223; -400.598
452.472; 1606.544;   97.792;  269.375
452.759;  362.819;  512.781;  864.395
453.047;  149.780; -407.212; -125.617
453.334;  101.702; -732.219; -216.606
453.621;  122.443; -438.214; -161.615
453.909;  155.453;   13.796;  384.368
454.196;  127.773; -299.199; -123.641
454.483;  244.374;  317.798;  540.364
454.771;  155.747; -215.208;  196.374
455.058;   47.325; -316.207;  102.374
455.345;  123.753;   71.807;  344.347
455.632;   91.353; -128.207;  235.373
455.919;   62.096;  -82.196;  182.354
456.207;  -37.997; -774.198; -450.642
456.494;   -0.589; -475.200;  -66.639
456.781;   17.319; -399.202; -198.635
457.068;   68.885; -253.206;  -29.628
457.355;    5.161; -698.206; -401.629
457.642;    0.842; -552.205; -290.630
457.929;   14.120; -778.194; -417.651
458.216;   75.730; -575.212; -354.617
458.503;  221.499; -173.193;  -19.652
458.790;  214.245; -864.208; -630.625
459.077;  277.449;  -77.202;  110.364
459.364;  754.937; -350.195; -210.649
459.651; 1600.508;  -46.206;  220.372
459.938;  769.760; -864.209; -665.623
460.225;  193.252;  132.799;  276.363
460.512;  -29.707; -836.197; -688.645
460.799;  114.834;  -32.218;  320.392
461.086;   93.140; -370.200; -251.640
461.372;   66.753; -509.198; -279.642
461.659;  154.897; -165.196;  108.354
461.946;   86.373; -445.193;  -54.651
462.233;  277.888;  842.800;  888.361
462.519;  349.510; -814.201; -464.639
462.806;  978.593; -768.197; -497.645
463.093;  836.019; -445.191;  -66.656
463.380;  -11.365; -920.186; -824.664
463.666;   62.495; -259.197;  -18.646
463.953;  114.557; -406.195; -243.648
464.239;  196.132; -173.195;  -77.648
464.526;  423.943;  413.806;  743.350
464.813;  387.155; -565.190; -304.658
465.099;  391.124;  606.807;  607.348
465.386;  388.953;  903.807;  921.348
465.672;   45.744; -694.197; -522.645
465.959;   39.973; -598.188; -520.662
466.245;   31.203; -468.193; -359.652
466.532;  123.530; -109.195;   63.352
466.818;  100.285; -357.186; -216.664
467.104;    4.975; -488.182; -415.672
467.391;  -10.068; -628.189; -459.658
467.677;   43.313; -289.186;    9.335
467.964;   30.089; -682.189; -471.660
468.250;   83.166; -331.186; -160.665
468.536;   95.658;   90.811;  180.341
468.822;  -19.147; -821.184; -574.668
469.109;  156.156;  351.827;  471.311
469.395;  205.688;  729.808;  787.346
469.681;  203.211;   46.811;  156.341
469.967; 1200.266; -699.188; -382.660
470.254; 2537.699; -494.188; -306.662
470.540; 1656.571; -601.196; -476.646
470.826;  239.111; -488.181; -397.675
471.112;  309.906;  288.816;  113.331
471.398;  105.686; -253.183;  -58.670
471.684;   52.664; -626.177; -447.680
471.970;    5.940; -918.180; -981.675
472.256;   35.237; -521.192; -441.654
472.542;   28.567; -499.171; -434.691
472.828;   49.696; -743.182; -607.672
473.114;   46.861; -380.166; -283.700
473.400;   29.056; -504.175; -293.684
473.686;   57.467; -452.166; -400.701
473.972;   78.021; -230.174; -131.687
474.258;  -49.419; -925.173; -843.689
474.544;  188.656; -183.178;   -2.679
474.830;  265.058;  -65.175;   45.316
475.116;  447.932; -123.190; -196.658
475.401;  593.317; -558.180; -467.676
475.687;  193.641; -725.180; -718.676
475.973;   24.379; -673.181; -770.673
476.259;  271.585;  736.825;  764.315
476.544;  364.648; -539.176; -437.682
476.830;  747.588; -398.172; -322.690
477.116;  644.596; -430.177; -336.682
477.401;  147.167;  346.820;  358.324
477.687;  -17.419; -289.175; -405.684
477.973;   36.107;   21.819;   28.326
478.258;    3.537; -448.163; -348.706
478.544;   57.721;   21.815;   61.334
478.829;  -63.978; -818.171; -738.692
479.115;  -41.662; -749.172; -651.690
479.401;   -3.859; -444.174; -449.686
479.686;   43.516; -253.180;  -74.676
479.972;  -37.014; -886.178; -776.680
480.257;   44.237; -258.166;  -65.700
480.542;    4.876; -614.170; -469.693
480.828;  238.829; 1288.824; 1392.317
481.113;  -13.123; -464.176; -426.683
481.399;   27.261; -236.161; -202.711
481.684;  -37.814; -620.166; -462.700
481.969;   27.200; -158.159;  -73.713
482.255;    9.762; -439.169; -285.695
482.540;   -2.363; -569.178; -441.680
482.825;   12.105; -395.187; -404.663
483.110;   86.465;  -85.169; -105.696
483.396;  159.571; -840.157; -652.718
483.681;  437.096;  543.826;  730.313
483.966;  134.144; -696.160; -700.712
484.251;   12.695; -404.174; -310.687
484.536;   17.947; -356.165; -378.703
484.822;   24.323; -205.173; -218.687
485.107;  -11.040; -599.152; -502.726
485.392;  142.603;  662.836;  541.296
485.677;   62.425;  354.832;  163.302
485.962;  114.719;  160.843;  270.283
486.247;  117.345;  -14.162;   -8.707
486.532;   58.988; -178.166; -325.701
486.817;  160.481;  381.839;  431.291
487.102;  130.043; -453.154; -514.722
487.387;  595.023; -637.156; -652.718
487.672; 1053.033; -154.164;  -38.705
487.957;  647.488; -394.160; -286.711
488.241;  189.026; -290.150; -314.729
488.526;  653.411; -280.152; -148.726
488.811; 1069.414; -881.177; -818.680
489.096;  823.170; -666.154; -702.723
489.381;  454.482;    3.847;  162.275
489.666;  339.861; -428.161; -510.710
489.950;  173.598;  558.846;  627.277
490.235;  -16.304; -480.151; -458.728
490.520;  -29.015; -756.161; -723.710
490.804;  -47.625; -827.156; -736.719
491.089;   10.817; -469.149; -299.732
491.374;   39.107; -132.164;  -75.704
491.658;    7.729; -817.147; -717.735
491.943;  193.540; -657.152; -609.727
492.227;  299.213; -178.155;  -38.721
492.512;   58.368; -294.157; -341.717
492.797;  -56.289; -713.149; -716.731
493.081;  -51.169; -588.147; -598.735
493.366;  -10.113; -751.161; -635.711
493.650;  224.035;  831.859;  917.254
493.935;   51.403; -648.147; -447.734
494.219;  -23.528; -778.142; -687.743
494.503;  -39.094; -585.150; -487.730
494.788;   52.060;   46.842;   74.285
495.072;   99.978;  184.850;  434.271
495.356;  177.795; -463.148; -343.733
495.641;  479.463; -812.146; -736.736
495.925;  477.805; -976.156; -903.719
496.209;   59.942; -599.149; -451.732
496.494;  -46.627; -763.142; -544.744
496.778;   27.893; -364.154; -360.722
497.062;  -39.895; -819.156; -627.719
497.346;  -32.985; -869.160; -640.711
497.631;  142.574;  580.852;  560.266
497.915;   80.724;  -64.145;  175.261
498.199;   61.146; -341.157; -277.718
498.483;   40.759; -562.152; -508.725
498.767;  186.879;  301.850;  300.271
499.051;  188.114; -126.149; -100.732
499.335;   21.112; -693.149; -739.731
499.619;  -22.464; -381.129; -423.767
499.903;   34.412; -272.155;  -65.721
500.187;   41.650; -588.153; -316.724
500.471;   37.065; -796.152; -595.727
500.755;  119.810;   62.839;  -96.710
501.039;   45.863; -270.155; -357.721
501.323;  102.162;  -21.141;  264.254
501.607;   59.613; -447.163; -503.706
501.891;   11.198; -607.156; -512.718
502.174;  -23.965; -726.144; -585.741
502.458;   81.544;   89.849;  370.273
502.742;   38.335; -180.138; -191.751
503.026;  104.503; -412.147; -254.734
503.310;  148.999; -437.159; -375.713
503.593;   97.529; -464.147; -325.735
503.877;  137.476; -232.133; -156.760
504.161;  184.552;    2.847;  -50.724
504.444;  143.637; -841.158; -710.716
504.728;  416.006; -487.164; -522.704
505.012;  664.001; -257.150;  -76.729
505.295;  511.711; -417.161; -212.711
505.579;  508.580; -256.156; -496.719
505.862;  673.520; -555.145; -333.738
506.146;  632.326; -681.159; -758.714
506.429;  389.702;  568.841;  461.286
506.713;   59.623; -732.151; -667.728
506.996;  293.567;   90.846;  295.278
507.280;  319.651; -633.165; -474.703
507.563;  224.511; -469.155; -261.721
507.847;   86.951; -423.153; -112.724
508.130;   81.212; -665.161; -456.711
508.413;  102.458; -758.167; -577.700
508.697;  218.933; -151.167;   12.300
508.980;  130.352; -422.153; -312.724
509.263;   -6.193; -466.155; -450.720
509.547;   45.825; -124.150;   82.271
509.830;   47.139; -172.160;  140.289
510.113;   98.854;  128.844;  298.281
510.396;   36.033; -530.152; -300.725
510.680;  232.646; -818.145; -812.738
510.963;  867.572;  184.846;  180.277
511.246;  760.233; -493.150; -357.730
511.529;  306.301; -482.145;  -83.739
511.812;  343.397; -250.134;   10.241
512.095;  233.070; -740.151; -396.728
512.378;   65.133; -317.147; -245.736
512.661;   25.218; -703.137; -623.753
512.944;   24.574; -750.142; -637.744
513.227;   73.865; -170.137; -171.752
513.510;   39.160; -479.144; -671.741
513.793;   48.416; -485.140; -435.747
514.076;  146.982;  -43.127;  -39.771
514.359;  110.093; -294.149; -135.732
514.642;   71.227; -442.142; -567.744
514.925;  681.039;  581.860;  561.253
515.208;  892.969; -498.134; -443.758
515.491;  595.258; -276.133; -182.761
515.773;  353.013; -410.143; -337.742
516.056; 1866.424;  249.864;  409.246
516.339; 2627.378; -754.136; -652.755
516.622; 2091.981; -518.150; -488.730
516.904; 1625.645;  882.857;  975.257
517.187;  768.764; -730.138; -523.752
517.470;  429.294; -568.143; -510.743
517.752;  410.881; -624.136; -470.756
518.035;  322.801; -708.139; -725.749
518.318;  325.529; -799.136; -744.755
518.600; 2133.611; -300.132; -325.762
518.883; 2964.826;  310.858;   88.256
519.165; 1467.932; -585.138; -426.751
519.448;  413.311;  -61.132;  -19.762
519.730;  233.265; -573.126; -415.773
520.013;  371.079;  588.867;  664.240
520.295; 1123.124;  -94.134;  -15.759
520.578; 2432.249; -335.131; -305.764
520.860; 2722.736; -254.132;   56.238
521.143; 1397.858; -763.135; -584.756
521.425;  484.077; -251.125; -279.775
521.707;  657.457; -622.127; -380.771
521.990; 1590.158; -199.127;  167.229
522.272; 1831.018; -116.140;   -4.748
522.554;  912.664; -237.143; -157.742
522.836;  455.822;  -24.134;   99.241
523.119;  259.451; -496.148; -189.734
523.401;  180.731; -448.130; -314.766
523.683;   87.769; -865.137; -693.753
523.965;  268.387;  408.862;  260.248
524.247;  261.199;   54.878;  170.220
524.529;  195.524; -451.134; -367.759
524.812;  344.483;   -3.130;  191.234
525.094;  770.861; -773.138; -631.751
525.376; 1217.312; -143.124;   78.223
525.658;  753.326; -441.136; -339.754
525.940;   30.321; -805.131; -671.764
526.222;   56.879; -188.136;  -88.755
526.504;  137.743; -190.131;   32.237
526.786;  265.776; -960.133; -647.760
527.068;  409.242; -124.123;  -67.778
527.349;  196.072; -865.137; -774.754
527.631;  143.236; -137.132;   22.238
527.913;  130.832; -664.127; -450.771
528.195;  138.795; -761.125; -639.774
528.477;  228.769;  -93.134;  -30.758
528.759;  115.133; -648.130; -522.766
529.040;   51.466; -569.123; -293.778
529.322;   60.423; -235.125;  -10.774
529.604;  179.885;  -47.130;   93.233
529.886;  175.789; -546.126; -302.773
530.167;  155.476;  232.870;  192.235
530.449;   46.033;    1.853;   63.265
530.731;   29.123; -572.122; -459.779
531.012;   50.144; -513.120; -216.784
531.294;   69.008; -118.116;  -43.792
531.575;  141.177;  290.875;  538.225
531.857;   45.439; -548.135; -266.757
532.138;  106.285; -113.141;   40.254
532.420;  217.960;  294.865;  403.244
532.701;  291.129; -722.133; -751.760
532.983;  416.482;  232.867;  182.239
533.264;  179.912; -243.126;  175.228
533.546;  -24.896; -491.136; -508.755
533.827;   56.750;  173.867;   -1.759
534.109;   64.964; -352.135;  -80.757
534.390;  107.590; -725.132; -582.762
534.671;  266.685; -270.135;  -82.756
534.953;  154.219; -751.123; -611.779
535.234;   24.793; -426.117; -255.789
535.515;  -82.798; -891.119; -735.785
535.796;  -15.097; -431.128; -193.770
536.078; -111.714;-1050.124; -904.777
536.359;   13.544;  -22.123;    3.221
536.640;   -5.878; -480.125; -197.774
536.921;  175.140;  225.871;  143.232
537.202;  354.933;  -87.138;  -16.751
537.483;  439.773;  251.869;  377.236
537.764;  162.002;   17.870;   98.235
538.045;  -35.132; -543.134; -371.758
538.326;  -26.908; -596.129; -447.768
538.607;   10.533; -686.127; -476.771
538.888;  168.635;   98.879;    5.218
539.169;  184.779; -704.122; -535.781
539.450;  325.514;  236.871;   16.233
539.731;  229.464; -361.121; -182.783
540.012;  143.944;  199.880;  412.216
540.293;  117.756;   82.876;  158.224
540.574;   34.979; -895.113; -717.796
540.855;  461.012;  435.879;  377.218
541.136;  547.452;   47.878;  139.220
541.416;  266.458; -161.130; -220.766
541.697;  177.644; -274.131; -170.763
541.978;  946.212; -270.135; -315.757
542.259; 1177.658; -211.127; -236.771
542.539;  587.377; -191.116; -186.790
542.820;  193.277;  461.875;  480.225
543.101;  148.698;  -52.145;  -77.738
543.381;   58.483; -638.127; -591.771
543.662;  265.955;  159.873; -254.771
543.942;  511.829; -751.127; -830.770
544.223;  973.553;  193.878;  161.219
544.504;  610.336; -275.124; -182.777
544.784;  548.264; -592.126; -408.773
545.065; 1532.055;  104.884; -254.791
545.345; 1816.302;  227.881;   14.215
545.626; 1192.078;  -14.113; -108.796
545.906;  796.951;   77.869;   98.235
546.186;  319.369;   92.874;  -95.773
546.467;  174.139;   99.877;  -95.778
546.747;  307.751;  264.884;  327.210
547.027;  340.610;   91.876;  111.223
547.308;  293.578; -376.127; -530.770
547.588;  373.068;  299.871;  371.232
547.868;  195.352;  458.870;  588.235
548.149;  208.838;  609.885;  593.207
548.429;  119.881; -347.127; -299.771
548.709;  163.768; -645.120; -461.784
548.989;  428.412;   84.882;   88.213
549.269; 1890.959;   10.868;  139.239
549.550; 4298.443;  215.877;  117.222
549.830; 3862.546; -758.111; -556.799
550.110;  795.828; -468.110; -320.801
550.390;  770.023; -128.122;  -56.779
550.670; 1046.224; -868.114; -783.795
550.950;  729.787; -509.121; -471.782
551.230;  182.008;  549.879;  460.218
551.510;   -5.914; -381.121; -326.782
551.790;   42.011; -173.109; -127.803
552.070;  266.363;  940.877; 1181.223
552.350;  364.256; -492.119; -377.786
552.630;  524.456;   -2.121;   77.219
552.909;  329.281;  181.884;   73.209
553.189;  213.441;  -49.132;   33.237
553.469;  167.906; -703.119; -514.786
553.749;  167.284; -469.127; -357.772
554.029;  141.897;   33.883;  -24.790
554.308;  145.117; -154.115;  -37.794
554.588;   59.252; -196.128; -204.770
554.868;   75.238; -366.121;  -47.782
555.147;  137.064; -114.115;  -46.793
555.427;  534.183; -260.116; -250.792
555.707; 3452.912; -284.115; -200.793
555.986; 4160.674; -719.111; -538.800
556.266; 2218.975;   23.884;   72.210
556.546;   93.336; -888.121; -675.782
556.825;  236.321; -657.114; -556.794
557.105; 1584.499; -125.128;   17.230
557.384; 1847.880;  122.884;  187.209
557.664;  716.283; -717.116; -508.792
557.943;   92.987; -557.121; -411.782
558.222;  147.315; -345.118; -344.788
558.502;  255.416; -116.115;  -76.793
558.781;  474.261;  194.885;  499.208
559.061;  383.590; -232.118; -227.788
559.340;  256.295;  302.883;  353.211
559.619;  619.125;   93.884;  148.210
559.899;  892.746; -239.117; -266.789
560.178;  833.640; -778.115; -593.793
560.457; 2822.473; -623.117; -562.790
560.736; 3891.175; -472.111; -482.800
561.015; 2577.372; -500.128; -502.769
561.295;  371.581;  180.893;  215.193
561.574;  336.988;  119.885;  116.207
561.853;  471.340;  274.891;  303.197
562.132;  446.943;  -45.114;  182.206
562.411;  411.256;  396.879;  553.219
562.690;  123.186; -592.115; -458.792
562.969;  138.860;  472.888;  630.203
563.248;  497.479; 2966.878; 2487.219
563.527;  244.600; -290.111; -408.800
563.806;  359.031; -650.127; -521.771
564.085;  356.171; -297.105; -206.810
564.364;  220.850; -594.117; -405.790
564.643;  440.882; -276.121; -223.781
564.922; 1670.434;  221.890;  397.198
565.201; 1639.788; -640.109; -700.803
565.479;  715.610; -297.115; -219.792
565.758;  290.525; -810.128; -712.770
566.037;  434.414; -155.109; -100.803
566.316;  221.230; -286.116;  -28.791
566.595;   49.712;  -17.115;  -12.793
566.873;   93.877; -166.111;  -79.801
567.152;  -53.216; -490.113; -590.797
567.431;   24.276; -113.116;    6.210
567.709;   14.131; -344.107; -212.807
567.988;  222.921; -810.114; -769.794
568.266;  465.287; -160.115;  -68.793
568.545;  340.568; -644.100; -514.819
568.824;  533.759;  160.885;  356.208
569.102;  478.071; -351.114; -235.794
569.381;  208.233; -492.116; -407.792
569.659;  -44.644; -553.113; -553.796
569.938;   21.802; -743.122; -465.780
570.216;   97.617; -225.109; -225.804
570.494;  -18.676; -632.114; -572.795
570.773;   31.310;  202.879;  114.218
571.051;    8.791; -373.123; -357.778
571.330;   47.603; -221.113; -174.796
571.608;   33.586; -181.098; -173.823
571.886;  -60.906; -671.111; -581.799
572.164;  -60.112; -739.121; -621.782
572.443;  -39.925; -562.105; -512.811
572.721;  -31.327; -399.117; -289.790
572.999;  -18.033; -280.117; -168.788
573.277;   99.918;  379.894;  620.191
573.555;  257.171;   94.894;   37.190
573.834; 1177.566;  -86.117; -114.788
574.112; 1392.484;  880.893;  811.193
574.390;  415.701; -143.111;  -96.801
574.668;   13.611;  -91.112;  -61.797
574.946;  -13.154; -165.106; -187.810
575.224;   23.788;   71.891;  -16.803
575.502;  -19.347; -200.116; -204.791
575.780;  -87.188; -767.112; -829.798
576.058;  199.700; 1589.889; 1004.200
576.336;  -11.320; -210.110; -129.801
576.614;  -53.338; -511.112; -340.798
576.891;   43.317; -711.115; -823.794
577.169;  425.325; -158.108; -285.805
577.447;  512.008;  169.893;  202.193
577.725;  272.316;  629.888;  854.201
578.003;   12.639;  -71.112; -371.798
578.280;  103.509; -208.104; -242.812
578.558;   67.916; -450.115; -422.793
578.836;  146.849; -210.114; -145.795
579.114;   61.135; -630.112; -670.797
579.391;   81.543;   -6.117;  -18.789
579.669;  -73.632; -595.114; -704.794
579.947;  174.780; -326.107; -127.806
580.224;  290.405; -692.107; -524.806
580.502;  292.609;  127.893;   76.193
580.779;   11.399;  -42.117;   75.210
581.057;  -64.583; -584.109; -470.804
581.334; -111.401; -726.102; -695.815
581.612;   54.822;   54.895;  511.190
581.889;  -10.538;  -83.101; -129.818
582.167;  -34.374; -298.099; -190.821
582.444;  -87.043; -845.102; -814.817
582.721;  104.682;  657.899;  715.183
582.999;   52.999; -326.100; -167.821
583.276;  447.121; -812.123; -713.779
583.553;  629.327; -364.102; -294.816
583.831;  196.231; -607.104; -631.812
584.108;   57.473;  349.892;  174.195
584.385;   23.248; -122.102;  -98.815
584.662;  -73.773; -651.111; -828.801
584.940;   39.626;  204.889;  204.199
585.217;  -22.570;  -73.113; -303.796
585.494;   40.560;   71.890;  118.198
585.771;  175.043; -250.109; -354.804
586.048;  445.980; -196.113;  -76.796
586.325;  280.180; -721.110; -773.801
586.602;   95.734;  230.896;  213.188
586.879;  -25.755; -499.100; -580.820
587.156;   46.122; -156.105; -331.810
587.433;  -35.720; -701.102; -667.817
587.710;   66.412;  152.888;  234.202
587.987;  284.778; -264.105; -236.811
588.264;  753.339;  315.888;  387.202
588.541; 1273.112;  -61.104;   26.187
588.818; 2436.995;   72.892;  171.196
589.095; 2120.832; -163.104; -174.812
589.371;  362.966; -459.109; -414.804
589.648;   15.184; -581.107; -437.807
589.925;   34.450; -517.114; -621.795
590.202;    2.512; -741.112; -607.798
590.478;   73.129; -166.105;  -73.811
590.755;  239.476; -241.108; -132.806
591.032; 2248.082; -741.110; -699.802
591.308; 3020.276; -732.094; -790.831
591.585; 1557.131; -573.110; -560.802
591.862;  122.031;-1056.102; -950.817
592.138;   62.374; -475.108; -474.805
592.415;  142.635; -486.104; -495.813
592.691; 1338.758;  460.896;  518.188
592.968; 1729.613; -208.098; -123.824
593.244;  821.151; -695.116; -595.790
593.521;   65.506; -105.102;  -42.817
593.797;  -18.276; -810.122; -720.780
594.074;  299.676; -611.096; -588.826
594.350;  604.987;  828.905;  729.172
594.626;  295.527; -303.111; -283.801
594.903;   84.982; -643.101; -645.817
595.179;  179.339;  243.896;  418.187
595.455;   25.635; -136.107; -150.807
595.731;    8.140;  -19.103;  -38.814
596.008;  -30.604; -464.111; -434.800
596.284;   27.323; -187.100; -242.820
596.560;   57.033; -501.093; -493.833
596.836;  178.624; -173.105;  -70.810
597.112;  313.274; -582.108; -437.805
597.388;  262.174;  -49.097;  -48.826
597.665;  120.458;  437.887;  530.203
597.941;  -60.238; -572.089; -658.839
598.217;   17.685; -323.110; -293.802
598.493;  228.469;   61.891; -204.804
598.769;  450.892; -175.100;  -50.819
599.045;  267.527; -490.108; -562.806
599.321;   44.722; -193.100; -261.820
599.597;  122.094; -355.109; -476.804
599.872;  426.837;  409.896;  429.187
600.148;  323.525;  -61.097; -172.826
600.424;  268.757;   91.893;  202.193
600.700;  211.934; -170.107; -280.807
600.976;  113.419; -442.097; -464.825
601.252;  211.490; -226.109; -272.803
601.527;  177.938; -833.104; -840.813
601.803;  131.980; -453.105; -404.812
602.079;  190.667; -124.100; -118.819
602.354;  512.143; -620.092; -531.835
602.630;  742.430; -140.113; -482.796
602.906; 2106.262; -910.101; -863.818
603.181; 5944.456; -627.119; -534.786
603.457; 5063.798;   98.903; -278.826
603.733;  750.964; -605.120; -626.783
604.008;  883.771; -245.106; -164.810
604.284; 2749.658; -636.101; -580.817
604.559; 2431.616;   -3.112;  -42.799
604.835;  437.124; -163.105; -225.810
605.110;  356.377; -732.099; -892.821
605.385;  629.585;  224.907;  267.167
605.661;  572.565; -625.095; -729.829
605.936;  997.803; -664.108; -737.806
606.211;  877.297;  -17.103; -170.815
606.487;  175.270; -329.114; -376.794
606.762;    4.756; -791.119; -745.786
607.037;  -21.301; -501.105; -433.810
607.313;  -50.217; -589.096; -574.828
607.588;    1.171; -375.106; -137.810
607.863;   39.712;  -28.101; -143.818
608.138;  173.959;  513.890;  516.198
608.413;   17.306; -576.099; -592.822
608.688;   44.999; -203.108; -267.805
608.964;  167.040; -509.106; -218.809
609.239;  222.797; -107.105; -212.810
609.514;  246.380;  281.895;  240.188
609.789;  593.284; -187.104; -716.812
610.064;  787.882; -435.096; -609.827
610.339;  787.666; -855.109; -799.804
610.614; 1027.122; -131.100; -315.820
610.889;  599.655;  215.895;  107.188
611.163;   42.106; -407.104; -591.812
611.438;   71.521;   81.886; -167.794
611.713;   -8.317; -467.101; -499.817
611.988;   54.936; -144.101; -328.818
612.263;  -35.976; -771.102; -717.815
612.538;  205.355;  385.887;  251.204
612.812;  158.598; -832.100; -911.820
613.087;  117.436; -358.098; -338.823
613.362;  -43.965; -497.107; -557.807
613.637;   55.468;  261.897;  138.186
613.911;  -20.157; -256.092; -345.835
614.186;   95.883; -249.107; -292.807
614.460;  581.887; -842.081; -758.854
614.735;  690.210;  -55.087;  -17.843
615.010;  153.050;   43.912;  -82.841
615.284;  243.473;  360.892;  246.195
615.559;  321.917; -792.092; -955.835
615.833;  260.629;  -76.099;  -87.822
616.108;   -5.021; -225.090; -390.837
616.382;  141.137;  274.913;  402.156
616.656;  139.879; -241.090; -232.837
616.931;  454.504; -785.099; -700.822
617.205;  945.363; -973.104; -979.813
617.480;  864.500;  -91.125;    6.225
617.754;  131.423; -396.125; -128.774
618.028;   11.293; -369.129; -382.768
618.302;   68.472;   73.892;  -25.805
618.577;  -56.306; -371.103; -518.815
618.851;  -58.588; -399.109; -600.803
619.125;  -42.426; -335.134; -378.759
619.399;  -33.212; -244.104; -374.813
619.673;  -49.641; -330.115; -515.792
619.947;  -54.926; -333.114; -448.795
620.222;   -6.597; -198.110; -204.801
620.496;   -5.213;  -47.121;  -96.782
620.770;   11.179; -187.122;  -93.781
621.044;  203.797;  323.895;  346.190
621.318;  679.940; -653.120; -614.783
621.592;  593.313; -430.121; -409.783
621.866;  309.867; -476.112; -572.799
622.140;   16.203; -207.116; -356.791
622.413;   50.571;  138.889;  112.200
622.687;  -48.191; -746.101; -492.817
622.961;   25.172; -130.108; -143.805
623.235;  -60.928; -633.111; -661.800
623.509; -103.821; -816.105; -848.811
623.783;   11.831;  -12.107;   48.193
624.056;   -7.534; -254.120; -280.783
624.330;   44.511;   63.888;   -3.797
624.604;   30.675; -271.116; -355.790
624.877;   67.508;  180.890;   26.198
625.151;   33.843; -249.114; -238.794
625.425;  -34.835; -150.103; -283.814
625.698;  -56.874; -367.119; -374.785
625.972;  -92.015; -799.110; -765.802
626.245;   72.626;  685.884;  484.210
626.519;  -47.505; -426.120; -340.784
626.792;  -21.791; -192.107; -380.807
627.066;  -87.503; -485.122; -662.779
627.339;  -95.744; -736.110; -663.802
627.613;   54.494;  351.880;  148.216
627.886;  -51.763;  187.891; -612.803
628.160;  -14.710;  312.880; -161.783
628.433;  -93.397; -695.125; -703.775
628.706;  -82.380; -517.120; -615.784
628.979;   42.335;  296.876;  117.223
629.253;  -94.170; -785.119; -833.786
629.526;  314.163; -334.126; -253.772
629.799;  301.642; -641.123; -479.778
630.072;  138.820; -497.128; -516.769
630.346;  -80.049;-1115.116;-1080.790
630.619;  414.310; -467.107; -545.808
630.892;  568.298;  709.889;  593.200
631.165;  315.263;  790.896;  679.187
631.438;  -99.786;-1092.112;-1055.798
631.711;   58.295;  453.877;  257.221
631.984;  -61.803; -523.117; -624.789
632.257;  -66.232; -636.117; -681.789
632.530;  -46.099; -412.119; -433.785
632.803;   34.016; -109.115;    7.207
633.076;  -72.337; -360.123; -422.777
633.349;   13.624;  173.872;  121.231
633.622;  -38.725; -187.119; -240.785
633.895; -129.909; -903.120; -823.783
634.167;  -79.810; -496.126; -525.773
634.440;  -11.292;  -19.116; -137.792
634.713;  -10.946;  -22.119; -120.786
634.986;   86.214;  593.871;  453.233
635.258;  -80.810; -507.115; -597.793
635.531;  107.089;  742.882; -343.788
635.804;  -28.755; -303.117; -318.789
636.077;  -93.071; -830.116; -852.791
636.349;  -13.087; -586.115; -474.793
636.622;  376.337; 1695.874; 1392.228
636.894;  209.296; -474.120; -909.784
637.167;  122.056; -836.127; -789.771
637.439;   30.752; -278.128; -213.770
637.712;  -51.436; -312.126; -293.772
637.984;  -87.845; -635.116; -707.791
638.257;  379.839;  515.877;  488.222
638.529;  515.204; -881.125; -924.776
638.802;  235.795; -508.128; -449.769
639.074; -110.447; -927.122; -952.781
639.346; -119.210; -942.135; -930.757
639.619;    0.825;  -79.142; -319.744
639.891;   -4.303;  -83.122; -168.779
640.163;  -64.851; -689.122; -756.780
640.435;   43.401;  273.878;  103.220
640.708;    6.852;  -72.122; -132.780
640.980;  -24.296; -366.122; -362.781
641.252;  193.531;  -25.121;  -71.781
641.524; 1730.483;  580.879;  573.219
641.796; 1707.835;-1094.121; -907.782
642.068;  291.262; -191.121; -300.782
642.340;  -37.537; -486.121; -566.783
642.613;   48.740;  294.880;  323.217
642.885;  -97.483; -787.120; -878.783
643.157;  -50.181; -810.120; -658.784
643.428;   59.596;  170.880;  218.216
643.700;  -65.853; -498.120; -425.784
643.972;  -23.626;  -16.119; -133.785
644.244;  -98.924; -474.119; -559.785
644.516;  -62.147; -250.119; -114.786
644.788;   64.380;  662.881;  548.214
645.060;  -15.168;  -12.119; -124.786
645.332;  -85.592; -525.118; -535.787
645.603;   45.035;  479.882;  342.213
645.875;  -79.413; -334.118; -369.787
646.147;  175.839; 1487.882; 1242.212
646.418;  -69.159; -931.117; -918.788
646.690;  107.793; -714.117; -715.789
646.962;   35.494; -413.117; -451.789
647.233;   -1.229;   15.883;   11.211
647.505;  -87.077; -595.117; -475.790
647.776;   25.275;  328.884;  229.210
648.048;  -16.873; -248.116; -418.790
648.320;  -81.521; -752.116; -679.791
648.591; -158.395;-1055.116; -958.791
648.862;  -86.643; -505.116; -577.792
649.134;    8.009;  115.885;  198.208
649.405;  -34.239; -661.115; -618.792
649.677;  -56.312; -475.115; -598.793
649.948;  -10.235; -181.115; -296.793
650.219;   -3.259;  -37.115; -147.793
650.491;  -80.932; -431.114; -520.794
650.762; -116.480; -705.114; -731.794
651.033;  -95.778; -437.114; -424.795
651.304;  -94.426; -743.114; -728.795
651.576;  -59.774; -680.114; -645.795
651.847;  -33.373; -250.113; -140.796
652.118;  -23.496;  -32.113; -189.796
652.389;  -91.419; -639.113; -722.796
652.660;  -25.317; -147.113;  -89.797
652.931; -130.015; -897.112; -871.797
653.202;  -67.738; -382.112; -541.798
653.473;  -58.087; -633.112; -533.798
653.744;  136.265; -595.112; -590.798
654.015;  135.792; -356.112; -303.799
654.286;  -54.356; -642.111; -663.799
654.557;  -68.079; -586.111; -521.799
654.828; -152.427;-1114.111;-1088.800
655.099;  -70.426; -404.111; -291.800
655.370;  -98.199; -427.111; -543.801
655.641; -107.722; -656.110; -714.801
655.911;  -95.295; -618.110; -638.801
656.182;   64.432;  437.890;  387.198
656.453;  105.634;  830.890;  746.198
656.724;  -64.590; -466.110; -426.802
656.994;  -76.663; -553.109; -568.803
657.265; -115.536; -862.109; -873.803
657.536;  -69.734; -500.109; -377.804
657.806; -106.332; -561.109; -593.804
658.077; -137.155; -866.109; -950.804
658.347;  -72.679; -523.108; -598.805
658.618; -114.127; -646.108; -694.805
658.888;  -25.550;  -41.108;  112.195
659.159;  -78.198; -432.108; -548.806
659.429;  -14.946; -292.108; -349.806
659.700;    4.805; -435.107; -390.807
659.970;  -10.993; -370.107; -359.807
660.241;   19.759; -754.107; -921.807
660.511;  468.636; -147.107; -174.808
660.781;   80.713; -793.106; -748.808
661.052;  -49.385; -222.106; -381.808
661.322;  -19.984;   21.894;   -9.809
661.592;    9.293;  257.894;  148.191
661.862;  -61.880; -369.106; -382.810
662.133;  -93.728; -551.105; -502.810
662.403; -118.501; -770.105; -676.810
662.673;  -54.549; -256.105; -213.811
662.943;  -95.648; -612.105; -551.811
663.213;   -0.121;  -85.105;  -81.811
663.483;  -91.244; -593.104; -568.812
663.753;  -38.667; -194.104; -152.812
664.023;   -8.315;   68.896;  -32.813
664.293;  -51.338; -319.104; -126.813
664.563; -110.987; -694.104; -648.813
664.833; -122.535; -743.103; -608.814
665.103; -132.458; -730.103; -793.814
665.373; -107.306; -766.103; -806.814
665.643;  -92.129; -863.103; -918.815
665.913;   34.173; -534.103; -714.815
666.182;  114.724; -685.102; -719.816
666.452;  235.151;  -22.102;  -89.816
666.722;  -41.722; -724.102; -784.816
666.992; -126.570; -948.102; -921.817
667.261; -100.093; -824.102; -808.817
667.531;  206.559;  134.899;   45.183
667.801;  554.185; -440.101; -412.818
668.070;  240.237;  714.899;  697.182
668.340; -108.811; -883.101; -840.819
668.609;  103.166;  588.900;  301.181
668.879;  -71.982; -490.100; -558.819
669.149;  -83.230; -539.100; -516.820
669.418; -106.254; -698.100; -726.820
669.688;  -28.377; -482.100; -666.820
669.957;   64.700; -423.099; -546.821
670.226;  -35.548; -268.099; -331.821
670.496;  -96.271; -431.099; -635.822
670.765;  -67.319; -418.099; -501.822
671.034; -136.118; -872.099; -828.822
671.304;  -17.966;   55.902; -111.823
671.573; -158.839;-1085.098; -957.823
671.842;   48.288; -380.098; -294.823
672.112;   25.940; -692.098; -586.824
672.381;   -5.958; -239.098; -214.824
672.650; -132.132;-1005.097;-1021.825
672.919;  -88.380; -631.097; -507.825
673.188;  -93.578; -681.097; -878.825
673.457; -156.951;-1101.097;-1143.826
673.726;  -87.424; -579.096; -646.826
673.995;  -43.147; -533.096; -479.826
674.265;  -18.196; -263.096; -333.827
674.534;   10.756; -183.096; -235.827
674.802;   -3.592; -618.096; -703.828
675.071;  897.510; -886.095; -801.828
675.340; 3487.962; -464.095; -339.828
675.609; 1168.738;  103.905;   82.171
675.878;   47.715; -949.095; -893.829
676.147;   32.342;  -26.095;   -8.829
676.416;   72.994; -210.094; -294.830
676.685;  668.371; 1000.906; -622.830
676.953;   65.673; -603.094; -452.831
677.222;  -23.751; -193.094; -273.831
677.491;  -23.774;  -24.094; -127.831
677.759;   -8.797;   11.907;  172.168
678.028;  -29.845; -279.093; -222.832
678.297;   -0.418;   71.907;  197.168
678.565; -140.766; -898.093; -944.833
678.834;  -50.065; -311.093; -268.833
679.102;  -67.013; -411.092; -391.834
679.371; -145.611; -898.092; -727.834
679.639; -133.134; -797.092; -786.834
679.908; -123.857; -794.092; -724.835
680.176; -150.080; -895.091; -941.835
680.445;  -57.754; -346.091; -352.835
680.713;   -8.127;  -58.091;  -23.836
680.982;  -98.225; -523.091; -525.836
681.250;  -98.873; -578.091; -507.837
681.518; -102.846; -534.090; -751.837
681.787;  -25.519; -204.090; -167.837
682.055;  -66.293; -490.090; -422.838
682.323; -150.316; -993.090; -992.838
682.591;   12.586; -216.090; -538.838
682.859;   79.413;    9.911;  -35.839
683.128;   15.190;  232.911;  497.161
683.396; -167.258;-1102.089;-1122.840
683.664;  -41.732; -241.089;   21.160
683.932;    6.445;  144.911;  -76.840
684.200;  -80.103; -576.088; -320.841
684.468;  -25.126;  -73.088; -124.841
684.736;  -38.774; -214.088; -175.841
685.004; -119.947;-1024.088; -982.842
685.272;  -57.696; -880.088; -774.842
685.540;  -68.819; -499.087; -557.843
685.808;  -87.092; -651.087; -682.843
686.076; -105.315; -894.087; -969.843
686.343;  -57.413; -601.087; -815.844
686.611;   27.539; -195.087; -224.844
686.879;  433.265; -530.086; -553.844
687.147; 3017.492; -483.086; -480.845
687.414;  838.994;  -12.086; -169.845
687.682;  -11.679; -658.086; -757.846
687.950;  287.448;  259.915;  263.154
688.217;   -2.000; -792.085; -760.846
688.485;   -3.574; -632.085; -636.847
688.753;  476.028;  -11.085; -102.847
689.020;  136.280; -820.085; -851.847
689.288; -100.218; -853.084; -787.848
689.555;  -29.966; -195.084; -148.848
689.823;  -42.764; -241.084; -345.849
690.090;  -83.463; -546.084; -651.849
690.358; -153.011; -877.084; -897.849
690.625;   18.116;  120.917;   45.150
690.892;  -85.107; -403.083; -369.850
691.160;   -9.430;   72.917;  -35.850
691.427;    6.546;  141.917;  130.149
691.694; -126.252; -855.083; -929.851
691.962; -142.025;-1177.082;-1060.852
692.229;   14.502;  127.918;   56.148
692.496;   83.329;  130.918;  -49.852
692.763;   20.981; -164.082; -201.853
693.031;  -62.943; -739.082; -716.853
693.298;  -43.491; -509.081; -368.853
693.565;  290.811; -155.081; -163.854
693.832; 1150.463;   -5.081;   -9.854
694.099;  119.115; -643.081; -642.855
694.366;  -56.383; -882.081; -896.855
694.633;  -34.557; -920.080; -633.855
694.900;  746.845; 4367.920; -114.856
695.167;  396.272; -214.080; -380.856
695.434;  100.474; -646.080; -623.856
695.701;  219.276;  121.921;  -61.857
695.968;  455.628; -365.079; -361.857
696.234; 1035.429; -415.079; -646.858
696.501;10559.056; -776.079; -614.858
696.768; 5214.933; -554.079; -617.858
697.035;  335.960; -632.078; -667.859
697.302;   40.162; -448.078; -552.859
697.568;    5.439; -458.078; -497.859
697.835;  -35.610; -683.078; -624.860
698.102;  -16.308; -498.078; -407.860
698.368;   81.669;  384.923;  396.139
698.635;  -35.504;  -47.077; -424.861
698.901;  -20.252; -240.077; -348.861
699.168;   63.025; -534.077; -456.862
699.435;   69.626;  -72.077;  -13.862
699.701; -100.847; -868.076; -764.862
699.968;  -50.095;  144.924; -441.863
700.234;  -91.143; -783.076; -822.863
700.500;  -49.366; -448.076; -539.864
700.767;   10.836;   -1.075;   26.136
701.033; -135.188;-1015.075; -963.864
701.299;  -44.061; -450.075; -483.865
701.566;  123.441;  950.925;  763.135
701.832;   25.718;  -31.075;  -76.865
702.098;  -88.480;-1054.074;-1034.866
702.365;  -82.403;-1098.074;-1030.866
702.631;  -33.177;-1038.074;-1063.867
702.897; 1320.150; -765.074; -676.867
703.163; 2120.177;  348.926;  254.133
703.429;  163.129; -256.073; -273.868
703.695;  -36.644; -796.073; -792.868
703.961;   30.358; -214.073; -210.868
704.227;  -60.141; -630.073; -725.869
704.493;  133.786;  613.927;  510.131
704.759;  -21.762; -565.072; -540.870
705.025;   48.690; -203.072; -194.870
705.291;    0.867; -666.072; -562.870
705.557;  197.593;  719.928;   34.129
705.823;   35.220; -742.072; -694.871
706.089;  155.172; -307.071; -326.871
706.355;  381.624; -315.071; -244.872
706.620; 6059.226; -776.071; -729.872
706.886; 7978.153; -309.071; -362.873
707.152;  733.404; -818.070; -973.873
707.418;  -30.394;-1153.070;-1186.873
707.683;   -9.842; -550.070; -530.874
707.949;  -39.315; -547.070; -578.874
708.215;    3.962; -129.070; -207.874
708.480;  -11.636; -520.069; -420.875
708.746;   97.140;   68.931;   28.125
709.011;  -60.408; -578.069; -612.876
709.277;  -74.281; -538.069; -543.876
709.542;  -47.879; -428.069; -387.876
709.808;   14.298;  -59.068;   89.123
710.073;  -86.650; -577.068; -695.877
710.339;  -20.799; -242.068; -228.877
710.604;   64.653; -780.068; -845.878
710.869;  293.555; -277.068; -366.878
711.135;  -77.043; -715.067; -628.879
711.400;  -76.966; -507.067; -608.879
711.665;  -66.189; -404.067; -479.879
711.931;  -85.863; -661.067; -677.880
712.196; -102.886; -876.067; -954.880
712.461;   95.491; -402.066; -490.880
712.726;  113.968; -727.066; -771.881
712.991;  -92.530; -647.066; -664.881
713.256;  -41.378; -350.066; -332.882
713.521;  -54.502; -417.065; -381.882
713.787;  -59.825; -454.065; -472.882
714.052;  -27.098; -214.065; -400.883
714.317;  -89.096;-1045.065; -981.883
714.581; 1107.706; -374.065; -268.883
714.846; 1438.583; -822.064; -888.884
715.111;  150.509;  261.936;  257.116
715.376;  -14.464;  -86.064; -223.885
715.641;  -20.437; -365.064; -367.885
715.906;  268.640;   15.936; -551.885
716.171;  139.092;  221.937;  209.114
716.436;   27.919;  -78.063; -104.886
716.700; -106.180; -818.063; -692.886
716.965; -117.178; -794.063; -807.887
717.230;  -67.351; -339.063; -392.887
717.494;  -33.824;  -40.062; -134.888
717.759;  -98.447; -784.062; -640.888
718.024;   15.305;  269.938;  250.112
718.288;   60.556;  685.938;  395.111
718.553; -135.092; -803.062; -977.889
718.817; -132.465; -883.061; -899.889
719.082;  -44.038; -115.061; -125.890
719.346; -139.236;-1000.061; -947.890
719.611;  -36.009; -300.061; -255.891
719.875;  -91.233; -568.060; -537.891
720.140;  -63.806; -453.060; -603.891
720.404;   49.971; -136.060; -249.892
720.668;  785.173; -475.060; -411.892
720.933;  291.400;  146.940;  137.108
721.197; -116.324; -667.059; -600.893
721.461; -135.272; -851.059; -826.893
721.725;   -0.370;  -21.059; -250.894
721.990;  -61.243; -284.059; -204.894
722.254;  -22.791;  -26.059; -108.894
722.518;  -63.564; -286.058; -442.895
722.782;  -88.613; -743.058; -594.895
723.046;  123.139;  614.942;  570.105
723.310;   32.166;  374.942;  210.104
723.574;  -96.757; -654.058; -614.896
723.838; -107.630; -576.057; -642.897
724.102;  -39.053; -226.057; -239.897
724.366; -141.927;-1032.057; -978.897
724.630;  -98.300; -749.057; -571.898
724.894;  -77.723; -722.057; -514.898
725.158;  -13.771;   38.944; -295.898
725.422;  -52.919; -394.056; -327.899
725.685;  -46.667; -441.056; -349.899
725.949;  -74.041; -566.056; -519.900
726.213;  -82.289; -732.056; -811.900
726.477;  146.938;-1020.055; -933.900
726.740;  134.140; -274.055; -104.901
727.004;  346.642; -384.055; -510.901
727.268; 3501.194; -442.055; -400.901
727.531;  909.270; -961.055; -775.902
727.795;  -42.478; -713.054; -673.902
728.059;  -50.526; -552.054; -557.903
728.322;  -90.499; -841.054; -669.903
728.586;   30.028; -692.054; -701.903
728.849;  -76.070; -695.053; -756.904
729.112; -114.369; -812.053; -912.904
729.376; -121.992; -959.053; -905.904
729.639;  -78.165; -536.053; -536.905
729.903;  -97.113; -733.053; -699.905
730.166;  -49.911; -437.052; -399.906
730.429;  -13.659; -317.052; -468.906
730.693;  -51.408; -355.052; -894.906
730.956;  218.019;  810.948;  651.093
731.219;  639.146; -310.052; -103.907
731.482;   98.273;-1003.051; -894.907
731.745;   85.400; -794.051; -935.908
732.009;   15.602;  -30.051;   50.092
732.272;  -93.172; -904.051; -771.909
732.535;  -51.895; -300.051; -310.909
732.798; -161.443;-1083.050;-1166.909
733.061;  -62.566; -430.050; -456.910
733.324;   11.861;   31.950; -180.910
733.587;   61.613;  290.950;  365.090
733.850;  -65.486; -973.049;-1050.911
734.113;   35.616;   33.951;   32.089
734.376;   -0.107; -328.049; -447.912
734.639;  220.295; 1188.951; 1011.088
734.901;   40.872; -180.049; -402.912
735.164;  486.774; -883.048; -837.913
735.427; 1206.650; -166.048; -355.913
735.690;  132.902; -205.048; -234.913
735.952;  -35.521; -923.048; -925.914
736.215;  -28.044;-1113.048;-1009.914
736.478;   33.258; -771.047; -774.915
736.740;  213.334;   33.953;  129.085
737.003;  660.711; -658.047; -672.915
737.266; 3744.288;  -94.047;   46.084
737.528;  407.790; -682.047; -660.916
737.791;  318.067; -316.046; -327.916
738.053;  822.169;  465.954;  649.083
738.316;11248.420; -162.046; -136.917
738.578; 7481.972; -770.046; -736.918
738.841;  457.924; -382.046; -446.918
739.103;  188.576; -875.045; -777.918
739.365;  473.078;   79.955;  -69.919
739.628;  -21.945; -884.045; -805.919
739.890;  -24.969; -758.045; -710.919
740.152;  -46.492; -692.044; -754.920
740.414;  -29.390; -408.044; -359.920
740.677;  -50.663; -785.044; -634.921
740.939;  -35.586; -587.044; -487.921
741.201;  246.991; -432.044; -572.921
741.463;   32.417; -689.043; -745.922
741.725;    1.344;  -21.043; -199.922
741.987;   43.296;  220.957;  116.078
742.249;    5.598; -751.043; -859.923
742.511;  182.950; -703.043; -794.923
742.773;   17.052; -546.042; -546.924
743.035;  135.478;  796.958;  533.076
743.297;  -48.195; -963.042;-1013.924
743.559;  704.407; -278.042; -262.925
743.821;   46.034; -735.042; -744.925
744.083;   14.586;  -44.041; -149.925
744.345;  -95.337; -869.041; -892.926
744.607;   57.714;   75.959;  122.074
744.868;  -42.684; -490.041; -554.927
745.130; -119.482; -994.041;-1008.927
745.392;   40.245;   -1.040;  -44.927
745.653;  -11.328; -411.040; -378.928
745.915;  157.249;  896.960;  631.072
746.177;   60.075;   35.960;  -43.928
746.438;   -0.923; -428.040; -543.929
746.700;  -45.721; -947.039; -988.929
746.961;    3.606; -659.039; -740.930
747.223;  124.558; -190.039;  -74.930
747.484;   85.010; -391.039; -471.930
747.746;  142.136;  -23.038; -106.931
748.007;  113.013; -647.038; -689.931
748.269;  284.940; -468.038; -440.931
748.530;  432.692; -852.038; -638.932
748.791;  264.069; -354.038; -420.932
749.053;  426.796;  286.963;  163.067
749.314;  442.647; -236.037; -169.933
749.575;  470.899; -945.037; -905.933
749.836;  838.276; -217.037;   86.066
750.098; 2469.303;  -60.037;  -21.934
750.359;35525.780;  414.964;  555.066
750.620; 8601.132; -121.036; -220.935
750.881;  983.958; -585.036; -513.935
751.142; 1323.135; -950.036; -938.936
751.403;16971.662; -789.036; -705.936
751.664; 7057.389;-1034.035; -999.936
751.925;  487.691; -175.035; -262.937
752.186;  266.317; -298.035; -278.937
752.447;  130.544; -590.035; -445.937
752.708;   49.046; -532.035; -648.938
752.969;   12.598; -566.034; -576.938
753.230;   -4.500; -777.034; -672.939
753.491;   -3.748; -650.034; -631.939
753.751;   58.678;  109.966;   19.061
754.012;  100.605;  258.967;  181.060
754.273;   48.532; -174.033;  -71.940
754.534;    1.884; -487.033; -580.940
754.794; -101.964; -926.033; -911.941
755.055;  163.538; 1051.967;  881.059
755.316;  -46.186; -700.032; -566.942
755.576;  -19.684; -606.032; -576.942
755.837;  -57.157; -527.032; -695.942
756.097;  -43.630; -530.032; -564.943
756.358;  -72.053; -725.032; -770.943
756.618;  -41.851; -705.031; -641.943
756.879;    6.300; -254.031; -349.944
757.139; -117.223;-1098.031;-1116.944
757.400;  -56.671; -538.031; -553.945
757.660;  -20.594; -365.031; -401.945
757.920;    1.858; -266.030; -228.945
758.181;  -14.140; -468.030; -351.946
758.441;  -79.839; -870.030; -809.946
758.701;  -16.012; -308.030; -215.946
758.961;   -8.885; -220.030; -278.947
759.222;  -42.733; -574.029; -502.947
759.482;  -85.206; -683.029; -723.948
759.742;  -76.879; -706.029; -547.948
760.002;   21.047;  -83.029; -143.948
760.262;   35.424;   50.972;  182.051
760.522;  -22.349; -498.028; -574.949
760.782;  -45.622; -738.028; -612.949
761.042;  -34.445; -618.028; -573.950
761.302;   51.557;   55.972;  -18.950
761.562;   57.833; -164.027; -154.951
761.822;   72.935; -710.027; -551.951
762.082;  -49.888;-1104.027;-1093.951
762.342;   69.689; -328.027; -403.952
762.601;   70.416; -567.027; -506.952
762.861;  345.168; -281.026; -207.952
763.121;  411.019; -406.026; -411.953
763.381; 7564.496; -499.026; -485.953
763.640; 7829.473; -139.026; -307.954
763.900;  360.425; -242.026; -203.954
764.160;   80.502; -458.025; -491.954
764.419;   -7.071; -726.025; -782.955
764.679;  -61.845; -795.025; -726.955
764.939;    0.707; -124.025; -210.955
765.198;  -77.041; -608.025; -563.956
765.458;  -78.439; -710.024; -612.956
765.717;  -90.062; -454.024; -590.957
765.976;  -57.011; -428.024; -411.957
766.236;  -80.309; -475.024; -610.957
766.495;   20.693;  260.977;   73.042
766.755;  -96.105;-1090.023; -987.958
767.014;    2.772; -594.023; -665.958
767.273;  -54.176; -373.023; -397.959
767.533;  -36.700; -228.023; -307.959
767.792;  -25.073; -151.022; -188.960
768.051;  -36.921; -228.022; -276.960
768.310;  -82.844; -546.022; -650.960
768.569;   -0.417; -161.022;    4.039
768.828;  -22.090; -285.022; -363.961
769.088; -109.739;-1050.021; -942.961
769.347;  -78.412; -755.021; -599.962
769.606;  -92.110; -876.021; -857.962
769.865; -103.358;-1016.021;-1033.963
770.124;   -0.006; -411.021; -336.963
770.383;  -51.229; -778.020; -910.963
770.641;    5.897; -398.020; -400.964
770.900;  -50.276; -953.020; -846.964
771.159;  -33.649; -851.020; -951.964
771.418;    2.978; -917.020; -779.965
771.677;  147.130; -224.019; -293.965
771.936;  160.082; -794.019; -865.966
772.194; 2496.008; -465.019; -437.966
772.453;11319.360; -213.019; -391.966
772.712;  770.737;  416.982;  329.033
772.970;  116.789;   32.982;   63.033
773.229;  108.666;  -22.018;  102.033
773.488;  -84.432; -814.018; -770.968
773.746;   67.969;  296.982;  335.032
774.005;   14.271;  190.983;  -22.969
774.263;   26.573;  243.983;  177.031
774.522;  -88.100; -422.017; -548.969
774.780;  -79.023; -484.017; -417.970
775.039;  -99.171; -551.017; -531.970
775.297;  -19.995; -135.016; -351.970
775.555;  -93.593; -489.016; -612.971
775.814; -116.916; -618.016; -570.971
776.072; -124.339; -749.016; -740.971
776.330;  -93.162; -630.016; -520.972
776.589; -105.485; -703.015; -721.972
776.847; -118.934; -645.015; -624.973
777.105; -171.682;-1016.015;-1032.973
777.363;  -60.355; -459.015; -454.973
777.621; -123.128; -660.015; -717.974
777.879;  -19.676;  -42.014;   32.026
778.138;  -77.474; -554.014; -717.974
778.396;  -99.248; -585.014; -526.975
778.654; -163.421;-1015.014; -970.975
778.912;  -69.644; -269.014; -371.976
779.170; -124.117; -880.013; -803.976
779.427; -143.365; -922.013; -897.976
779.685; -144.138; -880.013; -832.977
779.943;  -93.487; -654.013; -593.977
780.201; -148.660; -964.012; -883.978
780.459; -110.933; -651.012; -610.978
780.717;  -90.131; -440.012; -390.978
780.974;  -91.079; -449.012; -490.979
781.232;  -72.803; -358.012; -338.979
781.490;  -83.126; -551.011; -472.979
781.747;  -88.924; -555.011; -476.980
782.005;   34.603;  462.989;  254.020
782.263; -164.395; -542.011;-1004.981
782.520;  -88.368; -326.011; -501.981
782.778; -170.192;-1013.010;-1051.981
783.035; -167.690; -962.010; -938.982
783.293;  -66.563; -248.010; -206.982
783.550;  -52.311; -134.010; -198.982
783.808; -129.134; -764.010; -776.983
784.065; -164.182; -745.009; -874.983
784.322;  -49.406;   25.991;  -86.984
784.580; -141.229; -915.009; -771.984
784.837; -100.727; -392.009; -466.984
785.094; -129.150; -783.009; -762.985
785.352;  -61.498; -304.008; -404.985
785.609; -106.971; -934.008; -839.985
785.866;  -71.545; -345.008; -401.986
786.123;  -84.043; -639.008; -583.986
786.380; -103.191; -665.008; -604.987
786.637;  -35.314; -225.007; -380.987
786.895;  -25.762; -456.007; -543.987
787.152;  -48.135; -135.007; -267.988
787.409;  -42.484; -123.007; -225.988
787.666;  -84.582; -299.006; -378.988
787.923; -104.255; -616.006; -695.989
788.179; -101.278; -551.006; -584.989
788.436; -110.276; -585.006; -585.990
788.693;  -33.474;  -92.006;  -87.990
788.950;  129.277; -125.005; -112.990
789.207;  180.204; -381.005; -372.991
789.464;  -53.919; -161.005; -301.991
789.720;   -6.492;  150.995;  110.009
789.977; -157.265;-1003.005; -671.992
790.234;  -23.063;   44.996;  -66.992
790.490; -150.812; -884.004;-1031.993
790.747;   -8.960;  -85.004;   22.007
791.004;  -39.133; -426.004; -348.993
791.260;  -55.406; -430.004; -560.994
791.517;  -93.204; -843.003; -788.994
791.773;  -35.152; -379.003; -342.994
792.030; -112.476; -596.003; -660.995
792.286;  -92.924; -686.003; -636.995
792.543;  -22.272;  -74.002; -159.995
792.799;  -49.845; -584.002; -382.996
793.055; -163.318;-1179.002;-1210.996
793.312;  -84.766; -827.002; -816.997
793.568;  -67.865; -746.002; -599.997
793.824;    9.162; -226.001; -284.997
794.081;   29.064; -447.001; -508.998
794.337;   66.941; -664.001; -561.998
794.593; 1376.868; -319.001; -271.999
794.849; 6308.395; -746.001; -772.999
795.105;  309.521; -270.000; -261.999
795.361;   21.398; -490.000; -457.000
795.617;  -72.650; -875.000; -945.000
795.873;  -49.375; -360.000; -407.000
796.129;  -35.950; -368.000; -306.000
796.385;  -19.825; -124.000; -156.000
796.641;   60.700;  412.000;  550.000
796.897;  -78.475; -666.000; -635.000
797.153;   72.825;  453.000;  357.000
797.409;  -96.900; -785.000; -868.000
797.665;  -73.250; -625.000; -732.000
797.921;  -63.350; -775.000; -762.000
798.176;  -50.100; -744.000; -747.000
798.432;  -49.150; -824.000; -596.000
798.688;  -66.725;-1174.000;-1078.000
798.943;   99.175; -165.000; -147.000
799.199;    6.150;-1005.000; -959.000
799.455;  238.100;  369.000;  316.000
799.710;  133.450; -813.000; -380.000
799.966;  285.075; -162.000; -160.000
800.221;  494.875; -638.000; -721.000
800.477;10984.700; -743.000; -710.000
800.732; 9061.950; -773.000; -800.000
800.988;  648.200;  205.000;  -19.000
801.243; 2076.875; -454.000; -344.000
801.498; 8362.025; -814.000; -739.000
801.754;  467.525; -289.000; -163.000
802.009;  100.950; -257.000; -335.000
802.264;  -35.600; -967.000;-1033.000
802.520;   26.400;  222.000;   -3.000
802.775;  -47.375; -524.000; -359.000
803.030;   51.075;  395.000;  356.000
803.285; -105.200; -840.000; -903.000
803.540;  -55.550; -686.000; -699.000
803.795;  -56.225; -648.000; -583.000
804.051;  -31.775; -279.000; -346.000
804.306;   19.150;  168.000;  128.000
804.561;  153.000;  451.000;  362.000
804.816;  143.125;  714.000;  861.000
805.071;    8.000; -185.000; -280.000
805.325;  201.600; -257.000; -427.000
805.580; -116.400; -841.000; -877.000
805.835;  -14.800; -204.000; -297.000
806.090;  -80.875; -760.000; -676.000
806.345;  -26.300; -344.000; -264.000
806.600;   -7.400; -549.000; -632.000
806.854;  -30.050; -408.000; -538.000
807.109;  -14.000; -493.000; -577.000
807.364;    5.400; -407.000; -328.000
807.618;    2.700; -415.000; -381.000
807.873;   51.600; -470.000; -494.000
808.128;   97.750; -257.000; -518.000
808.382;  107.100; -224.000; -332.000
808.637;   76.300; -440.000; -511.000
808.891;  175.925; -257.000; -180.000
809.146;   98.900; -902.000; -794.000
809.400;  249.325; -848.000; -923.000
809.654;  332.400; -779.000; -551.000
809.909;  463.175; -841.000; -927.000
810.163; 6654.050; -813.000; -651.000
810.418;15901.525; -940.000; -861.000
810.672;  977.525; -685.000; -690.000
810.926;  733.575; -993.000; -973.000
811.180; 1458.950; -439.000; -372.000
811.434;32906.125;  240.000;  135.000
811.689;12247.450; -231.000; -365.000
811.943;  617.275; -936.000; -953.000
812.197;  332.675; -893.000; -671.000
812.451;  134.450; -379.000; -514.000
812.705;  -10.875; -809.000; -619.000
812.959;    8.225; -263.000; -388.000
813.213;    2.325; -283.000; -209.000
813.467;   65.725;  470.000;  253.000
813.721; -101.275; -764.000; -792.000
813.975; -112.575; -826.000; -877.000
814.229;   60.025;  430.000;  353.000
814.482;  -67.550; -517.000; -566.000
814.736; -112.375; -766.000; -744.000
814.990; -120.800; -779.000; -872.000
815.244;  -50.350; -228.000; -285.000
815.497;  -93.800; -636.000; -601.000
815.751;  -19.550; -141.000;   82.000
816.005;  -85.800; -470.000; -586.000
816.258;  -62.675; -510.000; -363.000
816.512; -109.100; -693.000; -610.000
816.766;    3.050;  121.000;  157.000
817.019;   38.325;  148.000;  149.000
817.273; -120.900;-1000.000; -802.000
817.526;  -38.500; -206.000; -173.000
817.779;  -53.725;-1049.000; -960.000
818.033;  -82.075; -693.000; -807.000
818.286; -122.425; -725.000; -792.000
818.540;  -90.675; -403.000; -403.000
818.793;  -78.450; -402.000; -489.000
819.046;  -97.225; -582.000; -520.000
819.299;  -33.075; -157.000; -166.000
819.553; -102.475; -552.000; -592.000
819.806; -158.275;-1016.000; -838.000
820.059;  -58.600; -334.000; -354.000
820.312;   12.375;  152.000;  185.000
820.565;  -20.550;  110.000;  -27.000
820.818;  -34.775;  -59.000; -173.000
821.071; -156.050;-1041.000; -957.000
821.324; -100.575; -536.000; -540.000
821.577; -109.725; -457.000; -483.000
821.830;  -64.900; -270.000; -172.000
822.083; -125.075; -733.000; -288.000
822.336;  -65.125; -261.000; -167.000
822.589; -128.625; -805.000; -688.000
822.842; -136.325; -875.000; -770.000
823.094; -178.775;-1076.000;-1114.000
823.347; -121.225; -925.000; -729.000
823.600;   13.400;  402.000;  187.000
823.853;  -36.350; -311.000; -267.000
824.105;  -74.775; -331.000; -575.000
824.358; -111.700; -617.000; -716.000
824.611;   36.175;  234.000;   40.000
824.863;  -50.125; -612.000; -591.000
825.116;   31.300;  -33.000;   27.000
825.368;   71.125; -366.000; -372.000
825.621;  155.000; -186.000; -240.000
825.873;   86.225; -704.000; -737.000
826.126;  620.800; -669.000; -641.000
826.378;11845.200; -389.000; -505.000
826.630; 2659.800; -890.000; -898.000
826.883;   33.500; -754.000; -693.000
827.135;   47.875; -279.000; -270.000
827.387; -103.325; -893.000; -839.000
827.639;  -34.225;  -86.000;   32.000
827.892; -127.325; -742.000; -582.000
828.144; -145.650; -848.000; -804.000
828.396;  -30.875;  104.000;  -80.000
828.648; -100.525; -440.000; -333.000
828.900; -136.925; -702.000; -795.000
829.152; -118.750; -684.000; -683.000
829.404;  -62.300; -215.000; -267.000
829.656;    0.875;  321.000;  214.000
829.908;  -20.725;  393.000;  229.000
830.160; -169.250;-1064.000;-1047.000
830.412; -103.625; -481.000; -430.000
830.664; -121.025; -557.000; -665.000
830.916;  -75.075; -268.000; -206.000
831.167; -188.150;-1073.000; -951.000
831.419; -111.200; -623.000; -566.000
831.671; -142.250; -764.000; -809.000
831.923;  -90.725; -311.000; -447.000
832.174;  -81.950; -273.000; -331.000
832.426; -110.175; -493.000; -582.000
832.678; -191.550;-1043.000;-1091.000
832.929; -163.850; -947.000; -935.000
833.181;  -71.300; -575.000; -677.000
833.432;  -52.275;  -59.000; -186.000
833.684;  -19.250;  112.000;  -27.000
833.935; -132.225; -610.000; -566.000
834.187; -126.725; -829.000; -823.000
834.438;  -39.800;  -58.000;  -25.000
834.689;  -68.950; -255.000; -123.000
834.941;  -48.200; -343.000; -244.000
835.192;  -95.225; -590.000; -533.000
835.443; -109.750; -419.000; -506.000
835.695;   -6.625;  138.000;  -16.000
835.946;  -89.225; -608.000; -378.000
836.197; -115.425; -599.000; -622.000
836.448;  -81.800; -528.000; -395.000
836.699;  -58.050; -253.000; -341.000
836.950;  -10.200;   72.000;    7.000
837.201; -151.400;-1003.000; -987.000
837.452;  -42.700; -356.000; -170.000
837.703; -119.275; -791.000; -737.000
837.954;  -40.650; -205.000; -365.000
838.205;  -92.200;-1029.000;-1008.000
838.456;  159.125; -196.000; -282.000
838.707;    0.250; -423.000; -519.000
838.958;    5.350; -634.000; -647.000
839.209;  272.975;   18.000;   40.000
839.460;  111.600; -439.000; -201.000
839.710;  157.625; -135.000; -297.000
839.961;  414.975;  730.000;  612.000
840.212;  329.650; -382.000; -497.000
840.462; 1172.100; -328.000; -277.000
840.713;18345.200; -571.000; -536.000
840.964; 6852.775;  -62.000; -143.000
841.214;  483.450; -384.000; -624.000
841.465;  543.025; -214.000; -141.000
841.715;  459.250; -417.000; -380.000
841.966;  610.900; -746.000; -685.000
842.216; 8916.900; -330.000; -431.000
842.466;31798.100; -169.000; -313.000
842.717; 1575.975; -964.000; -952.000
842.967;  283.475; -635.000; -641.000
843.217;  242.500;   20.000;   28.000
843.468;   65.125; -104.000; -132.000
843.718;  -59.725; -718.000; -726.000
843.968;  -88.125; -837.000; -765.000
844.218;   13.475; -315.000; -262.000
844.469;  -58.275; -577.000; -561.000
844.719; -101.775; -537.000; -682.000
844.969; -105.975; -550.000; -580.000
845.219; -140.000; -814.000; -862.000
845.469;  -77.575; -392.000; -342.000
845.719; -151.875; -792.000; -884.000
845.969;  -17.900;  119.000;  174.000
846.219; -116.950; -738.000; -720.000
846.469;   25.200;  464.000;  432.000
846.718;  -54.025; -115.000;   31.000
846.968; -138.450; -827.000; -827.000
847.218;  -53.150; -224.000; -371.000
847.468;   20.725; -586.000; -555.000
847.718; -144.850; -827.000; -798.000
847.967; -136.375; -826.000; -915.000
848.217;  -94.050; -449.000; -569.000
848.467;  -58.400; -405.000; -376.000
848.716; -117.175; -708.000; -725.000
848.966;   -4.325; -372.000; -358.000
849.215;  -75.375; -428.000; -419.000
849.465;  -92.550; -785.000; -615.000
849.714; -134.375;-1132.000;-1150.000
849.964;  -70.075; -551.000; -613.000
850.213;  -21.175; -393.000; -355.000
850.463;   78.325;  137.000;  340.000
850.712;   10.500; -542.000; -567.000
850.961;   17.725; -739.000; -678.000
851.211;  114.275; -513.000; -504.000
851.460;  167.925; -635.000; -650.000
851.709;  582.900;  -25.000;   18.000
851.958;10841.500; -912.000; -750.000
852.208;12426.650; -859.000; -879.000
852.457;  470.425; -181.000;  -13.000
852.706;   73.775; -791.000; -823.000
852.955;   24.125; -507.000; -528.000
853.204;  -64.475; -521.000; -461.000
853.453;  -79.550; -418.000; -458.000
853.702; -133.750; -660.000; -750.000
853.951;  -88.075; -532.000; -520.000
854.200; -112.225; -613.000; -562.000
854.449; -148.400; -695.000; -661.000
854.698;  -99.300; -340.000; -279.000
854.946;  -76.250; -181.000; -284.000
855.195; -142.675; -843.000; -868.000
855.444;  -92.525; -395.000; -420.000
855.693; -115.700; -345.000; -432.000
855.941;  -92.575; -387.000; -516.000
856.190;  -49.500; -256.000; -382.000
856.439; -126.225; -652.000; -703.000
856.687;  -65.575;  -99.000;  -72.000
856.936; -107.700; -621.000; -323.000
857.184; -185.600;-1067.000;-1020.000
857.433; -103.700; -423.000; -512.000
857.681; -157.150; -989.000; -953.000
857.930;  -72.800; -282.000; -433.000
858.178; -159.900; -856.000; -929.000
858.427; -158.350; -802.000; -781.000
858.675; -132.125; -377.000; -544.000
858.923; -111.900; -527.000; -819.000
859.172; -191.400;-1094.000;-1070.000
859.420;  -76.575; -339.000; -239.000
859.668; -117.050; -624.000; -628.000
859.916;  -40.275;  109.000;  115.000
860.164; -117.250; -699.000; -603.000
860.413;  255.950; -878.000; -696.000
860.661;  164.250; -709.000; -577.000
860.909;  -78.250; -339.000; -325.000
861.157;  -93.325; -277.000; -444.000
861.405; -121.125; -534.000; -670.000
861.653;   12.050;  310.000;  310.000
861.901;  141.150; -543.000; -613.000
862.149;  -16.725; -801.000; -824.000
862.396;  -94.025; -297.000; -187.000
862.644;  -94.850; -368.000; -347.000
862.892;  -28.750;   98.000;  138.000
863.140; -111.675; -549.000; -530.000
863.388; -168.575; -815.000; -759.000
863.635; -123.275; -642.000; -601.000
863.883;  -13.375;  231.000;  190.000
864.131; -100.950; -288.000; -357.000
864.378; -132.175; -675.000; -540.000
864.626;  -90.925; -347.000; -415.000
864.873; -123.375; -556.000; -505.000
865.121; -133.825; -714.000; -799.000
865.368;  -28.450; -173.000;   75.000
865.616;  -33.950;  -33.000;  -40.000
865.863;  -64.975; -462.000; -506.000
866.111; -102.550; -795.000; -824.000
866.358;   48.975; -426.000; -420.000
866.605; 2625.300;  -64.000; -804.000
866.853; 2498.000; -621.000; -537.000
867.100;  -27.325; -728.000; -775.000
867.347; -101.250; -672.000; -611.000
867.594;  -91.275; -740.000; -714.000
867.841;   90.100;   97.000;   17.000
868.089; -150.575; -746.000; -698.000
868.336; -116.100; -477.000; -420.000
868.583; -140.925; -637.000; -741.000
868.830;  -54.550; -131.000; -170.000
869.077; -171.000; -859.000; -787.000
869.324; -127.325; -502.000; -458.000
869.571; -152.950; -398.000; -430.000
869.818; -121.375; -485.000; -439.000
870.065; -117.175; -439.000; -513.000
870.311; -124.250; -456.000; -542.000
870.558; -112.075; -332.000; -311.000
870.805; -103.950; -320.000; -384.000
871.052; -105.450; -494.000; -369.000
871.298;  -67.025; -204.000; -131.000
871.545;  -64.475; -151.000; -185.000
871.792;  -77.500; -173.000; -222.000
872.038;  -83.100;   43.000; -126.000
872.285; -116.925; -496.000; -387.000
872.532; -107.425; -357.000; -387.000
872.778;    6.425;  556.000;  403.000
873.025; -102.250; -384.000; -359.000
873.271;   30.000;  501.000;  578.000
873.517;  -27.550; -133.000; -209.000
873.764;  -37.900; -193.000;  -80.000
874.010;  -73.650; -143.000; -230.000
874.257;  -38.300;  123.000;   90.000
874.503; -123.775; -579.000; -479.000
874.749;  -63.775;   31.000;  275.000
874.995;  -73.025;  -80.000;  -20.000
875.242; -126.950; -540.000; -478.000
875.488; -118.625; -414.000; -439.000
875.734;  -42.125; -106.000; -234.000
875.980;  168.375; -872.000;-1032.000
876.226;  316.200; -157.000; -255.000
876.472;  -10.625;  343.000;  237.000
876.718;  -35.875;  184.000;  158.000
876.964;  -29.100;   56.000;   55.000
877.210; -157.675; -547.000; -677.000
877.456; -139.400; -630.000; -557.000
877.702; -180.125; -821.000; -832.000
877.948; -109.900; -377.000; -497.000
878.193;    7.800;  361.000;  255.000
878.439; -104.200; -487.000; -472.000
878.685; -102.650; -272.000; -343.000
878.931; -134.750; -618.000; -676.000
879.176;  -69.875; -201.000; -201.000
879.422; -185.575; -933.000; -820.000
879.668;   57.975;   10.000;   79.000
879.913;  119.000;   53.000;  137.000
880.159;  -51.600; -112.000;  -17.000
880.404;  -55.100; -152.000; -162.000
880.650;  -32.200;   91.000;  141.000
880.895; -159.175; -670.000; -710.000
881.141; -129.175; -454.000; -428.000
881.386; -151.350; -503.000; -658.000
881.631;  -89.150; -311.000; -166.000
881.877;  -39.875;  112.000;  -13.000
882.122; -143.875; -684.000; -600.000
882.367;  -72.675; -136.000; -186.000
882.612;  -75.625;  -80.000; -176.000
882.858; -176.500; -877.000; -823.000
883.103;  -93.950; -297.000; -267.000
883.348; -140.800; -759.000; -852.000
883.593; -148.075; -677.000; -602.000
883.838;  -74.950; -311.000;  -24.000
884.083;   30.675;  353.000;  288.000
884.328;  -87.075; -564.000; -545.000
884.573;  -58.700; -196.000; -143.000
884.818;  168.250; -694.000; -531.000
885.063;  135.250; -348.000; -315.000
885.308; -115.350; -475.000; -398.000
885.553;   -9.600;  245.000;  325.000
885.797; -145.400; -545.000; -615.000
886.042;  -45.775;    8.000;   58.000
886.287;  -94.300; -253.000; -211.000
886.532;  -45.100;   26.000;  204.000
886.776; -120.725; -407.000; -525.000
887.021; -132.450; -621.000; -574.000
887.265; -161.875; -685.000; -689.000
887.510; -146.950; -557.000; -496.000
887.755;  -92.450; -194.000; -164.000
887.999; -149.275; -552.000; -575.000
888.244;  -55.500;  -58.000;  161.000
888.488;    8.150;  371.000;  393.000
888.732; -130.250; -368.000; -520.000
888.977; -140.400; -622.000; -567.000
889.221; -171.725; -683.000; -659.000
889.465; -112.600; -422.000; -566.000
889.710;  -75.675;  -56.000; -299.000
889.954;    7.225;  579.000;  467.000
890.198; -154.050; -584.000; -707.000
890.442; -153.450; -716.000; -712.000
890.687; -177.125; -800.000; -753.000
890.931;  -92.575; -273.000; -210.000
891.175; -134.525; -502.000; -500.000
891.419;  -67.200; -105.000; -110.000
891.663;  -98.625; -239.000; -112.000
891.907; -153.475; -801.000; -545.000
892.151; -174.225; -920.000; -815.000
892.395; -114.775; -274.000; -387.000
892.638;  -22.450;  408.000;  291.000
892.882; -190.950; -780.000; -867.000
893.126;   28.075;  758.000;  558.000
893.370;  -86.025; -167.000; -168.000
893.614; -154.275; -714.000; -715.000
893.857; -109.925; -183.000; -197.000
894.101; -149.400; -527.000; -631.000
894.345;  -53.075;  300.000;  150.000
894.588;   20.200;  569.000;  380.000
894.832;  -87.275; -178.000;  -84.000
895.075;  -84.300;   15.000;  -92.000
895.319; -127.475; -552.000; -420.000
895.563; -107.425; -413.000; -353.000
895.806; -157.900; -628.000; -741.000
896.049;  -55.725; -576.000; -368.000
896.293;   78.500;  527.000;  405.000
896.536;  -96.300; -465.000; -468.000
896.779;  -50.500; -149.000;   -1.000
897.023; -148.525; -751.000; -714.000
897.266;  -30.325;  325.000;  269.000
897.509; -186.300; -900.000; -901.000
897.752;  -46.525;  149.000;  171.000
897.996; -193.000; -972.000; -864.000
898.239;  -41.200;  168.000;  102.000
898.482; -115.875; -431.000; -453.000
898.725;  -42.350;  101.000;   53.000
898.968; -166.000; -609.000; -744.000
899.211;  -94.675; -513.000; -361.000
899.454; -125.300; -633.000; -539.000
899.697;  -63.325;   90.000;  -43.000
899.940; -168.450; -761.000; -757.000
900.182; -107.350; -335.000; -405.000
900.425;  -88.900; -150.000; -298.000
900.668;  -24.900;  491.000;  350.000
900.911;  -92.775; -292.000; -345.000
901.154;  -57.325;  141.000;   -3.000
901.396; -130.975; -407.000; -412.000
901.639; -138.550; -430.000; -496.000
901.882; -181.275; -790.000; -809.000
902.124;  -85.950;  -29.000; -143.000
902.367; -111.550; -315.000; -361.000
902.609; -136.450; -476.000; -453.000
902.852;  -91.575; -108.000; -260.000
903.094; -121.825; -458.000; -337.000
903.337;  -56.800;  -26.000;   53.000
903.579; -102.075; -228.000; -441.000
903.821; -158.425; -597.000; -744.000
904.064;  -65.325;   85.000;  127.000
904.306;  -86.675; -126.000; -166.000
904.548;  -90.725; -152.000; -366.000
904.790; -113.775; -195.000; -340.000
905.033; -133.950; -625.000; -577.000
905.275; -147.900; -513.000; -524.000
905.517;   31.075;  468.000;  256.000
905.759;  -81.800; -667.000; -761.000
906.001; -109.975; -322.000; -369.000
906.243;  -61.850; -162.000; -224.000
906.485;  103.050; -265.000; -207.000
906.727;   70.150; -499.000; -542.000
906.969;  -36.150;  -30.000; -135.000
907.211;   96.775; -316.000; -382.000
907.453;  237.400; -188.000; -237.000
907.695;   -7.975; -158.000; -385.000
907.936;   50.200;  818.000;  706.000
908.178;  -52.800;   92.000; -135.000
908.420;  -59.350; -111.000; -162.000
908.662; -145.475; -633.000; -682.000
908.903; -101.925; -208.000; -123.000
909.145;  -51.275; -240.000; -305.000
909.386;    9.550;  315.000;  280.000
909.628;   39.125;  363.000;  397.000
909.870;   11.525;   29.000;  264.000
910.111; -106.825; -809.000; -949.000
910.353;    9.850; -123.000; -161.000
910.594;    4.100; -574.000; -606.000
910.835;   80.475; -265.000; -326.000
911.077;  141.275; -503.000; -604.000
911.318;  296.150; -505.000; -471.000
911.559;  445.100; -577.000; -880.000
911.801; 1386.025; -284.000; -280.000
912.042;10790.850;  -50.000; -159.000
912.283;26423.725;  404.000;  371.000
912.524; 3762.300; -396.000; -457.000
912.765;  445.875; -193.000;   79.000
913.006;  240.450; -307.000; -338.000
913.247;   44.450; -270.000; -290.000
913.488;   -4.325;  -43.000;   30.000
913.729;  -74.300; -373.000; -373.000
913.970;  -75.350;  -96.000; -292.000
914.211;  -75.450; -160.000; -198.000
914.452;  -68.600; -118.000;  -11.000
914.693;   14.350;  510.000;  592.000
914.934;   12.475;  510.000;  440.000
915.175;  -64.175;   53.000;  -95.000
915.415;  -75.000; -137.000;   27.000
915.656;  -63.250;  -28.000;  192.000
915.897; -103.500; -252.000;  -82.000
916.137;  -77.325;   74.000;   -9.000
916.378; -131.200; -573.000; -517.000
916.619;  -88.175; -159.000;  -63.000
916.859;  -34.450;  303.000;  330.000
917.100;  134.475; 1655.000; 1070.000
917.340;   39.225;  930.000;  728.000
917.581;   48.800;  965.000;  789.000
917.821;  -28.000; -171.000;  143.000
918.061;    8.750; -199.000;  -72.000
918.302;  -75.800; -152.000; -211.000
918.542;  -40.475;  -22.000;    3.000
918.782;   33.975;  369.000;  377.000
919.023;  127.425;  360.000;  427.000
919.263; 1783.425; 8131.000;  202.000
919.503; 1044.150; -137.000;  -54.000
919.743;  570.475;  390.000;  266.000
919.983;  242.475; -134.000;  -26.000
920.223;   78.550;  135.000;   14.000
920.463;  149.750;  631.000;  554.000
920.703;  147.025;   84.000;   39.000
920.943;  171.150; -110.000;   90.000
921.183;  250.750; -414.000; -405.000
921.423;  527.250;  307.000;  546.000
921.663;  773.625; -174.000; -257.000
921.903; 1656.200;  237.000;  173.000
922.143; 9430.000;  372.000;  389.000
922.383;35100.500;  158.000;  115.000
922.622;11001.425; -120.000;  -15.000
922.862; 1191.025;  796.000;  785.000
923.102;  471.800;  -51.000;   33.000
923.341;  185.950;   59.000;   74.000
923.581;   91.325;  450.000;  360.000
923.821;   12.700;  301.000;  398.000
924.060;   18.900;  351.000;  193.000
924.300;  -50.450;  -16.000; -128.000
924.539;  -10.175;  584.000;  473.000
924.779;   14.100;  812.000;  597.000
925.018;  -46.125;  247.000;  353.000
925.257;   -2.225;  595.000;  666.000
925.497;  -34.725;  447.000;  412.000
925.736;  -72.300;  -35.000;  102.000
925.975;   -4.975;  687.000;  669.000
926.214;   39.725;  907.000;  850.000
926.454;   17.875;  706.000;  757.000
926.693;  -51.000;  419.000;  543.000
926.932;   36.300; 1021.000;  825.000
927.171;   62.175; 1107.000; 1044.000
927.410;   66.625; 1144.000;  967.000
927.649;   42.950;  924.000;  742.000
927.888;  -13.500;  590.000;  564.000
928.127;   -9.350;  680.000;  678.000
928.366;   32.475;  842.000;  826.000
928.605;   28.150;  831.000;  737.000
928.844;  224.575; 1451.000; 1393.000
929.083;  591.625;  770.000;  613.000
929.321;  311.125; 1335.000; 1359.000
929.560;   75.100; 1158.000; 1122.000
929.799;  -31.050;  574.000;  475.000
930.038;   81.625; 1025.000; 1394.000
930.276;  -43.750;  334.000;  397.000
930.515;    1.475;  827.000;  681.000
930.753;  -20.900;  614.000;  589.000
930.992;  -18.350;  664.000;  717.000
931.230;   -4.075;  847.000;  847.000
931.469;  195.075; 2162.000;  892.000
931.707;   69.900;  840.000;  751.000
931.946;   63.150; 1278.000; 1344.000
932.184;   46.050; 1437.000; 1175.000
932.423;   57.425; 1265.000;  963.000
932.661;   97.900; 1296.000; 1428.000
932.899;   19.475;  987.000;  821.000
933.137;   15.100;  754.000;  564.000
933.376;  154.000; 1664.000; 1335.000
933.614;  175.350; 1759.000; 1196.000
933.852;   70.225; 1357.000; 1171.000
934.090;  147.000; 1722.000; 1747.000
934.328;  113.825; 1252.000; 1457.000
934.566;  108.150; 1431.000; 1110.000
934.804;  136.350; 1263.000; 1309.000
935.042;  496.450; 1861.000; 1850.000
935.280; 2095.775; 2088.000; 2063.000
935.518; 1839.875; 2113.000; 2007.000
935.756;  394.550; 2481.000; 2316.000
935.994;  171.300; 1808.000; 1751.000
936.231;  344.975; 2890.000; 2950.000
936.469;  197.875; 2367.000; 2378.000
936.707;  171.400; 2220.000; 2167.000
936.945;  241.475; 2825.000; 2882.000
937.182;  205.500; 2679.000; 2741.000
937.420;  300.200; 3602.000; 3031.000
937.657;  396.300; 3365.000; 3478.000
937.895;  359.425; 3331.000; 3488.000
938.133;  318.700; 3540.000; 3528.000
938.370;  343.300; 3896.000; 4191.000
938.607;  412.375; 4488.000; 4205.000
938.845;  557.000; 5587.000; 5549.000
939.082;  508.400; 5387.000; 5177.000
939.320;  542.475; 5799.000; 5728.000
939.557;  651.600; 6549.000; 6491.000
939.794;  719.150; 7285.000; 7097.000
940.031;  913.925; 8421.000; 8368.000
940.269; 1110.100; 9552.000; 9107.000
940.506; 1125.200;10901.000;10507.000

