
Integration time [ms]: 100.000
Averaging Nr. [scans]: 40
Smoothing Nr. [pixels]: 0
Data measured with spectrometer [name]: 2101013U2
Wave   ;Sample   ;Dark     ;Reference
[nm]   ;[counts] ;[counts] ;[counts] 

394.013;   47.371; -450.257; -315.536
394.305;  198.094; -461.258; -419.536
394.596; 1108.065; -676.269; -527.514
394.887; 2760.182; -796.268; -654.518
395.178; 1069.788;  145.736;   11.476
395.470;   91.149; -210.263; -356.526
395.761;  185.497;  305.734;  394.479
396.052;  253.338; -545.284; -306.489
396.343;  255.059; -557.276; -454.503
396.634;  108.002; -200.279; -290.497
396.926;  100.829; -618.268; -565.517
397.217;  108.089;   11.725;  -17.504
397.508;   48.380; -366.273; -154.507
397.799;   59.502; -555.279; -571.497
398.090;  -16.478; -973.280; -902.495
398.381;  128.238;   11.708;  -11.473
398.672;  -10.561; -585.292; -742.473
398.963;   44.034; -348.279; -373.498
399.254;   89.473;   54.709; -209.475
399.545;  -20.832;-1017.266; -883.520
399.836;   51.173; -407.277; -343.501
400.127;   44.389; -205.295; -209.468
400.418;   59.399; -423.274; -392.506
400.709;   56.584; -359.281; -333.493
401.000;   39.277; -268.291; -309.476
401.290;  112.699;  225.698;  115.545
401.581;   50.396; -166.286; -228.485
401.872;   35.310; -542.298; -486.462
402.163;   57.906; -313.296; -252.467
402.454;   90.074; -123.291; -163.475
402.744;   69.622; -844.297; -813.465
403.035;  401.604; -226.293;  -86.471
403.326;  540.142; -366.292; -384.474
403.617;  366.255;  204.701;  165.539
403.907;  248.994; -593.283; -679.490
404.198; 2459.978; -545.307; -599.446
404.489; 6310.799; -618.283; -588.491
404.779; 2111.928; -618.302; -660.456
405.070;  224.481;  -67.304; -174.451
405.360;  348.481; -259.293; -238.472
405.651;  347.689;  125.699;   98.542
405.942;  198.691;  209.714;  127.516
406.232;  236.381; -432.285; -413.487
406.523;  462.623;  641.706;  758.530
406.813;   85.843; -579.286; -644.484
407.104;  328.736;  261.708;  144.527
407.394;  149.531; -604.299; -591.462
407.685;  150.905;  336.715;  222.513
407.975;   50.173; -400.283; -382.490
408.265;  115.263; -134.289; -190.478
408.556;   60.195; -472.291; -459.475
408.846;  162.699;  474.706;  429.530
409.137;   84.672;   -1.288; -216.480
409.427;   74.981; -193.285; -271.487
409.717;   39.633; -776.273; -692.508
410.007;  149.949;    4.715; -170.486
410.298;   76.916; -360.295; -342.469
410.588;   72.178; -495.285; -510.486
410.878;   21.633; -792.287; -873.482
411.168;  110.138; -481.298; -478.463
411.459;  117.742; -295.283; -242.489
411.749;   55.569; -609.292; -507.474
412.039;   56.770; -755.289; -386.480
412.329;  200.966;   40.722;  132.501
412.619;  173.319;  -62.286; -148.485
412.909;  369.191;  639.711;  594.521
413.199;  313.397; -130.280; -251.495
413.490;  409.131;  521.710;  352.523
413.780;  138.601;-1013.279; -913.496
414.070;  334.185;  -46.276;  235.497
414.360;  365.012; -729.278; -666.498
414.650;  429.779; -726.288; -688.482
414.940;  536.200; -538.280; -441.496
415.230;  932.051;   50.712;   74.519
415.520; 6160.089;  155.730;   66.486
415.809;24241.358; -305.281; -125.493
416.099;18884.625; -388.277; -229.501
416.389; 5259.247;  435.726;  236.494
416.679; 3110.928;   91.738;   85.473
416.969;  528.687; -527.287; -503.483
417.259;  601.703;  341.721;  171.503
417.549;  708.432;  522.718;  318.508
417.838; 1657.106; -205.268; -147.518
418.128; 5538.487;  650.710;  492.522
418.418; 4688.864; -491.272; -579.509
418.708; 3170.172;    9.726;  -48.506
418.997;11802.093; -474.275; -480.505
419.287;12332.329; -733.273; -790.507
419.577;11709.867; -160.283; -123.489
419.866;38510.373; -588.277; -498.501
420.156;39385.510; -242.270;  -55.513
420.446; 7144.695; -112.263;  -26.526
420.735;  841.304; -376.271; -446.512
421.025;  851.761; 1830.722;  315.502
421.314;  665.477; -203.271; -226.512
421.604; 1322.624;   89.732;  233.484
421.893;  779.673; -705.271; -602.511
422.183;  223.420; -487.263; -461.526
422.472;  372.450;  -36.271; -107.511
422.762;  445.824; -416.266; -379.521
423.051;  234.785; -916.276; -916.503
423.341;  320.306; -491.273; -439.507
423.630;  403.630; -121.265;   15.477
423.919;  400.667;   58.725;   49.495
424.209;  351.751;  -31.263;   56.473
424.498;  490.829;   68.732;  161.483
424.787; 1106.710; -535.267; -601.518
425.077; 3354.504;   34.735;   29.478
425.366; 4660.081; -734.262; -744.528
425.655; 9975.981;  639.727;  259.493
425.945;21945.012; -313.247; -268.554
426.234;12322.279;  117.741;  300.467
426.523; 5116.385;  -86.259; -350.534
426.812; 7057.120;  107.734;  159.480
427.101;10363.870; -127.269; -323.515
427.390;12988.064;  -55.270;  -86.514
427.680; 2856.904; -624.257; -411.538
427.969;  477.865; -330.255; -301.540
428.258;  310.696; -385.257; -477.536
428.547;  526.293;  449.728;  397.490
428.836; 1197.982; -421.253; -398.543
429.125; 1699.086; -199.259;  -72.534
429.414;  819.630; -330.251; -294.548
429.703; 3161.480; -231.251; -213.548
429.992; 9445.108; -938.250; -828.549
430.281; 6270.363; -397.264; -331.524
430.570;  570.845;  -21.252;   32.454
430.859;  553.259;  279.741;  352.466
431.148;  443.958;  636.752;  631.446
431.437;  308.819;  391.748;  367.454
431.725;  153.847; -544.257; -481.536
432.014;  126.964; -845.253; -756.545
432.303;  385.659; -149.239; -105.569
432.592;  608.920; -460.263; -178.525
432.881; 1076.059; -601.248; -437.554
433.169; 6320.941; -343.255;  -61.540
433.458;12764.318;  445.765;  540.424
433.747; 5396.037; -397.261; -289.529
434.036;  863.835; -275.242; -280.564
434.324; 2117.396; -395.249; -379.551
434.613; 3698.753;   40.757;  159.437
434.902; 1204.624;  333.760;  439.433
435.190;  536.808;   75.761;  295.431
435.479;  315.560;  -52.245;   83.441
435.767;   98.518; -411.244; -427.561
436.056;  211.755; -340.242; -294.563
436.345;  357.651; -372.240; -223.568
436.633;  392.366;   60.750;  383.450
436.922;  256.029;  208.760;  414.432
437.210;  560.158; -194.236;    1.426
437.499; 1723.291; -583.235; -432.576
437.787; 1944.408; -339.236;  -10.574
438.075;  478.288;   56.761;  162.430
438.364;  662.516;  -44.238;  250.429
438.652;  403.747; -286.226; -138.592
438.941;  124.010;    3.770;  269.415
439.229;    5.842; -665.252; -466.545
439.517;   46.925; -160.234;  -85.577
439.806;  -13.812; -501.225; -290.595
440.094;  170.657;  377.766;  650.421
440.382;  168.386; -653.233; -302.580
440.670;  202.991; -361.235; -285.576
440.959;   28.455; -347.223; -170.599
441.247;   79.272; -151.229; -109.587
441.535;   92.573; -266.235;   31.423
441.823;   44.780; -497.234; -305.578
442.111;  184.076;  173.771;  327.412
442.400;  511.234; -628.245; -335.559
442.688; 1300.457; -111.234; -620.579
442.976;  925.594; -786.213; -450.617
443.264;  105.094; -324.224; -364.597
443.552;   98.098; -258.226;   51.408
443.840;  174.447;  602.765;  876.423
444.128;  115.510;  265.767;  269.420
444.416;   -7.046; -694.228; -312.588
444.704;   23.385; -465.219;  -92.605
444.992;   69.076;   -0.226;  240.407
445.280;   50.786; -517.230;  -94.585
445.568;   31.647; -694.212; -396.618
445.856;  335.669; -174.221;  357.398
446.143;  701.956;  -54.220;   -7.604
446.431;  588.507;  -25.228;  625.411
446.719;  237.604;  489.783;  675.391
447.007;  184.830;  481.769;  705.416
447.295;  180.052;  597.777;  871.402
447.583;   91.445; -464.229;  -34.587
447.870;  137.641; -434.221; -202.601
448.158;  407.310; -104.230;  129.415
448.446;  287.332; -800.219; -338.604
448.733;  165.896;   13.776;  269.403
449.021;  245.322;   60.788;  341.382
449.309;  183.037; -296.210;  208.379
449.596;  218.426;  128.783;   59.392
449.884;  148.884; -571.222; -325.600
450.172;  150.463; -756.227; -406.590
450.459;  466.877;  645.786;  780.387
450.747; 2471.624; -411.218; -147.608
451.034; 7770.759;  493.772;  889.411
451.322; 6469.230; -413.214; -170.614
451.609;  542.397;  292.777;  508.403
451.897;  603.576; -550.203; -183.634
452.184; 1801.402; -622.223; -400.598
452.472; 1718.509;   97.792;  269.375
452.759;  350.183;  512.781;  864.395
453.047;  110.244; -407.212; -125.617
453.334;   77.666; -732.219; -216.606
453.621;   69.132; -438.214; -161.615
453.909;  121.517;   13.796;  384.368
454.196;  109.338; -299.199; -123.641
454.483;  204.164;  317.798;  540.364
454.771;  131.787; -215.208;  196.374
455.058;   69.015; -316.207;  102.374
455.345;  104.769;   71.807;  344.347
455.632;   94.968; -128.207;  235.373
455.919;   50.911;  -82.196;  182.354
456.207;  -55.382; -774.198; -450.642
456.494;    2.926; -475.200;  -66.639
456.781;    8.859; -399.202; -198.635
457.068;   47.900; -253.206;  -29.628
457.355;   -7.649; -698.206; -401.629
457.642;  -11.243; -552.205; -290.630
457.929;   -3.515; -778.194; -417.651
458.216;   56.795; -575.212; -354.617
458.503;  251.715; -173.193;  -19.652
458.790;  230.709; -864.208; -630.625
459.077;  275.189;  -77.202;  110.364
459.364;  804.303; -350.195; -210.649
459.651; 1694.448;  -46.206;  220.372
459.938;  790.875; -864.209; -665.623
460.225;  140.943;  132.799;  276.363
460.512;  -50.817; -836.197; -688.645
460.799;  101.773;  -32.218;  320.392
461.086;   49.755; -370.200; -251.640
461.372;   40.118; -509.198; -279.642
461.659;  106.362; -165.196;  108.354
461.946;   57.938; -445.193;  -54.651
462.233;  226.153;  842.800;  888.361
462.519;  355.350; -814.201; -464.639
462.806; 1016.334; -768.197; -497.645
463.093;  910.234; -445.191;  -66.656
463.380;  -26.324; -920.186; -824.664
463.666;   43.910; -259.197;  -18.646
463.953;   87.323; -406.195; -243.648
464.239;  196.073; -173.195;  -77.648
464.526;  380.108;  413.806;  743.350
464.813;  344.446; -565.190; -304.658
465.099;  361.164;  606.807;  607.348
465.386;  329.018;  903.807;  921.348
465.672;    4.434; -694.197; -522.645
465.959;   16.089; -598.188; -520.662
466.245;   11.368; -468.193; -359.652
466.532;   90.545; -109.195;   63.352
466.818;   54.025; -357.186; -216.664
467.104;   -4.159; -488.182; -415.672
467.391;  -16.402; -628.189; -459.658
467.677;   33.579; -289.186;    9.335
467.964;   -0.446; -682.189; -471.660
468.250;   66.557; -331.186; -160.665
468.536;   66.999;   90.811;  180.341
468.822;  -54.431; -821.184; -574.668
469.109;  153.822;  351.827;  471.311
469.395;  192.428;  729.808;  787.346
469.681;  203.152;   46.811;  156.341
469.967; 1263.532; -699.188; -382.660
470.254; 2697.340; -494.188; -306.662
470.540; 1743.811; -601.196; -476.646
470.826;  262.802; -488.181; -397.675
471.112;  307.322;  288.816;  113.331
471.398;   81.127; -253.183;  -58.670
471.684;   54.306; -626.177; -447.680
471.970;  -13.169; -918.180; -981.675
472.256;   33.952; -521.192; -441.654
472.542;   16.958; -499.171; -434.691
472.828;   14.212; -743.182; -607.672
473.114;    6.977; -380.166; -283.700
473.400;   19.497; -504.175; -293.684
473.686;   27.259; -452.166; -400.701
473.972;   43.787; -230.174; -131.687
474.258;  -35.178; -925.173; -843.689
474.544;  216.572; -183.178;   -2.679
474.830;  316.174;  -65.175;   45.316
475.116;  500.922; -123.190; -196.658
475.401;  678.333; -558.180; -467.676
475.687;  200.382; -725.180; -718.676
475.973;  -11.805; -673.181; -770.673
476.259;  230.976;  736.825;  764.315
476.544;  351.989; -539.176; -437.682
476.830;  843.079; -398.172; -322.690
477.116;  748.512; -430.177; -336.682
477.401;  136.883;  346.820;  358.324
477.687;  -22.877; -289.175; -405.684
477.973;   42.898;   21.819;   28.326
478.258;   -6.146; -448.163; -348.706
478.544;   62.537;   21.815;   61.334
478.829;  -55.786; -818.171; -738.692
479.115;  -37.446; -749.172; -651.690
479.401;   -8.017; -444.174; -449.686
479.686;   45.557; -253.180;  -74.676
479.972;  -31.597; -886.178; -776.680
480.257;   52.779; -258.166;  -65.700
480.542;  -16.932; -614.170; -469.693
480.828;  227.446; 1288.824; 1392.317
481.113;  -28.381; -464.176; -426.683
481.399;    5.453; -236.161; -202.711
481.684;  -49.522; -620.166; -462.700
481.969;   28.767; -158.159;  -73.713
482.255;  -20.271; -439.169; -285.695
482.540;    1.653; -569.178; -441.680
482.825;   -9.054; -395.187; -404.663
483.110;  104.532;  -85.169; -105.696
483.396;  208.939; -840.157; -652.718
483.681;  505.062;  543.826;  730.313
483.966;  157.486; -696.160; -700.712
484.251;   14.511; -404.174; -310.687
484.536;    1.639; -356.165; -378.703
484.822;   20.889; -205.173; -218.687
485.107;  -34.148; -599.152; -502.726
485.392;  125.995;  662.836;  541.296
485.677;   79.192;  354.832;  163.302
485.962;  108.411;  160.843;  270.283
486.247;   75.937;  -14.162;   -8.707
486.532;   43.780; -178.166; -325.701
486.817;  154.523;  381.839;  431.291
487.102;  128.935; -453.154; -514.722
487.387;  673.316; -637.156; -652.718
487.672; 1196.225; -154.164;  -38.705
487.957;  760.055; -394.160; -286.711
488.241;  200.944; -290.150; -314.729
488.526;  764.829; -280.152; -148.726
488.811; 1190.480; -881.177; -818.680
489.096;  922.038; -666.154; -702.723
489.381;  512.225;    3.847;  162.275
489.666;  368.103; -428.161; -510.710
489.950;  197.366;  558.846;  627.277
490.235;  -19.936; -480.151; -458.728
490.520;  -32.823; -756.161; -723.710
490.804;  -66.857; -827.156; -736.719
491.089;    0.335; -469.149; -299.732
491.374;   38.124; -132.164;  -75.704
491.658;  -10.729; -817.147; -717.735
491.943;  153.083; -657.152; -609.727
492.227;  258.156; -178.155;  -38.721
492.512;   56.561; -294.157; -341.717
492.797;  -66.071; -713.149; -716.731
493.081;  -48.826; -588.147; -598.735
493.366;  -29.271; -751.161; -635.711
493.650;  205.178;  831.859;  917.254
493.935;   35.496; -648.147; -447.734
494.219;  -41.010; -778.142; -687.743
494.503;  -41.876; -585.150; -487.730
494.788;   46.027;   46.842;   74.285
495.072;  112.720;  184.850;  434.271
495.356;  164.088; -463.148; -343.733
495.641;  458.081; -812.146; -736.736
495.925;  431.423; -976.156; -903.719
496.209;   31.834; -599.149; -451.732
496.494;  -46.409; -763.142; -544.744
496.778;   20.885; -364.154; -360.722
497.062;  -54.303; -819.156; -627.719
497.346;  -22.843; -869.160; -640.711
497.631;  147.042;  580.852;  560.266
497.915;   86.041;  -64.145;  175.261
498.199;   34.064; -341.157; -277.718
498.483;   31.527; -562.152; -508.725
498.767;  184.071;  301.850;  300.271
499.051;  187.432; -126.149; -100.732
499.335;   26.505; -693.149; -739.731
499.619;  -30.020; -381.129; -423.767
499.903;   20.129; -272.155;  -65.721
500.187;   35.142; -588.153; -316.724
500.471;    4.432; -796.152; -595.727
500.755;  105.327;   62.839;  -96.710
501.039;   21.030; -270.155; -357.721
501.323;   83.080;  -21.141;  264.254
501.607;   19.330; -447.163; -503.706
501.891;    2.790; -607.156; -512.718
502.174;  -33.597; -726.144; -585.741
502.458;   59.186;   89.849;  370.273
502.742;   28.179; -180.138; -191.751
503.026;  104.320; -412.147; -254.734
503.310;  173.041; -437.159; -375.713
503.593;  117.197; -464.147; -325.735
503.877;  119.294; -232.133; -156.760
504.161;  172.570;    2.847;  -50.724
504.444;  138.705; -841.158; -710.716
504.728;  472.548; -487.164; -522.704
505.012;  720.618; -257.150;  -76.729
505.295;  548.453; -417.161; -212.711
505.579;  547.847; -256.156; -496.719
505.862;  762.863; -555.145; -333.738
506.146;  736.868; -681.159; -758.714
506.429;  408.394;  568.841;  461.286
506.713;   66.740; -732.151; -667.728
506.996;  343.710;   90.846;  295.278
507.280;  345.118; -633.165; -474.703
507.563;  246.003; -469.155; -261.721
507.847;  110.043; -423.153; -112.724
508.130;  108.629; -665.161; -456.711
508.413;  111.349; -758.167; -577.700
508.697;  267.650; -151.167;   12.300
508.980;  142.995; -422.153; -312.724
509.263;   -0.701; -466.155; -450.720
509.547;   48.818; -124.150;   82.271
509.830;   50.206; -172.160;  140.289
510.113;   78.747;  128.844;  298.281
510.396;   34.050; -530.152; -300.725
510.680;  145.439; -818.145; -812.738
510.963;  595.889;  184.846;  180.277
511.246;  478.076; -493.150; -357.730
511.529;  265.569; -482.145;  -83.739
511.812;  399.616; -250.134;   10.241
512.095;  274.038; -740.151; -396.728
512.378;   74.776; -317.147; -245.736
512.661;   20.336; -703.137; -623.753
512.944;   28.842; -750.142; -637.744
513.227;   72.009; -170.137; -171.752
513.510;   19.628; -479.144; -671.741
513.793;   37.834; -485.140; -435.747
514.076;  137.076;  -43.127;  -39.771
514.359;  122.635; -294.149; -135.732
514.642;   92.070; -442.142; -567.744
514.925;  792.307;  581.860;  561.253
515.208; 1019.787; -498.134; -443.758
515.491;  674.001; -276.133; -182.761
515.773;  389.381; -410.143; -337.742
516.056; 2162.243;  249.864;  409.246
516.339; 2829.172; -754.136; -652.755
516.622; 1888.198; -518.150; -488.730
516.904; 1195.913;  882.857;  975.257
517.187;  550.732; -730.138; -523.752
517.470;  396.362; -568.143; -510.743
517.752;  443.600; -624.136; -470.756
518.035;  351.295; -708.139; -725.749
518.318;  396.497; -799.136; -744.755
518.600; 2507.780; -300.132; -325.762
518.883; 3405.769;  310.858;   88.256
519.165; 1642.025; -585.138; -426.751
519.448;  381.954;  -61.132;  -19.762
519.730;  176.058; -573.126; -415.773
520.013;  319.872;  588.867;  664.240
520.295;  770.317;  -94.134;  -15.759
520.578; 1728.167; -335.131; -305.764
520.860; 1951.854; -254.132;   56.238
521.143; 1066.527; -763.135; -584.756
521.425;  494.746; -251.125; -279.775
521.707;  688.451; -622.127; -380.771
521.990; 1812.052; -199.127;  167.229
522.272; 2059.861; -116.140;   -4.748
522.554;  925.357; -237.143; -157.742
522.836;  345.965;  -24.134;   99.241
523.119;  216.444; -496.148; -189.734
523.401;  164.299; -448.130; -314.766
523.683;   87.012; -865.137; -693.753
523.965;  281.780;  408.862;  260.248
524.247;  281.618;   54.878;  170.220
524.529;  215.917; -451.134; -367.759
524.812;  362.376;   -3.130;  191.234
525.094;  871.804; -773.138; -631.751
525.376; 1375.030; -143.124;   78.223
525.658;  863.894; -441.136; -339.754
525.940;   24.764; -805.131; -671.764
526.222;   44.923; -188.136;  -88.755
526.504;  106.387; -190.131;   32.237
526.786;  160.895; -960.133; -647.760
527.068;  280.011; -124.123;  -67.778
527.349;  128.741; -865.137; -774.754
527.631;  146.379; -137.132;   22.238
527.913;  142.000; -664.127; -450.771
528.195;  169.464; -761.125; -639.774
528.477;  269.737;  -93.134;  -30.758
528.759;  139.276; -648.130; -522.766
529.040;   67.710; -569.123; -293.778
529.322;   55.967; -235.125;  -10.774
529.604;  127.153;  -47.130;   93.233
529.886;  111.633; -546.126; -302.773
530.167;  139.070;  232.870;  192.235
530.449;   50.676;    1.853;   63.265
530.731;   24.917; -572.122; -459.779
531.012;   54.288; -513.120; -216.784
531.294;  100.977; -118.116;  -43.792
531.575;  141.296;  290.875;  538.225
531.857;   66.607; -548.135; -266.757
532.138;   92.878; -113.141;   40.254
532.420;  180.878;  294.865;  403.244
532.701;  191.897; -722.133; -751.760
532.983;  328.250;  232.867;  182.239
533.264;  123.881; -243.126;  175.228
533.546;  -14.878; -491.136; -508.755
533.827;   50.419;  173.867;   -1.759
534.109;   51.307; -352.135;  -80.757
534.390;   99.883; -725.132; -582.762
534.671;  254.253; -270.135;  -82.756
534.953;  140.838; -751.123; -611.779
535.234;   18.012; -426.117; -255.789
535.515;  -74.179; -891.119; -735.785
535.796;  -10.079; -431.128; -193.770
536.078; -130.220;-1050.124; -904.777
536.359;   10.988;  -22.123;    3.221
536.640;  -23.909; -480.125; -197.774
536.921;  168.134;  225.871;  143.232
537.202;  374.426;  -87.138;  -16.751
537.483;  478.792;  251.869;  377.236
537.764;  180.770;   17.870;   98.235
538.045;  -23.114; -543.134; -371.758
538.326;  -42.440; -596.129; -447.768
538.607;   37.427; -686.127; -476.771
538.888;  150.279;   98.879;    5.218
539.169;  202.448; -704.122; -535.781
539.450;  336.558;  236.871;   16.233
539.731;  226.658; -361.121; -182.783
540.012;  115.938;  199.880;  412.216
540.293;   81.725;   82.876;  158.224
540.574;  -15.202; -895.113; -717.796
540.855;  457.156;  435.879;  377.218
541.136;  522.821;   47.878;  139.220
541.416;  295.377; -161.130; -220.766
541.697;  204.887; -274.131; -170.763
541.978; 1075.705; -270.135; -315.757
542.259; 1327.327; -211.127; -236.771
542.539;  665.896; -191.116; -186.790
542.820;  182.671;  461.875;  480.225
543.101;  132.541;  -52.145;  -77.738
543.381;   28.777; -638.127; -591.771
543.662;  284.299;  159.873; -254.771
543.942;  579.197; -751.127; -830.770
544.223; 1082.122;  193.878;  161.219
544.504;  721.780; -275.124; -182.777
544.784;  599.883; -592.126; -408.773
545.065; 1686.625;  104.884; -254.791
545.345; 1993.496;  227.881;   14.215
545.626; 1324.422;  -14.113; -108.796
545.906;  919.795;   77.869;   98.235
546.186;  376.038;   92.874;  -95.773
546.467;  191.007;   99.877;  -95.778
546.747;  338.621;  264.884;  327.210
547.027;  374.753;   91.876;  111.223
547.308;  329.622; -376.127; -530.770
547.588;  410.711;  299.871;  371.232
547.868;  192.896;  458.870;  588.235
548.149;  206.407;  609.885;  593.207
548.429;  132.025; -347.127; -299.771
548.709;  203.537; -645.120; -461.784
548.989;  494.206;   84.882;   88.213
549.269; 2178.528;   10.868;  139.239
549.550; 4935.112;  215.877;  117.222
549.830; 4446.390; -758.111; -556.799
550.110;  895.098; -468.110; -320.801
550.390;  835.092; -128.122;  -56.779
550.670; 1169.268; -868.114; -783.795
550.950;  828.981; -509.121; -471.782
551.230;  186.302;  549.879;  460.218
551.510;   -1.820; -381.121; -326.782
551.790;   24.131; -173.109; -127.803
552.070;  268.982;  940.877; 1181.223
552.350;  418.325; -492.119; -377.786
552.630;  595.775;   -2.121;   77.219
552.909;  356.200;  181.884;   73.209
553.189;  241.559;  -49.132;   33.237
553.469;  181.225; -703.119; -514.786
553.749;  203.803; -469.127; -357.772
554.029;  173.391;   33.883;  -24.790
554.308;  162.386; -154.115;  -37.794
554.588;   62.245; -196.128; -204.770
554.868;   84.457; -366.121;  -47.782
555.147;  147.284; -114.115;  -46.793
555.427;  626.453; -260.116; -250.792
555.707; 4002.006; -284.115; -200.793
555.986; 4832.719; -719.111; -538.800
556.266; 2535.569;   23.884;   72.210
556.546;  127.830; -888.121; -675.782
556.825;  261.766; -657.114; -556.794
557.105; 1829.418; -125.128;   17.230
557.384; 2129.049;  122.884;  187.209
557.664;  837.777; -717.116; -508.792
557.943;  116.156; -557.121; -411.782
558.222;  182.734; -345.118; -344.788
558.502;  278.735; -116.115;  -76.793
558.781;  516.055;  194.885;  499.208
559.061;  409.034; -232.118; -227.788
559.340;  316.639;  302.883;  353.211
559.619;  736.619;   93.884;  148.210
559.899; 1040.691; -239.117; -266.789
560.178;  984.659; -778.115; -593.793
560.457; 3267.517; -623.117; -562.790
560.736; 4469.495; -472.111; -482.800
561.015; 2992.991; -500.128; -502.769
561.295;  388.026;  180.893;  215.193
561.574;  342.657;  119.885;  116.207
561.853;  495.860;  274.891;  303.197
562.132;  503.812;  -45.114;  182.206
562.411;  443.825;  396.879;  553.219
562.690;  148.330; -592.115; -458.792
562.969;  151.804;  472.888;  630.203
563.248;  525.598; 2966.878; 2487.219
563.527;  293.419; -290.111; -408.800
563.806;  390.625; -650.127; -521.771
564.085;  417.416; -297.105; -206.810
564.364;  247.994; -594.117; -405.790
564.643;  511.201; -276.121; -223.781
564.922; 1943.404;  221.890;  397.198
565.201; 1932.808; -640.109; -700.803
565.479;  871.129; -297.115; -219.792
565.758;  325.768; -810.128; -712.770
566.037;  487.759; -155.109; -100.803
566.316;  235.749; -286.116;  -28.791
566.595;   49.707;  -17.115;  -12.793
566.873;   88.146; -166.111;  -79.801
567.152;  -57.171; -490.113; -590.797
567.431;   10.770; -113.116;    6.210
567.709;   16.976; -344.107; -212.807
567.988;  262.216; -810.114; -769.794
568.266;  544.907; -160.115;  -68.793
568.545;  404.763; -644.100; -514.819
568.824;  611.228;  160.885;  356.208
569.102;  574.340; -351.114; -235.794
569.381;  241.927; -492.116; -407.792
569.659;  -51.175; -553.113; -553.796
569.938;   40.796; -743.122; -465.780
570.216;  110.236; -225.109; -225.804
570.494;  -11.406; -632.114; -572.795
570.773;   44.279;  202.879;  114.218
571.051;   -7.790; -373.123; -357.778
571.330;   69.023; -221.113; -174.796
571.608;   41.981; -181.098; -173.823
571.886;  -61.337; -671.111; -581.799
572.164;  -55.643; -739.121; -621.782
572.443;  -50.480; -562.105; -512.811
572.721;  -32.683; -399.117; -289.790
572.999;  -21.764; -280.117; -168.788
573.277;   95.688;  379.894;  620.191
573.555;  299.065;   94.894;   37.190
573.834; 1411.386;  -86.117; -114.788
574.112; 1605.528;  880.893;  811.193
574.390;  500.770; -143.111;  -96.801
574.668;    2.705;  -91.112;  -61.797
574.946;    1.766; -165.106; -187.810
575.224;   12.882;   71.891;  -16.803
575.502;    1.497; -200.116; -204.791
575.780;  -82.944; -767.112; -829.798
576.058;  208.619; 1589.889; 1004.200
576.336;  -25.950; -210.110; -129.801
576.614;  -45.544; -511.112; -340.798
576.891;   55.636; -711.115; -823.794
577.169;  510.519; -158.108; -285.805
577.447;  590.003;  169.893;  202.193
577.725;  276.936;  629.888;  854.201
578.003;   11.884;  -71.112; -371.798
578.280;   95.754; -208.104; -242.812
578.558;   62.710; -450.115; -422.793
578.836;  123.268; -210.114; -145.795
579.114;   43.030; -630.112; -670.797
579.391;   79.462;   -6.117;  -18.789
579.669;  -86.288; -595.114; -704.794
579.947;  169.675; -326.107; -127.806
580.224;  338.074; -692.107; -524.806
580.502;  340.579;  127.893;   76.193
580.779;   34.218;  -42.117;   75.210
581.057;  -66.713; -584.109; -470.804
581.334; -104.981; -726.102; -695.815
581.612;   43.016;   54.895;  511.190
581.889;  -11.518;  -83.101; -129.818
582.167;  -26.554; -298.099; -190.821
582.444;  -95.623; -845.102; -814.817
582.721;  116.027;  657.899;  715.183
582.999;   48.444; -326.100; -167.821
583.276;  548.090; -812.123; -713.779
583.553;  746.472; -364.102; -294.816
583.831;  247.325; -607.104; -631.812
584.108;   56.717;  349.892;  174.195
584.385;   17.593; -122.102;  -98.815
584.662;  -75.803; -651.111; -828.801
584.940;   31.396;  204.889;  204.199
585.217;  -25.675;  -73.113; -303.796
585.494;   44.780;   71.890;  118.198
585.771;  225.112; -250.109; -354.804
586.048;  517.625; -196.113;  -76.796
586.325;  332.574; -721.110; -773.801
586.602;   98.204;  230.896;  213.188
586.879;  -25.885; -499.100; -580.820
587.156;   47.117; -156.105; -331.810
587.433;  -35.825; -701.102; -667.817
587.710;   79.232;  152.888;  234.202
587.987;  305.072; -264.105; -236.811
588.264;  804.184;  315.888;  387.202
588.541; 1368.532;  -61.104;   26.187
588.818; 2711.565;   72.892;  171.196
589.095; 2323.502; -163.104; -174.812
589.371;  391.760; -459.109; -414.804
589.648;    4.528; -581.107; -437.807
589.925;   41.344; -517.114; -621.795
590.202;   16.882; -741.112; -607.798
590.478;   89.724; -166.105;  -73.811
590.755;  281.546; -241.108; -132.806
591.032; 2572.801; -741.110; -699.802
591.308; 3477.022; -732.094; -790.831
591.585; 1840.676; -573.110; -560.802
591.862;  145.876;-1056.102; -950.817
592.138;   69.218; -475.108; -474.805
592.415;  134.155; -486.104; -495.813
592.691; 1493.153;  460.896;  518.188
592.968; 1893.983; -208.098; -123.824
593.244;  905.646; -695.116; -595.790
593.521;   59.626; -105.102;  -42.817
593.797;   -4.932; -810.122; -720.780
594.074;  336.871; -611.096; -588.826
594.350;  669.882;  828.905;  729.172
594.626;  310.322; -303.111; -283.801
594.903;  108.402; -643.101; -645.817
595.179;  186.809;  243.896;  418.187
595.455;   21.755; -136.107; -150.807
595.731;   12.160;  -19.103;  -38.814
596.008;  -42.434; -464.111; -434.800
596.284;   36.643; -187.100; -242.820
596.560;   64.828; -501.093; -493.833
596.836;  211.744; -173.105;  -70.810
597.112;  359.919; -582.108; -437.805
597.388;  286.019;  -49.097;  -48.826
597.665;  110.577;  437.887;  530.203
597.941;  -66.067; -572.089; -658.839
598.217;   25.379; -323.110; -293.802
598.493;  268.939;   61.891; -204.804
598.769;  515.837; -175.100;  -50.819
599.045;  312.897; -490.108; -562.806
599.321;   56.142; -193.100; -261.820
599.597;  146.363; -355.109; -476.804
599.872;  487.357;  409.896;  429.187
600.148;  361.470;  -61.097; -172.826
600.424;  300.577;   91.893;  202.193
600.700;  250.679; -170.107; -280.807
600.976;  132.790; -442.097; -464.825
601.252;  241.310; -226.109; -272.803
601.527;  219.558; -833.104; -840.813
601.803;  139.475; -453.105; -404.812
602.079;  198.562; -124.100; -118.819
602.354;  606.288; -620.092; -531.835
602.630;  834.100; -140.113; -482.796
602.906; 2424.457; -910.101; -863.818
603.181; 6807.675; -627.119; -534.786
603.457; 5805.793;   98.903; -278.826
603.733;  852.059; -605.120; -626.783
604.008;  977.541; -245.106; -164.810
604.284; 3109.053; -636.101; -580.817
604.559; 2686.261;   -3.112;  -42.799
604.835;  503.344; -163.105; -225.810
605.110;  411.597; -732.099; -892.821
605.385;  710.281;  224.907;  267.167
605.661;  675.985; -625.095; -729.829
605.936; 1184.747; -664.108; -737.806
606.211; 1012.067;  -17.103; -170.815
606.487;  205.114; -329.114; -376.794
606.762;    6.175; -791.119; -745.786
607.037;  -12.931; -501.105; -433.810
607.313;  -63.672; -589.096; -574.828
607.588;    2.391; -375.106; -137.810
607.863;   44.182;  -28.101; -143.818
608.138;  201.378;  513.890;  516.198
608.413;   14.776; -576.099; -592.822
608.688;   57.269; -203.108; -267.805
608.964;  219.085; -509.106; -218.809
609.239;  255.216; -107.105; -212.810
609.514;  263.549;  281.895;  240.188
609.789;  658.329; -187.104; -716.812
610.064;  870.527; -435.096; -609.827
610.339;  908.960; -855.109; -799.804
610.614; 1180.867; -131.100; -315.820
610.889;  680.050;  215.895;  107.188
611.163;   25.975; -407.104; -591.812
611.438;   76.415;   81.886; -167.794
611.713;    3.728; -467.101; -499.817
611.988;   55.556; -144.101; -328.818
612.263;  -13.956; -771.102; -717.815
612.538;  242.974;  385.887;  251.204
612.812;  184.918; -832.100; -911.820
613.087;  156.431; -358.098; -338.823
613.362;  -43.471; -497.107; -557.807
613.637;   50.813;  261.897;  138.186
613.911;   -7.411; -256.092; -345.835
614.186;  123.503; -249.107; -292.807
614.460;  689.333; -842.081; -758.854
614.735;  786.756;  -55.087;  -17.843
615.010;  172.071;   43.912;  -82.841
615.284;  253.268;  360.892;  246.195
615.559;  365.862; -792.092; -955.835
615.833;  296.574;  -76.099;  -87.822
616.108;    3.249; -225.090; -390.837
616.382;  167.358;  274.913;  402.156
616.656;  150.225; -241.090; -232.837
616.931;  513.499; -785.099; -700.822
617.205; 1078.633; -973.104; -979.813
617.480;  991.994;  -91.125;    6.225
617.754;  150.617; -396.125; -128.774
618.028;   -2.413; -369.129; -382.768
618.302;   74.042;   73.892;  -25.805
618.577;  -35.736; -371.103; -518.815
618.851;  -63.843; -399.109; -600.803
619.125;  -51.108; -335.134; -378.759
619.399;  -23.192; -244.104; -374.813
619.673;  -34.472; -330.115; -515.792
619.947;  -38.832; -333.114; -448.795
620.222;  -18.627; -198.110; -204.801
620.496;   -7.119;  -47.121;  -96.782
620.770;   24.623; -187.122;  -93.781
621.044;  222.542;  323.895;  346.190
621.318;  756.134; -653.120; -614.783
621.592;  664.107; -430.121; -409.783
621.866;  378.387; -476.112; -572.799
622.140;   40.722; -207.116; -356.791
622.413;   66.391;  138.889;  112.200
622.687;  -42.646; -746.101; -492.817
622.961;   28.092; -130.108; -143.805
623.235;  -55.833; -633.111; -661.800
623.509;  -92.026; -816.105; -848.811
623.783;    0.875;  -12.107;   48.193
624.056;   -2.165; -254.120; -280.783
624.330;   45.030;   63.888;   -3.797
624.604;   43.294; -271.116; -355.790
624.877;   77.902;  180.890;   26.198
625.151;   38.888; -249.114; -238.794
625.425;  -35.590; -150.103; -283.814
625.698;  -52.705; -367.119; -374.785
625.972;  -91.945; -799.110; -765.802
626.245;   72.371;  685.884;  484.210
626.519;  -56.136; -426.120; -340.784
626.792;  -21.596; -192.107; -380.807
627.066;  -87.134; -485.122; -662.779
627.339;  -90.950; -736.110; -663.802
627.613;   31.688;  351.880;  148.216
627.886;  -37.344;  187.891; -612.803
628.160;  -10.441;  312.880; -161.783
628.433;  -88.178; -695.125; -703.775
628.706;  -80.011; -517.120; -615.784
628.979;   37.378;  296.876;  117.223
629.253;  -94.451; -785.119; -833.786
629.526;  374.906; -334.126; -253.772
629.799;  343.061; -641.123; -479.778
630.072;  163.788; -497.128; -516.769
630.346;  -66.829;-1115.116;-1080.790
630.619;  470.630; -467.107; -545.808
630.892;  640.717;  709.889;  593.200
631.165;  340.033;  790.896;  679.187
631.438;  -81.616;-1092.112;-1055.798
631.711;   54.314;  453.877;  257.221
631.984;  -51.734; -523.117; -624.789
632.257;  -67.988; -636.117; -681.789
632.530;  -41.605; -412.119; -433.785
632.803;   32.936; -109.115;    7.207
633.076;  -67.118; -360.123; -422.777
633.349;   17.043;  173.872;  121.231
633.622;  -35.431; -187.119; -240.785
633.895; -124.015; -903.120; -823.783
634.167;  -69.992; -496.126; -525.773
634.440;   -9.173;  -19.116; -137.792
634.713;   -4.202;  -22.119; -120.786
634.986;   87.632;  593.871;  453.233
635.258;  -79.716; -507.115; -597.793
635.531;  106.408;  742.882; -343.788
635.804;  -34.385; -303.117; -318.789
636.077;  -92.177; -830.116; -852.791
636.349;  -17.018; -586.115; -474.793
636.622;  400.381; 1695.874; 1392.228
636.894;  240.790; -474.120; -909.784
637.167;  177.850; -836.127; -789.771
637.439;   26.896; -278.128; -213.770
637.712;  -46.193; -312.126; -293.772
637.984;  -91.401; -635.116; -707.791
638.257;  388.608;  515.877;  488.222
638.529;  551.123; -881.125; -924.776
638.802;  256.138; -508.128; -449.769
639.074; -119.428; -927.122; -952.781
639.346; -121.441; -942.135; -930.757
639.619;   -1.957;  -79.142; -319.744
639.891;   -4.934;  -83.122; -168.779
640.163;  -84.557; -689.122; -756.780
640.435;   23.420;  273.878;  103.220
640.708;   19.396;  -72.122; -132.780
640.980;  -18.252; -366.122; -362.781
641.252;  205.450;  -25.121;  -71.781
641.524; 1810.602;  580.879;  573.219
641.796; 1790.729;-1094.121; -907.782
642.068;  337.606; -191.121; -300.782
642.340;  -64.843; -486.121; -566.783
642.613;   32.809;  294.880;  323.217
642.885;  -99.639; -787.120; -878.783
643.157;  -38.362; -810.120; -658.784
643.428;   58.890;  170.880;  218.216
643.700;  -66.708; -498.120; -425.784
643.972;  -42.982;  -16.119; -133.785
644.244;  -82.605; -474.119; -559.785
644.516;  -44.178; -250.119; -114.786
644.788;   62.424;  662.881;  548.214
645.060;  -18.524;  -12.119; -124.786
645.332;  -93.647; -525.118; -535.787
645.603;   39.254;  479.882;  342.213
645.875;  -80.769; -334.118; -369.787
646.147;  177.708; 1487.882; 1242.212
646.418;  -63.915; -931.117; -918.788
646.690;  141.562; -714.117; -715.789
646.962;   38.939; -413.117; -451.789
647.233;  -16.934;   15.883;   11.211
647.505;  -98.758; -595.117; -475.790
647.776;   25.319;  328.884;  229.210
648.048;    0.846; -248.116; -418.790
648.320;  -84.402; -752.116; -679.791
648.591; -153.675;-1055.116; -958.791
648.862;  -70.298; -505.116; -577.792
649.134;   25.478;  115.885;  198.208
649.405;  -52.170; -661.115; -618.792
649.677;  -64.518; -475.115; -598.793
649.948;  -14.616; -181.115; -296.793
650.219;   -0.589;  -37.115; -147.793
650.491;  -76.412; -431.114; -520.794
650.762; -120.586; -705.114; -731.794
651.033;  -99.159; -437.114; -424.795
651.304; -100.457; -743.114; -728.795
651.576;  -69.205; -680.114; -645.795
651.847;  -38.028; -250.113; -140.796
652.118;  -38.426;  -32.113; -189.796
652.389; -100.000; -639.113; -722.796
652.660;  -32.598; -147.113;  -89.797
652.931; -145.196; -897.112; -871.797
653.202;  -78.694; -382.112; -541.798
653.473;  -56.442; -633.112; -533.798
653.744;  155.660; -595.112; -590.798
654.015;  141.962; -356.112; -303.799
654.286;  -57.612; -642.111; -663.799
654.557;  -55.760; -586.111; -521.799
654.828; -161.658;-1114.111;-1088.800
655.099;  -73.781; -404.111; -291.800
655.370;  -87.704; -427.111; -543.801
655.641; -117.077; -656.110; -714.801
655.911; -108.551; -618.110; -638.801
656.182;   44.726;  437.890;  387.198
656.453;   91.703;  830.890;  746.198
656.724;  -71.420; -466.110; -426.802
656.994;  -83.018; -553.109; -568.803
657.265; -102.141; -862.109; -873.803
657.536;  -89.965; -500.109; -377.804
657.806; -103.363; -561.109; -593.804
658.077; -152.461; -866.109; -950.804
658.347;  -87.334; -523.108; -598.805
658.618; -109.807; -646.108; -694.805
658.888;  -13.455;  -41.108;  112.195
659.159;  -84.628; -432.108; -548.806
659.429;  -19.427; -292.108; -349.806
659.700;    3.775; -435.107; -390.807
659.970;    1.077; -370.107; -359.807
660.241;   20.754; -754.107; -921.807
660.511;  507.806; -147.107; -174.808
660.781;   96.808; -793.106; -748.808
661.052;  -42.641; -222.106; -381.808
661.322;  -22.914;   21.894;   -9.809
661.592;   19.813;  257.894;  148.191
661.862;  -82.885; -369.106; -382.810
662.133;  -94.683; -551.105; -502.810
662.403; -113.481; -770.105; -676.810
662.673;  -53.130; -256.105; -213.811
662.943; -100.103; -612.105; -551.811
663.213;   -3.101;  -85.105;  -81.811
663.483;  -74.649; -593.104; -568.812
663.753;  -42.197; -194.104; -152.812
664.023;  -14.520;   68.896;  -32.813
664.293;  -69.869; -319.104; -126.813
664.563; -128.492; -694.104; -648.813
664.833; -132.040; -743.103; -608.814
665.103; -124.138; -730.103; -793.814
665.373; -118.411; -766.103; -806.814
665.643;  -78.259; -863.103; -918.815
665.913;   43.218; -534.103; -714.815
666.182;  137.444; -685.102; -719.816
666.452;  266.396;  -22.102;  -89.816
666.722;  -20.652; -724.102; -784.816
666.992; -129.775; -948.102; -921.817
667.261; -100.498; -824.102; -808.817
667.531;  209.279;  134.899;   45.183
667.801;  535.280; -440.101; -412.818
668.070;  243.907;  714.899;  697.182
668.340; -105.616; -883.101; -840.819
668.609;   96.936;  588.900;  301.181
668.879;  -81.287; -490.100; -558.819
669.149;  -76.185; -539.100; -516.820
669.418; -110.934; -698.100; -726.820
669.688;  -32.907; -482.100; -666.820
669.957;   82.920; -423.099; -546.821
670.226;  -21.028; -268.099; -331.821
670.496; -106.051; -431.099; -635.822
670.765;  -73.124; -418.099; -501.822
671.034; -148.272; -872.099; -828.822
671.304;  -14.121;   55.902; -111.823
671.573; -155.269;-1085.098; -957.823
671.842;   77.108; -380.098; -294.823
672.112;   25.160; -692.098; -586.824
672.381;    7.312; -239.098; -214.824
672.650; -143.361;-1005.097;-1021.825
672.919;  -90.310; -631.097; -507.825
673.188;  -94.533; -681.097; -878.825
673.457; -141.606;-1101.097;-1143.826
673.726;  -94.429; -579.096; -646.826
673.995;  -40.127; -533.096; -479.826
674.265;  -28.325; -263.096; -333.827
674.534;    8.576; -183.096; -235.827
674.802;    4.528; -618.096; -703.828
675.071; 1060.605; -886.095; -801.828
675.340; 3956.407; -464.095; -339.828
675.609; 1358.459;  103.905;   82.171
675.878;   74.386; -949.095; -893.829
676.147;   39.687;  -26.095;   -8.829
676.416;   86.789; -210.094; -294.830
676.685;  769.541; 1000.906; -622.830
676.953;   97.293; -603.094; -452.831
677.222;  -17.830; -193.094; -273.831
677.491;  -24.803;  -24.094; -127.831
677.759;  -11.076;   11.907;  172.168
678.028;  -33.875; -279.093; -222.832
678.297;   -7.723;   71.907;  197.168
678.565; -158.471; -898.093; -944.833
678.834;  -54.519; -311.093; -268.833
679.102;  -79.242; -411.092; -391.834
679.371; -140.390; -898.092; -727.834
679.639; -136.814; -797.092; -786.834
679.908; -116.337; -794.092; -724.835
680.176; -153.410; -895.091; -941.835
680.445;  -67.533; -346.091; -352.835
680.713;  -37.531;  -58.091;  -23.836
680.982;  -85.904; -523.091; -525.836
681.250; -106.253; -578.091; -507.837
681.518;  -91.501; -534.090; -751.837
681.787;  -21.649; -204.090; -167.837
682.055;  -63.897; -490.090; -422.838
682.323; -145.195; -993.090; -992.838
682.591;   44.282; -216.090; -538.838
682.859;   83.933;    9.911;  -35.839
683.128;   35.060;  232.911;  497.161
683.396; -165.163;-1102.089;-1122.840
683.664;  -36.486; -241.089;   21.160
683.932;    4.891;  144.911;  -76.840
684.200;  -71.982; -576.088; -320.841
684.468;  -35.005;  -73.088; -124.841
684.736;  -38.104; -214.088; -175.841
685.004; -134.577;-1024.088; -982.842
685.272;  -45.575; -880.088; -774.842
685.540;  -71.648; -499.087; -557.843
685.808;  -85.696; -651.087; -682.843
686.076; -113.319; -894.087; -969.843
686.343;  -71.218; -601.087; -815.844
686.611;   29.759; -195.087; -224.844
686.879;  502.461; -530.086; -553.844
687.147; 3375.038; -483.086; -480.845
687.414;  972.540;  -12.086; -169.845
687.682;    5.167; -658.086; -757.846
687.950;  325.268;  259.915;  263.154
688.217;   -3.580; -792.085; -760.846
688.485;   -1.803; -632.085; -636.847
688.753;  528.699;  -11.085; -102.847
689.020;  158.126; -820.085; -851.847
689.288; -114.172; -853.084; -787.848
689.555;  -11.045; -195.084; -148.848
689.823;  -49.594; -241.084; -345.849
690.090;  -69.842; -546.084; -651.849
690.358; -158.390; -877.084; -897.849
690.625;    9.537;  120.917;   45.150
690.892;  -85.161; -403.083; -369.850
691.160;  -25.234;   72.917;  -35.850
691.427;   -2.758;  141.917;  130.149
691.694; -122.081; -855.083; -929.851
691.962; -137.854;-1177.082;-1060.852
692.229;   17.123;  127.918;   56.148
692.496;   76.800;  130.918;  -49.852
692.763;   22.827; -164.082; -201.853
693.031;  -62.147; -739.082; -716.853
693.298;  -33.870; -509.081; -368.853
693.565;  317.557; -155.081; -163.854
693.832; 1288.334;   -5.081;   -9.854
694.099;  152.186; -643.081; -642.855
694.366;  -46.062; -882.081; -896.855
694.633;  -56.361; -920.080; -633.855
694.900;  772.016; 4367.920; -114.856
695.167;  439.393; -214.080; -380.856
695.434;  108.670; -646.080; -623.856
695.701;  199.947;  121.921;  -61.857
695.968;  477.649; -365.079; -361.857
696.234; 1058.476; -415.079; -646.858
696.501;10462.852; -776.079; -614.858
696.768; 5191.904; -554.079; -617.858
697.035;  329.781; -632.078; -667.859
697.302;   30.983; -448.078; -552.859
697.568;   14.460; -458.078; -497.859
697.835;  -44.038; -683.078; -624.860
698.102;  -16.737; -498.078; -407.860
698.368;   64.465;  384.923;  396.139
698.635;  -30.583;  -47.077; -424.861
698.901;  -26.231; -240.077; -348.861
699.168;   71.171; -534.077; -456.862
699.435;   62.273;  -72.077;  -13.862
699.701; -117.076; -868.076; -764.862
699.968;  -50.099;  144.924; -441.863
700.234;  -93.322; -783.076; -822.863
700.500;  -59.945; -448.076; -539.864
700.767;    2.132;   -1.075;   26.136
701.033; -132.141;-1015.075; -963.864
701.299;  -55.264; -450.075; -483.865
701.566;  119.487;  950.925;  763.135
701.832;   37.764;  -31.075;  -76.865
702.098;  -93.134;-1054.074;-1034.866
702.365;  -81.532;-1098.074;-1030.866
702.631;  -26.980;-1038.074;-1063.867
702.897; 1396.272; -765.074; -676.867
703.163; 2245.498;  348.926;  254.133
703.429;  173.275; -256.073; -273.868
703.695;  -26.098; -796.073; -792.868
703.961;   25.454; -214.073; -210.868
704.227;  -41.419; -630.073; -725.869
704.493;  136.833;  613.927;  510.131
704.759;  -33.616; -565.072; -540.870
705.025;   40.636; -203.072; -194.870
705.291;  -15.512; -666.072; -562.870
705.557;  204.490;  719.928;   34.129
705.823;   29.167; -742.072; -694.871
706.089;  144.694; -307.071; -326.871
706.355;  376.770; -315.071; -244.872
706.620; 5629.422; -776.071; -729.872
706.886; 7669.724; -309.071; -362.873
707.152;  726.426; -818.070; -973.873
707.418;  -11.997;-1153.070;-1186.873
707.683;   -2.395; -550.070; -530.874
707.949;  -45.218; -547.070; -578.874
708.215;   15.733; -129.070; -207.874
708.480;  -13.040; -520.069; -420.875
708.746;  103.862;   68.931;   28.125
709.011;  -63.561; -578.069; -612.876
709.277;  -68.634; -538.069; -543.876
709.542;  -66.557; -428.069; -387.876
709.808;   -3.731;  -59.068;   89.123
710.073;  -92.729; -577.068; -695.877
710.339;  -20.852; -242.068; -228.877
710.604;   93.350; -780.068; -845.878
710.869;  339.877; -277.068; -366.878
711.135;  -73.471; -715.067; -628.879
711.400;  -79.620; -507.067; -608.879
711.665;  -69.743; -404.067; -479.879
711.931;  -84.666; -661.067; -677.880
712.196; -126.289; -876.067; -954.880
712.461;  119.588; -402.066; -490.880
712.726;  126.165; -727.066; -771.881
712.991;  -82.159; -647.066; -664.881
713.256;  -48.382; -350.066; -332.882
713.521;  -41.730; -417.065; -381.882
713.787;  -69.703; -454.065; -472.882
714.052;  -24.426; -214.065; -400.883
714.317;  -89.749;-1045.065; -981.883
714.581; 1060.378; -374.065; -268.883
714.846; 1360.354; -822.064; -888.884
715.111;  135.456;  261.936;  257.116
715.376;  -25.917;  -86.064; -223.885
715.641;   -6.365; -365.064; -367.885
715.906;  305.512;   15.936; -551.885
716.171;  150.764;  221.937;  209.114
716.436;   23.340;  -78.063; -104.886
716.700; -114.233; -818.063; -692.886
716.965; -126.956; -794.063; -807.887
717.230;  -66.854; -339.063; -392.887
717.494;  -29.002;  -40.062; -134.888
717.759;  -97.675; -784.062; -640.888
718.024;    3.951;  269.938;  250.112
718.288;   71.903;  685.938;  395.111
718.553; -152.195; -803.062; -977.889
718.817; -144.393; -883.061; -899.889
719.082;  -37.741; -115.061; -125.890
719.346; -134.214;-1000.061; -947.890
719.611;  -38.562; -300.061; -255.891
719.875; -100.711; -568.060; -537.891
720.140;  -69.234; -453.060; -603.891
720.404;   50.718; -136.060; -249.892
720.668;  875.420; -475.060; -411.892
720.933;  339.847;  146.940;  137.108
721.197; -107.701; -667.059; -600.893
721.461; -125.375; -851.059; -826.893
721.725;   -6.048;  -21.059; -250.894
721.990;  -44.221; -284.059; -204.894
722.254;  -29.994;  -26.059; -108.894
722.518;  -67.042; -286.058; -442.895
722.782;  -92.415; -743.058; -594.895
723.046;  132.011;  614.942;  570.105
723.310;   29.488;  374.942;  210.104
723.574;  -94.360; -654.058; -614.896
723.838; -111.483; -576.057; -642.897
724.102;  -36.781; -226.057; -239.897
724.366; -138.404;-1032.057; -978.897
724.630; -103.078; -749.057; -571.898
724.894;  -87.376; -722.057; -514.898
725.158;    0.501;   38.944; -295.898
725.422;  -51.347; -394.056; -327.899
725.685;  -63.145; -441.056; -349.899
725.949;  -76.993; -566.056; -519.900
726.213;  -69.891; -732.056; -811.900
726.477;  178.510;-1020.055; -933.900
726.740;  164.462; -274.055; -104.901
727.004;  339.064; -384.055; -510.901
727.268; 3323.841; -442.055; -400.901
727.531;  882.093; -961.055; -775.902
727.795;  -24.580; -713.054; -673.902
728.059;  -65.779; -552.054; -557.903
728.322;  -74.952; -841.054; -669.903
728.586;   31.150; -692.054; -701.903
728.849;  -65.648; -695.053; -756.904
729.112; -131.021; -812.053; -912.904
729.376; -114.394; -959.053; -905.904
729.639;  -75.093; -536.053; -536.905
729.903; -115.316; -733.053; -699.905
730.166;  -43.389; -437.052; -399.906
730.429;  -22.037; -317.052; -468.906
730.693;  -70.735; -355.052; -894.906
730.956;  227.617;  810.948;  651.093
731.219;  723.044; -310.052; -103.907
731.482;  118.995;-1003.051; -894.907
731.745;   94.972; -794.051; -935.908
732.009;   18.074;  -30.051;   50.092
732.272; -103.024; -904.051; -771.909
732.535;  -34.922; -300.051; -310.909
732.798; -160.220;-1083.050;-1166.909
733.061;  -55.594; -430.050; -456.910
733.324;    4.008;   31.950; -180.910
733.587;   67.085;  290.950;  365.090
733.850;  -73.238; -973.049;-1050.911
734.113;   41.689;   33.951;   32.089
734.376;    5.616; -328.049; -447.912
734.639;  239.417; 1188.951; 1011.088
734.901;   65.569; -180.049; -402.912
735.164;  510.246; -883.048; -837.913
735.427; 1309.148; -166.048; -355.913
735.690;  119.450; -205.048; -234.913
735.952;  -39.998; -923.048; -925.914
736.215;  -21.697;-1113.048;-1009.914
736.478;   43.980; -771.047; -774.915
736.740;  227.657;   33.953;  129.085
737.003;  734.684; -658.047; -672.915
737.266; 4129.136;  -94.047;   46.084
737.528;  431.113; -682.047; -660.916
737.791;  311.690; -316.046; -327.916
738.053;  803.341;  465.954;  649.083
738.316;11112.118; -162.046; -136.917
738.578; 7408.620; -770.046; -736.918
738.841;  439.097; -382.046; -446.918
739.103;  179.349; -875.045; -777.918
739.365;  528.176;   79.955;  -69.919
739.628;   -3.573; -884.045; -805.919
739.890;  -21.796; -758.045; -710.919
740.152;  -49.994; -692.044; -754.920
740.414;   -6.417; -408.044; -359.920
740.677;  -46.740; -785.044; -634.921
740.939;  -32.188; -587.044; -487.921
741.201;  262.963; -432.044; -572.921
741.463;   56.615; -689.043; -745.922
741.725;   15.692;  -21.043; -199.922
741.987;   57.544;  220.957;  116.078
742.249;   12.921; -751.043; -859.923
742.511;  230.548; -703.043; -794.923
742.773;   13.274; -546.042; -546.924
743.035;  132.801;  796.958;  533.076
743.297;  -43.997; -963.042;-1013.924
743.559;  745.155; -278.042; -262.925
743.821;   55.407; -735.042; -744.925
744.083;   15.559;  -44.041; -149.925
744.345; -109.014; -869.041; -892.926
744.607;   35.462;   75.959;  122.074
744.868;  -51.611; -490.041; -554.927
745.130; -112.584; -994.041;-1008.927
745.392;   40.993;   -1.040;  -44.927
745.653;  -14.180; -411.040; -378.928
745.915;  163.247;  896.960;  631.072
746.177;   63.723;   35.960;  -43.928
746.438;    4.375; -428.040; -543.929
746.700;  -30.773; -947.039; -988.929
746.961;    2.854; -659.039; -740.930
747.223;  146.531; -190.039;  -74.930
747.484;   91.308; -391.039; -471.930
747.746;  153.959;  -23.038; -106.931
748.007;  114.786; -647.038; -689.931
748.269;  305.288; -468.038; -440.931
748.530;  465.665; -852.038; -638.932
748.791;  256.717; -354.038; -420.932
749.053;  444.294;  286.963;  163.067
749.314;  471.171; -236.037; -169.933
749.575;  518.647; -945.037; -905.933
749.836;  864.399; -217.037;   86.066
750.098; 2609.376;  -60.037;  -21.934
750.359;37566.953;  414.964;  555.066
750.620; 9029.030; -121.036; -220.935
750.881; 1057.382; -585.036; -513.935
751.142; 1400.533; -950.036; -938.936
751.403;17255.485; -789.036; -705.936
751.664; 7162.287;-1034.035; -999.936
751.925;  518.639; -175.035; -262.937
752.186;  275.116; -298.035; -278.937
752.447;  143.593; -590.035; -445.937
752.708;   38.194; -532.035; -648.938
752.969;    4.721; -566.034; -576.938
753.230;    0.348; -777.034; -672.939
753.491;   -5.975; -650.034; -631.939
753.751;   59.277;  109.966;   19.061
754.012;   88.104;  258.967;  181.060
754.273;   56.430; -174.033;  -71.940
754.534;   25.307; -487.033; -580.940
754.794;  -94.566; -926.033; -911.941
755.055;  161.236; 1051.967;  881.059
755.316;  -43.687; -700.032; -566.942
755.576;  -26.310; -606.032; -576.942
755.837;  -47.858; -527.032; -695.942
756.097;  -31.707; -530.032; -564.943
756.358;  -73.680; -725.032; -770.943
756.618;  -58.553; -705.031; -641.943
756.879;    1.874; -254.031; -349.944
757.139; -118.899;-1098.031;-1116.944
757.400;  -54.847; -538.031; -553.945
757.660;  -11.896; -365.031; -401.945
757.920;   19.681; -266.030; -228.945
758.181;  -13.242; -468.030; -351.946
758.441; -101.190; -870.030; -809.946
758.701;  -13.738; -308.030; -215.946
758.961;  -21.086; -220.030; -278.947
759.222;  -49.060; -574.029; -502.947
759.482;  -88.583; -683.029; -723.948
759.742;  -78.681; -706.029; -547.948
760.002;   -4.329;  -83.029; -143.948
760.262;   29.598;   50.972;  182.051
760.522;  -41.250; -498.028; -574.949
760.782;  -44.273; -738.028; -612.949
761.042;  -24.972; -618.028; -573.950
761.302;   58.980;   55.972;  -18.950
761.562;   45.432; -164.027; -154.951
761.822;  101.159; -710.027; -551.951
762.082;  -38.289;-1104.027;-1093.951
762.342;   73.538; -328.027; -403.952
762.601;   71.664; -567.027; -506.952
762.861;  367.016; -281.026; -207.952
763.121;  433.843; -406.026; -411.953
763.381; 7665.920; -499.026; -485.953
763.640; 7989.822; -139.026; -307.954
763.900;  355.849; -242.026; -203.954
764.160;   92.400; -458.025; -491.954
764.419;   -7.523; -726.025; -782.955
764.679;  -62.396; -795.025; -726.955
764.939;    3.381; -124.025; -210.955
765.198;  -90.592; -608.025; -563.956
765.458;  -89.340; -710.024; -612.956
765.717; -101.364; -454.024; -590.957
765.976;  -50.762; -428.024; -411.957
766.236;  -81.760; -475.024; -610.957
766.495;   21.967;  260.977;   73.042
766.755; -105.056;-1090.023; -987.958
767.014;   11.846; -594.023; -665.958
767.273;  -59.827; -373.023; -397.959
767.533;  -50.601; -228.023; -307.959
767.792;  -24.799; -151.022; -188.960
768.051;  -49.472; -228.022; -276.960
768.310;  -90.570; -546.022; -650.960
768.569;   -0.218; -161.022;    4.039
768.828;  -38.416; -285.022; -363.961
769.088; -115.265;-1050.021; -942.961
769.347;  -76.263; -755.021; -599.962
769.606;  -94.061; -876.021; -857.962
769.865; -129.834;-1016.021;-1033.963
770.124;    3.043; -411.021; -336.963
770.383;  -52.905; -778.020; -910.963
770.641;    1.521; -398.020; -400.964
770.900;  -64.227; -953.020; -846.964
771.159;  -45.800; -851.020; -951.964
771.418;  -21.048; -917.020; -779.965
771.677;  139.829; -224.019; -293.965
771.936;  127.831; -794.019; -865.966
772.194; 2350.682; -465.019; -437.966
772.453;10808.159; -213.019; -391.966
772.712;  745.611;  416.982;  329.033
772.970;  123.263;   32.982;   63.033
773.229;  104.315;  -22.018;  102.033
773.488;  -88.883; -814.018; -770.968
773.746;   56.369;  296.982;  335.032
774.005;   -2.105;  190.983;  -22.969
774.263;   30.447;  243.983;  177.031
774.522;  -95.126; -422.017; -548.969
774.780;  -74.474; -484.017; -417.970
775.039;  -86.622; -551.017; -531.970
775.297;  -20.220; -135.016; -351.970
775.555; -107.244; -489.016; -612.971
775.814; -109.317; -618.016; -570.971
776.072; -133.715; -749.016; -740.971
776.330; -103.163; -630.016; -520.972
776.589; -134.286; -703.015; -721.972
776.847; -120.009; -645.015; -624.973
777.105; -168.133;-1016.015;-1032.973
777.363;  -87.956; -459.015; -454.973
777.621; -145.779; -660.015; -717.974
777.879;   -5.127;  -42.014;   32.026
778.138;  -97.175; -554.014; -717.974
778.396;  -98.573; -585.014; -526.975
778.654; -174.221;-1015.014; -970.975
778.912;  -72.845; -269.014; -371.976
779.170; -131.943; -880.013; -803.976
779.427; -140.691; -922.013; -897.976
779.685; -136.964; -880.013; -832.977
779.943;  -75.612; -654.013; -593.977
780.201; -159.735; -964.012; -883.978
780.459; -124.859; -651.012; -610.978
780.717;  -90.957; -440.012; -390.978
780.974;  -93.830; -449.012; -490.979
781.232;  -89.403; -358.012; -338.979
781.490;  -73.076; -551.011; -472.979
781.747; -101.924; -555.011; -476.980
782.005;   19.802;  462.989;  254.020
782.263; -172.396; -542.011;-1004.981
782.520;  -70.969; -326.011; -501.981
782.778; -171.442;-1013.010;-1051.981
783.035; -171.040; -962.010; -938.982
783.293;  -68.638; -248.010; -206.982
783.550;  -60.312; -134.010; -198.982
783.808; -142.235; -764.010; -776.983
784.065; -151.108; -745.009; -874.983
784.322;  -40.356;   25.991;  -86.984
784.580; -135.129; -915.009; -771.984
784.837; -114.977; -392.009; -466.984
785.094; -141.625; -783.009; -762.985
785.352;  -68.724; -304.008; -404.985
785.609; -106.372; -934.008; -839.985
785.866;  -93.445; -345.008; -401.986
786.123;  -75.993; -639.008; -583.986
786.380; -111.191; -665.008; -604.987
786.637;  -33.639; -225.007; -380.987
786.895;  -21.938; -456.007; -543.987
787.152;  -36.511; -135.007; -267.988
787.409;  -47.384; -123.007; -225.988
787.666;  -78.382; -299.006; -378.988
787.923; -111.155; -616.006; -695.989
788.179; -109.778; -551.006; -584.989
788.436;  -99.127; -585.006; -585.990
788.693;  -25.575;  -92.006;  -87.990
788.950;  153.602; -125.005; -112.990
789.207;  215.504; -381.005; -372.991
789.464;  -49.369; -161.005; -301.991
789.720;  -14.792;  150.995;  110.009
789.977; -162.165;-1003.005; -671.992
790.234;  -36.814;   44.996;  -66.992
790.490; -166.987; -884.004;-1031.993
790.747;  -19.585;  -85.004;   22.007
791.004;  -42.358; -426.004; -348.993
791.260;  -84.406; -430.004; -560.994
791.517; -111.429; -843.003; -788.994
791.773;  -33.778; -379.003; -342.994
792.030; -108.376; -596.003; -660.995
792.286;  -97.849; -686.003; -636.995
792.543;  -17.047;  -74.002; -159.995
792.799;  -60.920; -584.002; -382.996
793.055; -164.243;-1179.002;-1210.996
793.312; -100.342; -827.002; -816.997
793.568;  -64.590; -746.002; -599.997
793.824;   17.162; -226.001; -284.997
794.081;   14.914; -447.001; -508.998
794.337;   65.091; -664.001; -561.998
794.593; 1446.793; -319.001; -271.999
794.849; 6569.544; -746.001; -772.999
795.105;  302.921; -270.000; -261.999
795.361;    5.423; -490.000; -457.000
795.617;  -82.850; -875.000; -945.000
795.873;  -56.175; -360.000; -407.000
796.129;  -40.325; -368.000; -306.000
796.385;  -21.150; -124.000; -156.000
796.641;   54.225;  412.000;  550.000
796.897;  -79.700; -666.000; -635.000
797.153;   57.275;  453.000;  357.000
797.409; -105.200; -785.000; -868.000
797.665;  -73.200; -625.000; -732.000
797.921;  -73.900; -775.000; -762.000
798.176;  -58.050; -744.000; -747.000
798.432;  -35.875; -824.000; -596.000
798.688;  -84.575;-1174.000;-1078.000
798.943;   79.425; -165.000; -147.000
799.199;  -10.550;-1005.000; -959.000
799.455;  240.375;  369.000;  316.000
799.710;  116.825; -813.000; -380.000
799.966;  295.450; -162.000; -160.000
800.221;  462.450; -638.000; -721.000
800.477;10883.150; -743.000; -710.000
800.732; 8946.500; -773.000; -800.000
800.988;  626.550;  205.000;  -19.000
801.243; 1904.925; -454.000; -344.000
801.498; 7529.175; -814.000; -739.000
801.754;  406.475; -289.000; -163.000
802.009;  103.175; -257.000; -335.000
802.264;  -50.775; -967.000;-1033.000
802.520;   31.400;  222.000;   -3.000
802.775;  -49.250; -524.000; -359.000
803.030;   41.500;  395.000;  356.000
803.285; -126.975; -840.000; -903.000
803.540;  -57.850; -686.000; -699.000
803.795;  -44.275; -648.000; -583.000
804.051;  -25.200; -279.000; -346.000
804.306;   23.750;  168.000;  128.000
804.561;  148.300;  451.000;  362.000
804.816;  132.250;  714.000;  861.000
805.071;   13.875; -185.000; -280.000
805.325;  217.525; -257.000; -427.000
805.580; -104.425; -841.000; -877.000
805.835;  -13.550; -204.000; -297.000
806.090;  -75.050; -760.000; -676.000
806.345;  -18.575; -344.000; -264.000
806.600;  -26.675; -549.000; -632.000
806.854;  -35.850; -408.000; -538.000
807.109;   -3.250; -493.000; -577.000
807.364;   -5.750; -407.000; -328.000
807.618;   -4.275; -415.000; -381.000
807.873;   53.475; -470.000; -494.000
808.128;  105.800; -257.000; -518.000
808.382;  106.800; -224.000; -332.000
808.637;   94.300; -440.000; -511.000
808.891;  187.800; -257.000; -180.000
809.146;  109.175; -902.000; -794.000
809.400;  270.750; -848.000; -923.000
809.654;  346.000; -779.000; -551.000
809.909;  507.075; -841.000; -927.000
810.163; 7149.950; -813.000; -651.000
810.418;17091.275; -940.000; -861.000
810.672; 1018.900; -685.000; -690.000
810.926;  711.300; -993.000; -973.000
811.180; 1477.850; -439.000; -372.000
811.434;32599.700;  240.000;  135.000
811.689;12013.000; -231.000; -365.000
811.943;  602.925; -936.000; -953.000
812.197;  320.050; -893.000; -671.000
812.451;  117.425; -379.000; -514.000
812.705;  -23.000; -809.000; -619.000
812.959;    1.150; -263.000; -388.000
813.213;   -5.600; -283.000; -209.000
813.467;   66.850;  470.000;  253.000
813.721;  -95.225; -764.000; -792.000
813.975; -116.750; -826.000; -877.000
814.229;   55.150;  430.000;  353.000
814.482;  -84.525; -517.000; -566.000
814.736; -106.550; -766.000; -744.000
814.990; -132.375; -779.000; -872.000
815.244;  -36.725; -228.000; -285.000
815.497; -102.825; -636.000; -601.000
815.751;   -3.875; -141.000;   82.000
816.005;  -88.650; -470.000; -586.000
816.258;  -68.800; -510.000; -363.000
816.512; -112.925; -693.000; -610.000
816.766;   11.100;  121.000;  157.000
817.019;   20.675;  148.000;  149.000
817.273; -110.175;-1000.000; -802.000
817.526;  -46.200; -206.000; -173.000
817.779;  -48.075;-1049.000; -960.000
818.033;  -76.350; -693.000; -807.000
818.286; -110.700; -725.000; -792.000
818.540;  -91.925; -403.000; -403.000
818.793;  -78.250; -402.000; -489.000
819.046; -120.225; -582.000; -520.000
819.299;  -30.350; -157.000; -166.000
819.553; -122.575; -552.000; -592.000
819.806; -165.975;-1016.000; -838.000
820.059;  -69.175; -334.000; -354.000
820.312;   26.725;  152.000;  185.000
820.565;  -15.150;  110.000;  -27.000
820.818;  -51.525;  -59.000; -173.000
821.071; -164.200;-1041.000; -957.000
821.324;  -93.725; -536.000; -540.000
821.577;  -96.900; -457.000; -483.000
821.830;  -58.750; -270.000; -172.000
822.083; -123.625; -733.000; -288.000
822.336;  -44.375; -261.000; -167.000
822.589; -151.350; -805.000; -688.000
822.842; -141.575; -875.000; -770.000
823.094; -175.075;-1076.000;-1114.000
823.347; -134.425; -925.000; -729.000
823.600;   22.300;  402.000;  187.000
823.853;  -48.625; -311.000; -267.000
824.105;  -80.525; -331.000; -575.000
824.358; -105.575; -617.000; -716.000
824.611;   25.550;  234.000;   40.000
824.863;  -45.200; -612.000; -591.000
825.116;   41.350;  -33.000;   27.000
825.368;   88.275; -366.000; -372.000
825.621;  165.900; -186.000; -240.000
825.873;   77.625; -704.000; -737.000
826.126;  629.850; -669.000; -641.000
826.378;11941.525; -389.000; -505.000
826.630; 2654.650; -890.000; -898.000
826.883;   57.250; -754.000; -693.000
827.135;   37.750; -279.000; -270.000
827.387; -123.225; -893.000; -839.000
827.639;  -28.425;  -86.000;   32.000
827.892; -120.600; -742.000; -582.000
828.144; -146.275; -848.000; -804.000
828.396;  -32.325;  104.000;  -80.000
828.648;  -98.175; -440.000; -333.000
828.900; -147.300; -702.000; -795.000
829.152; -114.900; -684.000; -683.000
829.404;  -52.425; -215.000; -267.000
829.656;   -9.525;  321.000;  214.000
829.908;  -14.100;  393.000;  229.000
830.160; -170.700;-1064.000;-1047.000
830.412;  -88.550; -481.000; -430.000
830.664; -123.950; -557.000; -665.000
830.916;  -73.550; -268.000; -206.000
831.167; -188.375;-1073.000; -951.000
831.419; -121.150; -623.000; -566.000
831.671; -148.450; -764.000; -809.000
831.923;  -83.000; -311.000; -447.000
832.174;  -66.450; -273.000; -331.000
832.426; -102.125; -493.000; -582.000
832.678; -191.500;-1043.000;-1091.000
832.929; -159.250; -947.000; -935.000
833.181;  -69.200; -575.000; -677.000
833.432;  -54.225;  -59.000; -186.000
833.684;  -22.575;  112.000;  -27.000
833.935; -114.075; -610.000; -566.000
834.187; -136.750; -829.000; -823.000
834.438;  -46.000;  -58.000;  -25.000
834.689;  -56.600; -255.000; -123.000
834.941;  -54.725; -343.000; -244.000
835.192; -104.200; -590.000; -533.000
835.443;  -94.425; -419.000; -506.000
835.695;  -10.300;  138.000;  -16.000
835.946;  -82.200; -608.000; -378.000
836.197; -105.175; -599.000; -622.000
836.448;  -80.675; -528.000; -395.000
836.699;  -63.550; -253.000; -341.000
836.950;  -10.925;   72.000;    7.000
837.201; -147.275;-1003.000; -987.000
837.452;  -47.800; -356.000; -170.000
837.703; -116.225; -791.000; -737.000
837.954;  -36.550; -205.000; -365.000
838.205;  -77.625;-1029.000;-1008.000
838.456;  187.625; -196.000; -282.000
838.707;  -12.150; -423.000; -519.000
838.958;   10.300; -634.000; -647.000
839.209;  295.900;   18.000;   40.000
839.460;  119.100; -439.000; -201.000
839.710;  169.250; -135.000; -297.000
839.961;  440.700;  730.000;  612.000
840.212;  336.450; -382.000; -497.000
840.462; 1186.600; -328.000; -277.000
840.713;18569.475; -571.000; -536.000
840.964; 6873.200;  -62.000; -143.000
841.214;  499.700; -384.000; -624.000
841.465;  556.025; -214.000; -141.000
841.715;  509.375; -417.000; -380.000
841.966;  671.700; -746.000; -685.000
842.216; 9885.525; -330.000; -431.000
842.466;34629.525; -169.000; -313.000
842.717; 1734.325; -964.000; -952.000
842.967;  310.025; -635.000; -641.000
843.217;  257.025;   20.000;   28.000
843.468;   75.600; -104.000; -132.000
843.718;  -34.600; -718.000; -726.000
843.968;  -94.825; -837.000; -765.000
844.218;   29.525; -315.000; -262.000
844.469;  -60.500; -577.000; -561.000
844.719;  -97.600; -537.000; -682.000
844.969; -107.275; -550.000; -580.000
845.219; -139.075; -814.000; -862.000
845.469;  -73.675; -392.000; -342.000
845.719; -151.625; -792.000; -884.000
845.969;    5.375;  119.000;  174.000
846.219; -118.700; -738.000; -720.000
846.469;   39.125;  464.000;  432.000
846.718;  -66.475; -115.000;   31.000
846.968; -134.625; -827.000; -827.000
847.218;  -40.000; -224.000; -371.000
847.468;   12.575; -586.000; -555.000
847.718; -141.275; -827.000; -798.000
847.967; -140.275; -826.000; -915.000
848.217;  -82.850; -449.000; -569.000
848.467;  -62.075; -405.000; -376.000
848.716; -119.725; -708.000; -725.000
848.966;   16.600; -372.000; -358.000
849.215;  -76.900; -428.000; -419.000
849.465; -102.675; -785.000; -615.000
849.714; -157.350;-1132.000;-1150.000
849.964;  -56.125; -551.000; -613.000
850.213;  -19.800; -393.000; -355.000
850.463;   67.375;  137.000;  340.000
850.712;   -9.900; -542.000; -567.000
850.961;   27.200; -739.000; -678.000
851.211;   92.975; -513.000; -504.000
851.460;  158.575; -635.000; -650.000
851.709;  566.450;  -25.000;   18.000
851.958;10891.725; -912.000; -750.000
852.208;12281.575; -859.000; -879.000
852.457;  445.050; -181.000;  -13.000
852.706;   64.150; -791.000; -823.000
852.955;   21.025; -507.000; -528.000
853.204;  -70.225; -521.000; -461.000
853.453;  -72.450; -418.000; -458.000
853.702; -127.150; -660.000; -750.000
853.951; -108.275; -532.000; -520.000
854.200; -115.725; -613.000; -562.000
854.449; -137.475; -695.000; -661.000
854.698; -107.100; -340.000; -279.000
854.946;  -72.025; -181.000; -284.000
855.195; -154.125; -843.000; -868.000
855.444;  -93.550; -395.000; -420.000
855.693; -125.950; -345.000; -432.000
855.941; -112.250; -387.000; -516.000
856.190;  -47.950; -256.000; -382.000
856.439; -140.475; -652.000; -703.000
856.687;  -63.525;  -99.000;  -72.000
856.936; -109.100; -621.000; -323.000
857.184; -198.525;-1067.000;-1020.000
857.433;  -91.325; -423.000; -512.000
857.681; -163.825; -989.000; -953.000
857.930;  -76.175; -282.000; -433.000
858.178; -183.800; -856.000; -929.000
858.427; -160.175; -802.000; -781.000
858.675; -119.850; -377.000; -544.000
858.923; -106.775; -527.000; -819.000
859.172; -181.900;-1094.000;-1070.000
859.420;  -87.225; -339.000; -239.000
859.668; -137.950; -624.000; -628.000
859.916;  -15.500;  109.000;  115.000
860.164; -127.500; -699.000; -603.000
860.413;  307.375; -878.000; -696.000
860.661;  202.725; -709.000; -577.000
860.909;  -89.525; -339.000; -325.000
861.157;  -94.000; -277.000; -444.000
861.405; -126.100; -534.000; -670.000
861.653;   21.825;  310.000;  310.000
861.901;  182.700; -543.000; -613.000
862.149;  -15.800; -801.000; -824.000
862.396;  -91.425; -297.000; -187.000
862.644;  -98.775; -368.000; -347.000
862.892;  -41.375;   98.000;  138.000
863.140; -118.050; -549.000; -530.000
863.388; -155.225; -815.000; -759.000
863.635; -139.050; -642.000; -601.000
863.883;   -7.675;  231.000;  190.000
864.131;  -95.250; -288.000; -357.000
864.378; -126.600; -675.000; -540.000
864.626; -111.800; -347.000; -415.000
864.873; -119.550; -556.000; -505.000
865.121; -148.200; -714.000; -799.000
865.368;  -33.375; -173.000;   75.000
865.616;  -49.350;  -33.000;  -40.000
865.863;  -77.650; -462.000; -506.000
866.111; -121.450; -795.000; -824.000
866.358;   47.800; -426.000; -420.000
866.605; 2317.950;  -64.000; -804.000
866.853; 2162.400; -621.000; -537.000
867.100;  -49.225; -728.000; -775.000
867.347;  -90.625; -672.000; -611.000
867.594;  -89.275; -740.000; -714.000
867.841;   85.975;   97.000;   17.000
868.089; -152.750; -746.000; -698.000
868.336; -104.300; -477.000; -420.000
868.583; -139.700; -637.000; -741.000
868.830;  -44.225; -131.000; -170.000
869.077; -170.700; -859.000; -787.000
869.324; -121.100; -502.000; -458.000
869.571; -143.450; -398.000; -430.000
869.818; -111.975; -485.000; -439.000
870.065; -104.700; -439.000; -513.000
870.311; -113.725; -456.000; -542.000
870.558; -103.625; -332.000; -311.000
870.805;  -93.800; -320.000; -384.000
871.052; -127.125; -494.000; -369.000
871.298;  -48.775; -204.000; -131.000
871.545;  -72.400; -151.000; -185.000
871.792;  -88.175; -173.000; -222.000
872.038;  -74.675;   43.000; -126.000
872.285; -112.575; -496.000; -387.000
872.532;  -97.950; -357.000; -387.000
872.778;   10.900;  556.000;  403.000
873.025;  -96.100; -384.000; -359.000
873.271;   31.725;  501.000;  578.000
873.517;  -39.700; -133.000; -209.000
873.764;  -33.900; -193.000;  -80.000
874.010;  -72.000; -143.000; -230.000
874.257;  -31.250;  123.000;   90.000
874.503; -147.325; -579.000; -479.000
874.749;  -51.175;   31.000;  275.000
874.995;  -64.800;  -80.000;  -20.000
875.242; -125.900; -540.000; -478.000
875.488; -117.925; -414.000; -439.000
875.734;  -58.950; -106.000; -234.000
875.980;  202.125; -872.000;-1032.000
876.226;  345.925; -157.000; -255.000
876.472;   -0.925;  343.000;  237.000
876.718;  -49.125;  184.000;  158.000
876.964;  -49.275;   56.000;   55.000
877.210; -175.725; -547.000; -677.000
877.456; -140.075; -630.000; -557.000
877.702; -180.600; -821.000; -832.000
877.948; -116.250; -377.000; -497.000
878.193;   25.750;  361.000;  255.000
878.439;  -86.450; -487.000; -472.000
878.685;  -92.500; -272.000; -343.000
878.931; -137.375; -618.000; -676.000
879.176;  -71.775; -201.000; -201.000
879.422; -187.150; -933.000; -820.000
879.668;   66.025;   10.000;   79.000
879.913;  138.900;   53.000;  137.000
880.159;  -58.200; -112.000;  -17.000
880.404;  -53.775; -152.000; -162.000
880.650;  -37.750;   91.000;  141.000
880.895; -161.375; -670.000; -710.000
881.141; -128.425; -454.000; -428.000
881.386; -147.700; -503.000; -658.000
881.631;  -76.275; -311.000; -166.000
881.877;  -47.150;  112.000;  -13.000
882.122; -125.725; -684.000; -600.000
882.367;  -87.875; -136.000; -186.000
882.612;  -70.475;  -80.000; -176.000
882.858; -178.375; -877.000; -823.000
883.103;  -91.350; -297.000; -267.000
883.348; -169.000; -759.000; -852.000
883.593; -152.650; -677.000; -602.000
883.838;  -58.875; -311.000;  -24.000
884.083;   27.275;  353.000;  288.000
884.328; -104.100; -564.000; -545.000
884.573;  -49.550; -196.000; -143.000
884.818;  216.025; -694.000; -531.000
885.063;  168.175; -348.000; -315.000
885.308; -104.250; -475.000; -398.000
885.553;  -12.125;  245.000;  325.000
885.797; -131.975; -545.000; -615.000
886.042;  -37.075;    8.000;   58.000
886.287; -101.850; -253.000; -211.000
886.532;  -54.275;   26.000;  204.000
886.776; -118.925; -407.000; -525.000
887.021; -145.875; -621.000; -574.000
887.265; -166.400; -685.000; -689.000
887.510; -132.550; -557.000; -496.000
887.755;  -89.575; -194.000; -164.000
887.999; -141.000; -552.000; -575.000
888.244;  -69.725;  -58.000;  161.000
888.488;   -2.550;  371.000;  393.000
888.732; -132.850; -368.000; -520.000
888.977; -127.700; -622.000; -567.000
889.221; -168.900; -683.000; -659.000
889.465; -116.150; -422.000; -566.000
889.710;  -86.175;  -56.000; -299.000
889.954;  -10.850;  579.000;  467.000
890.198; -156.025; -584.000; -707.000
890.442; -151.500; -716.000; -712.000
890.687; -164.825; -800.000; -753.000
890.931;  -87.275; -273.000; -210.000
891.175; -141.425; -502.000; -500.000
891.419;  -79.950; -105.000; -110.000
891.663;  -95.400; -239.000; -112.000
891.907; -171.225; -801.000; -545.000
892.151; -189.025; -920.000; -815.000
892.395; -105.600; -274.000; -387.000
892.638;  -26.450;  408.000;  291.000
892.882; -180.600; -780.000; -867.000
893.126;    6.975;  758.000;  558.000
893.370;  -88.575; -167.000; -168.000
893.614; -155.350; -714.000; -715.000
893.857; -108.900; -183.000; -197.000
894.101; -135.925; -527.000; -631.000
894.345;  -51.350;  300.000;  150.000
894.588;   16.525;  569.000;  380.000
894.832;  -84.125; -178.000;  -84.000
895.075;  -86.750;   15.000;  -92.000
895.319; -134.225; -552.000; -420.000
895.563; -119.550; -413.000; -353.000
895.806; -152.850; -628.000; -741.000
896.049;  -77.100; -576.000; -368.000
896.293;  108.225;  527.000;  405.000
896.536;  -82.500; -465.000; -468.000
896.779;  -67.950; -149.000;   -1.000
897.023; -148.150; -751.000; -714.000
897.266;  -39.475;  325.000;  269.000
897.509; -181.550; -900.000; -901.000
897.752;  -51.575;  149.000;  171.000
897.996; -195.850; -972.000; -864.000
898.239;  -45.700;  168.000;  102.000
898.482; -124.000; -431.000; -453.000
898.725;  -25.900;  101.000;   53.000
898.968; -161.775; -609.000; -744.000
899.211; -106.650; -513.000; -361.000
899.454; -127.475; -633.000; -539.000
899.697;  -57.825;   90.000;  -43.000
899.940; -177.600; -761.000; -757.000
900.182; -100.375; -335.000; -405.000
900.425;  -91.725; -150.000; -298.000
900.668;  -15.775;  491.000;  350.000
900.911; -105.400; -292.000; -345.000
901.154;  -44.325;  141.000;   -3.000
901.396; -148.400; -407.000; -412.000
901.639; -133.200; -430.000; -496.000
901.882; -181.325; -790.000; -809.000
902.124;  -78.225;  -29.000; -143.000
902.367; -114.850; -315.000; -361.000
902.609; -135.100; -476.000; -453.000
902.852;  -85.175; -108.000; -260.000
903.094; -111.050; -458.000; -337.000
903.337;  -75.300;  -26.000;   53.000
903.579; -113.225; -228.000; -441.000
903.821; -169.500; -597.000; -744.000
904.064;  -55.675;   85.000;  127.000
904.306;  -76.700; -126.000; -166.000
904.548; -104.475; -152.000; -366.000
904.790; -114.400; -195.000; -340.000
905.033; -120.375; -625.000; -577.000
905.275; -137.625; -513.000; -524.000
905.517;   45.975;  468.000;  256.000
905.759;  -85.375; -667.000; -761.000
906.001; -102.700; -322.000; -369.000
906.243;  -61.750; -162.000; -224.000
906.485;  123.525; -265.000; -207.000
906.727;   96.450; -499.000; -542.000
906.969;  -55.025;  -30.000; -135.000
907.211;  130.425; -316.000; -382.000
907.453;  279.600; -188.000; -237.000
907.695;   -2.375; -158.000; -385.000
907.936;   38.350;  818.000;  706.000
908.178;  -61.975;   92.000; -135.000
908.420;  -74.825; -111.000; -162.000
908.662; -146.925; -633.000; -682.000
908.903;  -87.525; -208.000; -123.000
909.145;  -79.625; -240.000; -305.000
909.386;   13.150;  315.000;  280.000
909.628;   33.450;  363.000;  397.000
909.870;    6.600;   29.000;  264.000
910.111; -116.900; -809.000; -949.000
910.353;    5.650; -123.000; -161.000
910.594;   -5.875; -574.000; -606.000
910.835;   78.050; -265.000; -326.000
911.077;  136.975; -503.000; -604.000
911.318;  285.150; -505.000; -471.000
911.559;  449.400; -577.000; -880.000
911.801; 1390.225; -284.000; -280.000
912.042;10965.775;  -50.000; -159.000
912.283;26692.000;  404.000;  371.000
912.524; 3742.675; -396.000; -457.000
912.765;  445.375; -193.000;   79.000
913.006;  227.225; -307.000; -338.000
913.247;   46.200; -270.000; -290.000
913.488;   -0.100;  -43.000;   30.000
913.729;  -82.825; -373.000; -373.000
913.970;  -60.700;  -96.000; -292.000
914.211;  -61.025; -160.000; -198.000
914.452;  -79.625; -118.000;  -11.000
914.693;   17.700;  510.000;  592.000
914.934;    0.100;  510.000;  440.000
915.175;  -75.250;   53.000;  -95.000
915.415;  -80.025; -137.000;   27.000
915.656;  -62.075;  -28.000;  192.000
915.897; -105.450; -252.000;  -82.000
916.137;  -70.125;   74.000;   -9.000
916.378; -131.450; -573.000; -517.000
916.619;  -72.350; -159.000;  -63.000
916.859;  -35.725;  303.000;  330.000
917.100;  145.575; 1655.000; 1070.000
917.340;   58.350;  930.000;  728.000
917.581;   47.475;  965.000;  789.000
917.821;  -28.425; -171.000;  143.000
918.061;   23.675; -199.000;  -72.000
918.302;  -55.600; -152.000; -211.000
918.542;  -19.950;  -22.000;    3.000
918.782;   34.350;  369.000;  377.000
919.023;  128.925;  360.000;  427.000
919.263; 1856.025; 8131.000;  202.000
919.503; 1113.750; -137.000;  -54.000
919.743;  645.525;  390.000;  266.000
919.983;  247.775; -134.000;  -26.000
920.223;   75.200;  135.000;   14.000
920.463;  151.350;  631.000;  554.000
920.703;  111.450;   84.000;   39.000
920.943;  158.500; -110.000;   90.000
921.183;  227.275; -414.000; -405.000
921.423;  516.175;  307.000;  546.000
921.663;  725.100; -174.000; -257.000
921.903; 1608.125;  237.000;  173.000
922.143; 9085.625;  372.000;  389.000
922.383;33850.250;  158.000;  115.000
922.622;10448.125; -120.000;  -15.000
922.862; 1151.275;  796.000;  785.000
923.102;  434.325;  -51.000;   33.000
923.341;  163.100;   59.000;   74.000
923.581;   71.400;  450.000;  360.000
923.821;   14.550;  301.000;  398.000
924.060;    2.350;  351.000;  193.000
924.300;  -47.400;  -16.000; -128.000
924.539;  -17.200;  584.000;  473.000
924.779;   18.975;  812.000;  597.000
925.018;  -53.725;  247.000;  353.000
925.257;    4.675;  595.000;  666.000
925.497;  -43.275;  447.000;  412.000
925.736;  -79.500;  -35.000;  102.000
925.975;   -9.100;  687.000;  669.000
926.214;   27.425;  907.000;  850.000
926.454;   19.000;  706.000;  757.000
926.693;  -37.350;  419.000;  543.000
926.932;   51.325; 1021.000;  825.000
927.171;   74.925; 1107.000; 1044.000
927.410;   59.425; 1144.000;  967.000
927.649;   35.775;  924.000;  742.000
927.888;  -21.825;  590.000;  564.000
928.127;  -18.475;  680.000;  678.000
928.366;   21.850;  842.000;  826.000
928.605;   36.200;  831.000;  737.000
928.844;  239.350; 1451.000; 1393.000
929.083;  620.050;  770.000;  613.000
929.321;  303.225; 1335.000; 1359.000
929.560;   88.525; 1158.000; 1122.000
929.799;  -48.325;  574.000;  475.000
930.038;   85.550; 1025.000; 1394.000
930.276;  -53.400;  334.000;  397.000
930.515;    0.750;  827.000;  681.000
930.753;   -3.725;  614.000;  589.000
930.992;  -14.700;  664.000;  717.000
931.230;   -0.400;  847.000;  847.000
931.469;  174.575; 2162.000;  892.000
931.707;   76.575;  840.000;  751.000
931.946;   70.475; 1278.000; 1344.000
932.184;   59.675; 1437.000; 1175.000
932.423;   53.050; 1265.000;  963.000
932.661;   79.300; 1296.000; 1428.000
932.899;   29.575;  987.000;  821.000
933.137;   21.075;  754.000;  564.000
933.376;  145.225; 1664.000; 1335.000
933.614;  159.100; 1759.000; 1196.000
933.852;   60.450; 1357.000; 1171.000
934.090;  136.900; 1722.000; 1747.000
934.328;  104.375; 1252.000; 1457.000
934.566;   75.800; 1431.000; 1110.000
934.804;  135.200; 1263.000; 1309.000
935.042;  448.600; 1861.000; 1850.000
935.280; 1823.850; 2088.000; 2063.000
935.518; 1613.750; 2113.000; 2007.000
935.756;  357.750; 2481.000; 2316.000
935.994;  154.000; 1808.000; 1751.000
936.231;  350.925; 2890.000; 2950.000
936.469;  186.425; 2367.000; 2378.000
936.707;  165.625; 2220.000; 2167.000
936.945;  223.650; 2825.000; 2882.000
937.182;  198.100; 2679.000; 2741.000
937.420;  314.275; 3602.000; 3031.000
937.657;  434.350; 3365.000; 3478.000
937.895;  341.400; 3331.000; 3488.000
938.133;  332.875; 3540.000; 3528.000
938.370;  354.200; 3896.000; 4191.000
938.607;  401.550; 4488.000; 4205.000
938.845;  545.850; 5587.000; 5549.000
939.082;  489.600; 5387.000; 5177.000
939.320;  519.250; 5799.000; 5728.000
939.557;  664.300; 6549.000; 6491.000
939.794;  723.275; 7285.000; 7097.000
940.031;  925.475; 8421.000; 8368.000
940.269; 1097.850; 9552.000; 9107.000
940.506; 1133.275;10901.000;10507.000

