
Integration time [ms]: 100.000
Averaging Nr. [scans]: 40
Smoothing Nr. [pixels]: 0
Data measured with spectrometer [name]: 2101013U2
Wave   ;Sample   ;Dark     ;Reference
[nm]   ;[counts] ;[counts] ;[counts] 

394.013;   39.268; -450.257; -315.536
394.305;  202.366; -461.258; -419.536
394.596; 1134.338; -676.269; -527.514
394.887; 2816.005; -796.268; -654.518
395.178; 1050.885;  145.736;   11.476
395.470;   80.972; -210.263; -356.526
395.761;  189.820;  305.734;  394.479
396.052;  304.913; -545.284; -306.489
396.343;  297.333; -557.276; -454.503
396.634;   91.902; -200.279; -290.497
396.926;   91.652; -618.268; -565.517
397.217;   89.162;   11.725;  -17.504
397.508;   49.903; -366.273; -154.507
397.799;   53.152; -555.279; -571.497
398.090;    7.596; -973.280; -902.495
398.381;  104.063;   11.708;  -11.473
398.672;  -16.961; -585.292; -742.473
398.963;   41.708; -348.279; -373.498
399.254;   90.598;   54.709; -209.475
399.545;  -35.234;-1017.266; -883.520
399.836;   44.947; -407.277; -343.501
400.127;   60.164; -205.295; -209.468
400.418;   37.748; -423.274; -392.506
400.709;   57.983; -359.281; -333.493
401.000;   43.277; -268.291; -309.476
401.290;   97.276;  225.698;  115.545
401.581;   71.346; -166.286; -228.485
401.872;   16.861; -542.298; -486.462
402.163;   51.032; -313.296; -252.467
402.454;   86.799; -123.291; -163.475
402.744;   65.248; -844.297; -813.465
403.035;  395.029; -226.293;  -86.471
403.326;  531.567; -366.292; -384.474
403.617;  383.405;  204.701;  165.539
403.907;  250.044; -593.283; -679.490
404.198; 2490.255; -545.307; -599.446
404.489; 6370.374; -618.283; -588.491
404.779; 2087.129; -618.302; -660.456
405.070;  224.558;  -67.304; -174.451
405.360;  337.331; -259.293; -238.472
405.651;  373.715;  125.699;   98.542
405.942;  182.391;  209.714;  127.516
406.232;  233.055; -432.285; -413.487
406.523;  426.374;  641.706;  758.530
406.813;   86.918; -579.286; -644.484
407.104;  317.412;  261.708;  144.527
407.394;  151.932; -604.299; -591.462
407.685;  162.630;  336.715;  222.513
407.975;   51.747; -400.283; -382.490
408.265;  111.113; -134.289; -190.478
408.556;   63.171; -472.291; -459.475
408.846;  164.925;  474.706;  429.530
409.137;   83.422;   -1.288; -216.480
409.427;   63.530; -193.285; -271.487
409.717;   23.456; -776.273; -692.508
410.007;  142.724;    4.715; -170.486
410.298;   81.417; -360.295; -342.469
410.588;   65.178; -495.285; -510.486
410.878;   31.233; -792.287; -873.482
411.168;  123.589; -481.298; -478.463
411.459;  117.817; -295.283; -242.489
411.749;   57.144; -609.292; -507.474
412.039;   61.770; -755.289; -386.480
412.329;  197.090;   40.722;  132.501
412.619;  198.868;  -62.286; -148.485
412.909;  368.266;  639.711;  594.521
413.199;  312.246; -130.280; -251.495
413.490;  385.631;  521.710;  352.523
413.780;  145.175;-1013.279; -913.496
414.070;  313.634;  -46.276;  235.497
414.360;  362.636; -729.278; -666.498
414.650;  443.629; -726.288; -688.482
414.940;  554.474; -538.280; -441.496
415.230;  925.401;   50.712;   74.519
415.520; 6180.062;  155.730;   66.486
415.809;24488.583; -305.281; -125.493
416.099;18789.899; -388.277; -229.501
416.389; 5345.270;  435.726;  236.494
416.679; 3115.200;   91.738;   85.473
416.969;  540.962; -527.287; -503.483
417.259;  460.002;  341.721;  171.503
417.549;  703.381;  522.718;  318.508
417.838; 1688.254; -205.268; -147.518
418.128; 5639.962;  650.710;  492.522
418.418; 4708.138; -491.272; -579.509
418.708; 3173.621;    9.726;  -48.506
418.997;12012.091; -474.275; -480.505
419.287;12478.402; -733.273; -790.507
419.577;11867.666; -160.283; -123.489
419.866;39277.272; -588.277; -498.501
420.156;39916.433; -242.270;  -55.513
420.446; 7056.693; -112.263;  -26.526
420.735;  834.202; -376.271; -446.512
421.025;  821.835; 1830.722;  315.502
421.314;  631.875; -203.271; -226.512
421.604; 1244.347;   89.732;  233.484
421.893;  734.222; -705.271; -602.511
422.183;  231.018; -487.263; -461.526
422.472;  380.148;  -36.271; -107.511
422.762;  442.622; -416.266; -379.521
423.051;  238.459; -916.276; -916.503
423.341;  298.554; -491.273; -439.507
423.630;  392.378; -121.265;   15.477
423.919;  391.091;   58.725;   49.495
424.209;  371.448;  -31.263;   56.473
424.498;  517.852;   68.732;  161.483
424.787; 1089.308; -535.267; -601.518
425.077; 3398.502;   34.735;   29.478
425.366; 4659.929; -734.262; -744.528
425.655;10111.180;  639.727;  259.493
425.945;22663.683; -313.247; -268.554
426.234;12504.927;  117.741;  300.467
426.523; 5156.207;  -86.259; -350.534
426.812; 7055.618;  107.734;  159.480
427.101;10485.893; -127.269; -323.515
427.390;13155.312;  -55.270;  -86.514
427.680; 2820.827; -624.257; -411.538
427.969;  459.487; -330.255; -301.540
428.258;  306.493; -385.257; -477.536
428.547;  518.492;  449.728;  397.490
428.836; 1156.729; -421.253; -398.543
429.125; 1682.684; -199.259;  -72.534
429.414;  776.376; -330.251; -294.548
429.703; 3216.676; -231.251; -213.548
429.992; 9596.880; -938.250; -828.549
430.281; 6237.461; -397.264; -331.524
430.570;  564.867;  -21.252;   32.454
430.859;  528.131;  279.741;  352.466
431.148;  407.504;  636.752;  631.446
431.437;  289.916;  391.748;  367.454
431.725;  164.745; -544.257; -481.536
432.014;  135.061; -845.253; -756.545
432.303;  369.655; -149.239; -105.569
432.592;  569.467; -460.263; -178.525
432.881; 1046.055; -601.248; -437.554
433.169; 6365.663; -343.255;  -61.540
433.458;12918.763;  445.765;  540.424
433.747; 5319.210; -397.261; -289.529
434.036;  842.930; -275.242; -280.564
434.324; 2128.092; -395.249; -379.551
434.613; 3734.824;   40.757;  159.437
434.902; 1208.745;  333.760;  439.433
435.190;  494.603;   75.761;  295.431
435.479;  280.156;  -52.245;   83.441
435.767;  107.639; -411.244; -427.561
436.056;  209.901; -340.242; -294.563
436.345;  363.047; -372.240; -223.568
436.633;  375.263;   60.750;  383.450
436.922;  231.374;  208.760;  414.432
437.210;  511.703; -194.236;    1.426
437.499; 1590.211; -583.235; -432.576
437.787; 1759.078; -339.236;  -10.574
438.075;  444.834;   56.761;  162.430
438.364;  622.862;  -44.238;  250.429
438.652;  379.316; -286.226; -138.592
438.941;  110.605;    3.770;  269.415
439.229;   -0.636; -665.252; -466.545
439.517;   43.445; -160.234;  -85.577
439.806;    0.207; -501.225; -290.595
440.094;  176.428;  377.766;  650.421
440.382;  154.681; -653.233; -302.580
440.670;  170.686; -361.235; -285.576
440.959;   26.474; -347.223; -170.599
441.247;   44.742; -151.229; -109.587
441.535;   86.843; -266.235;   31.423
441.823;   27.500; -497.234; -305.578
442.111;  181.846;  173.771;  327.412
442.400;  451.330; -628.245; -335.559
442.688; 1200.377; -111.234; -620.579
442.976;  858.262; -786.213; -450.617
443.264;   84.314; -324.224; -364.597
443.552;   87.742; -258.226;   51.408
443.840;  157.092;  602.765;  876.423
444.128;  103.180;  265.767;  269.420
444.416;    1.274; -694.228; -312.588
444.704;   29.104; -465.219;  -92.605
444.992;   67.845;   -0.226;  240.407
445.280;   33.731; -517.230;  -94.585
445.568;   21.591; -694.212; -396.618
445.856;  307.863; -174.221;  357.398
446.143;  675.750;  -54.220;   -7.604
446.431;  539.602;  -25.228;  625.411
446.719;  237.598;  489.783;  675.391
447.007;  175.250;  481.769;  705.416
447.295;  175.421;  597.777;  871.402
447.583;   93.364; -464.229;  -34.587
447.870;  137.935; -434.221; -202.601
448.158;  365.105; -104.230;  129.415
448.446;  270.051; -800.219; -338.604
448.733;  144.715;   13.776;  269.403
449.021;  225.340;   60.788;  341.382
449.309;  177.480; -296.210;  208.379
449.596;  204.119;  128.783;   59.392
449.884;  145.403; -571.222; -325.600
450.172;  175.458; -756.227; -406.590
450.459;  466.470;  645.786;  780.387
450.747; 2451.668; -411.218; -147.608
451.034; 8039.878;  493.772;  889.411
451.322; 6515.898; -413.214; -170.614
451.609;  550.517;  292.777;  508.403
451.897;  622.718; -550.203; -183.634
452.184; 1824.522; -622.223; -400.598
452.472; 1704.427;   97.792;  269.375
452.759;  323.327;  512.781;  864.395
453.047;   99.113; -407.212; -125.617
453.334;   66.785; -732.219; -216.606
453.621;   73.926; -438.214; -161.615
453.909;   95.385;   13.796;  384.368
454.196;   91.730; -299.199; -123.641
454.483;  199.831;  317.798;  540.364
454.771;  119.555; -215.208;  196.374
455.058;   41.883; -316.207;  102.374
455.345;  126.161;   71.807;  344.347
455.632;   94.286; -128.207;  235.373
455.919;   40.353;  -82.196;  182.354
456.207;  -55.590; -774.198; -450.642
456.494;  -19.957; -475.200;  -66.639
456.781;   -3.798; -399.202; -198.635
457.068;   55.743; -253.206;  -29.628
457.355;  -18.431; -698.206; -401.629
457.642;  -10.451; -552.205; -290.630
457.929;   -2.798; -778.194; -417.651
458.216;   64.738; -575.212; -354.617
458.503;  259.256; -173.193;  -19.652
458.790;  262.477; -864.208; -630.625
459.077;  280.482;  -77.202;  110.364
459.364;  802.120; -350.195; -210.649
459.651; 1731.741;  -46.206;  220.372
459.938;  780.643; -864.209; -665.623
460.225;  146.485;  132.799;  276.363
460.512;  -53.675; -836.197; -688.645
460.799;  103.492;  -32.218;  320.392
461.086;   59.623; -370.200; -251.640
461.372;   34.485; -509.198; -279.642
461.659;  103.904; -165.196;  108.354
461.946;   63.530; -445.193;  -54.651
462.233;  237.795;  842.800;  888.361
462.519;  358.192; -814.201; -464.639
462.806; 1016.201; -768.197; -497.645
463.093;  896.676; -445.191;  -66.656
463.380;  -27.708; -920.186; -824.664
463.666;   56.052; -259.197;  -18.646
463.953;   96.990; -406.195; -243.648
464.239;  199.289; -173.195;  -77.648
464.526;  370.100;  413.806;  743.350
464.813;  318.487; -565.190; -304.658
465.099;  341.081;  606.807;  607.348
465.386;  304.410;  903.807;  921.348
465.672;   13.526; -694.197; -522.645
465.959;    6.605; -598.188; -520.662
466.245;   15.060; -468.193; -359.652
466.532;   93.862; -109.195;   63.352
466.818;   56.442; -357.186; -216.664
467.104;    1.132; -488.182; -415.672
467.391;  -22.811; -628.189; -459.658
467.677;   29.395; -289.186;    9.335
467.964;  -10.954; -682.189; -471.660
468.250;   65.673; -331.186; -160.665
468.536;   82.840;   90.811;  180.341
468.822;  -34.440; -821.184; -574.668
469.109;  150.262;  351.827;  471.311
469.395;  177.270;  729.808;  787.346
469.681;  184.843;   46.811;  156.341
469.967; 1283.948; -699.188; -382.660
470.254; 2804.581; -494.188; -306.662
470.540; 1743.453; -601.196; -476.646
470.826;  245.918; -488.181; -397.675
471.112;  308.838;  288.816;  113.331
471.398;   86.943; -253.183;  -58.670
471.684;   39.796; -626.177; -447.680
471.970;   -0.103; -918.180; -981.675
472.256;   26.244; -521.192; -441.654
472.542;   -3.277; -499.171; -434.691
472.828;    3.778; -743.182; -607.672
473.114;   27.842; -380.166; -283.700
473.400;    6.738; -504.175; -293.684
473.686;   27.948; -452.166; -400.701
473.972;   43.127; -230.174; -131.687
474.258;  -38.963; -925.173; -843.689
474.544;  205.988; -183.178;   -2.679
474.830;  327.664;  -65.175;   45.316
475.116;  521.514; -123.190; -196.658
475.401;  702.724; -558.180; -467.676
475.687;  209.923; -725.180; -718.676
475.973;    0.261; -673.181; -770.673
476.259;  237.891;  736.825;  764.315
476.544;  364.354; -539.176; -437.682
476.830;  884.219; -398.172; -322.690
477.116;  757.228; -430.177; -336.682
477.401;  154.048;  346.820;  358.324
477.687;  -14.487; -289.175; -405.684
477.973;   27.164;   21.819;   28.326
478.258;  -12.382; -448.163; -348.706
478.544;   48.003;   21.815;   61.334
478.829;  -55.946; -818.171; -738.692
479.115;  -44.806; -749.172; -651.690
479.401;  -10.777; -444.174; -449.686
479.686;   31.022; -253.180;  -74.676
479.972;  -27.357; -886.178; -776.680
480.257;   17.543; -258.166;  -65.700
480.542;  -12.542; -614.170; -469.693
480.828;  233.461; 1288.824; 1392.317
481.113;  -44.916; -464.176; -426.683
481.399;   -5.433; -236.161; -202.711
481.684;  -47.332; -620.166; -462.700
481.969;   23.106; -158.159;  -73.713
482.255;  -20.132; -439.169; -285.695
482.540;   -5.132; -569.178; -441.680
482.825;   20.187; -395.187; -404.663
483.110;  101.197;  -85.169; -105.696
483.396;  200.902; -840.157; -652.718
483.681;  526.602;  543.826;  730.313
483.966;  162.150; -696.160; -700.712
484.251;   -7.849; -404.174; -310.687
484.536;  -12.547; -356.165; -378.703
484.822;    5.504; -205.173; -218.687
485.107;  -36.360; -599.152; -502.726
485.392;  118.609;  662.836;  541.296
485.677;   61.581;  354.832;  163.302
485.962;   98.875;  160.843;  270.283
486.247;  100.751;  -14.162;   -8.707
486.532;   47.844; -178.166; -325.701
486.817;  160.762;  381.839;  431.291
487.102;  119.798; -453.154; -514.722
487.387;  679.429; -637.156; -652.718
487.672; 1248.489; -154.164;  -38.705
487.957;  789.244; -394.160; -286.711
488.241;  211.007; -290.150; -314.729
488.526;  752.617; -280.152; -148.726
488.811; 1265.295; -881.177; -818.680
489.096;  959.801; -666.154; -702.723
489.381;  528.638;    3.847;  162.275
489.666;  410.767; -428.161; -510.710
489.950;  183.654;  558.846;  627.277
490.235;  -35.673; -480.151; -458.728
490.520;  -41.859; -756.161; -723.710
490.804;  -70.169; -827.156; -736.719
491.089;    9.373; -469.149; -299.732
491.374;   22.988; -132.164;  -75.704
491.658;   -8.491; -817.147; -717.735
491.943;  167.271; -657.152; -609.727
492.227;  245.619; -178.155;  -38.721
492.512;   45.724; -294.157; -341.717
492.797;  -70.508; -713.149; -716.731
493.081;  -55.488; -588.147; -598.735
493.366;  -32.132; -751.161; -635.711
493.650;  199.090;  831.859;  917.254
493.935;   47.559; -648.147; -447.734
494.219;  -38.573; -778.142; -687.743
494.503;  -49.438; -585.150; -487.730
494.788;   50.116;   46.842;   74.285
495.072;  112.783;  184.850;  434.271
495.356;  173.401; -463.148; -343.733
495.641;  469.393; -812.146; -736.736
495.925;  447.636; -976.156; -903.719
496.209;   16.397; -599.149; -451.732
496.494;  -51.397; -763.142; -544.744
496.778;    3.423; -364.154; -360.722
497.062;  -43.839; -819.156; -627.719
497.346;  -22.729; -869.160; -640.711
497.631;  156.604;  580.852;  560.266
497.915;   66.929;  -64.145;  175.261
498.199;   34.327; -341.157; -277.718
498.483;   26.765; -562.152; -508.725
498.767;  189.459;  301.850;  300.271
499.051;  194.245; -126.149; -100.732
499.335;   38.043; -693.149; -739.731
499.619;  -37.909; -381.129; -423.767
499.903;   24.643; -272.155;  -65.721
500.187;   29.106; -588.153; -316.724
500.471;    5.645; -796.152; -595.727
500.755;  103.141;   62.839;  -96.710
501.039;   27.218; -270.155; -357.721
501.323;   86.042;  -21.141;  264.254
501.607;   27.719; -447.163; -503.706
501.891;    0.004; -607.156; -512.718
502.174;  -24.235; -726.144; -585.741
502.458;   57.774;   89.849;  370.273
502.742;   41.941; -180.138; -191.751
503.026;  117.883; -412.147; -254.734
503.310;  180.405; -437.159; -375.713
503.593;  131.435; -464.147; -325.735
503.877;  110.181; -232.133; -156.760
504.161;  174.183;    2.847;  -50.724
504.444;  134.668; -841.158; -710.716
504.728;  503.062; -487.164; -522.704
505.012;  743.181; -257.150;  -76.729
505.295;  550.692; -417.161; -212.711
505.579;  561.310; -256.156; -496.719
505.862;  792.175; -555.145; -333.738
506.146;  783.582; -681.159; -758.714
506.429;  421.407;  568.841;  461.286
506.713;   69.053; -732.151; -667.728
506.996;  321.498;   90.846;  295.278
507.280;  362.657; -633.165; -474.703
507.563;  252.091; -469.155; -261.721
507.847;  102.531; -423.153; -112.724
508.130;   86.243; -665.161; -456.711
508.413;  112.864; -758.167; -577.700
508.697;  255.539; -151.167;   12.300
508.980;  156.508; -422.153; -312.724
509.263;   -0.212; -466.155; -450.720
509.547;   33.356; -124.150;   82.271
509.830;   47.120; -172.160;  140.289
510.113;   78.785;  128.844;  298.281
510.396;   34.238; -530.152; -300.725
510.680;  122.677; -818.145; -812.738
510.963;  525.902;  184.846;  180.277
511.246;  445.389; -493.150; -357.730
511.529;  254.482; -482.145;  -83.739
511.812;  402.527; -250.134;   10.241
512.095;  281.576; -740.151; -396.728
512.378;   73.814; -317.147; -245.736
512.661;   21.423; -703.137; -623.753
512.944;   22.104; -750.142; -637.744
513.227;   70.720; -170.137; -171.752
513.510;   40.715; -479.144; -671.741
513.793;   22.596; -485.140; -435.747
514.076;  148.337;  -43.127;  -39.771
514.359;  105.698; -294.149; -135.732
514.642;   87.857; -442.142; -567.744
514.925;  780.544;  581.860;  561.253
515.208; 1073.049; -498.134; -443.758
515.491;  701.263; -276.133; -182.761
515.773;  381.044; -410.143; -337.742
516.056; 2170.130;  249.864;  409.246
516.339; 2930.133; -754.136; -652.755
516.622; 1855.736; -518.150; -488.730
516.904; 1124.851;  882.857;  975.257
517.187;  500.544; -730.138; -523.752
517.470;  392.100; -568.143; -510.743
517.752;  453.211; -624.136; -470.756
518.035;  363.507; -708.139; -725.749
518.318;  394.909; -799.136; -744.755
518.600; 2597.766; -300.132; -325.762
518.883; 3534.382;  310.858;   88.256
519.165; 1698.562; -585.138; -426.751
519.448;  384.166;  -61.132;  -19.762
519.730;  192.919; -573.126; -415.773
520.013;  296.709;  588.867;  664.240
520.295;  731.079;  -94.134;  -15.759
520.578; 1652.479; -335.131; -305.764
520.860; 1873.591; -254.132;   56.238
521.143; 1002.738; -763.135; -584.756
521.425;  483.857; -251.125; -279.775
521.707;  696.412; -622.127; -380.771
521.990; 1874.888; -199.127;  167.229
522.272; 2143.423; -116.140;   -4.748
522.554;  935.770; -237.143; -157.742
522.836;  338.927;  -24.134;   99.241
523.119;  217.657; -496.148; -189.734
523.401;  158.986; -448.130; -314.766
523.683;   92.474; -865.137; -693.753
523.965;  275.592;  408.862;  260.248
524.247;  284.378;   54.878;  170.220
524.529;  223.979; -451.134; -367.759
524.812;  360.712;   -3.130;  191.234
525.094;  885.291; -773.138; -631.751
525.376; 1444.016; -143.124;   78.223
525.658;  875.406; -441.136; -339.754
525.940;   24.225; -805.131; -671.764
526.222;   38.709; -188.136;  -88.755
526.504;   99.098; -190.131;   32.237
526.786;  148.731; -960.133; -647.760
527.068;  269.222; -124.123;  -67.778
527.349;  104.277; -865.137; -774.754
527.631;  131.241; -137.132;   22.238
527.913;  141.361; -664.127; -450.771
528.195;  174.250; -761.125; -639.774
528.477;  249.324;  -93.134;  -30.758
528.759;  149.587; -648.130; -522.766
529.040;   59.970; -569.123; -293.778
529.322;   61.428; -235.125;  -10.774
529.604;  142.815;  -47.130;   93.233
529.886;  115.744; -546.126; -302.773
530.167;  119.206;  232.870;  192.235
530.449;   52.863;    1.853;   63.265
530.731;   13.452; -572.122; -459.779
531.012;   69.423; -513.120; -216.784
531.294;   83.037; -118.116;  -43.792
531.575;  154.182;  290.875;  538.225
531.857;   62.769; -548.135; -266.757
532.138;  101.315; -113.141;   40.254
532.420;  157.215;  294.865;  403.244
532.701;  213.259; -722.133; -751.760
532.983;  322.262;  232.867;  182.239
533.264;   99.717; -243.126;  175.228
533.546;  -33.016; -491.136; -508.755
533.827;   38.155;  173.867;   -1.759
534.109;   44.694; -352.135;  -80.757
534.390;   87.645; -725.132; -582.762
534.671;  253.015; -270.135;  -82.756
534.953;  142.848; -751.123; -611.779
535.234;   34.672; -426.117; -255.789
535.515;  -74.294; -891.119; -735.785
535.796;  -16.343; -431.128; -193.770
536.078; -121.409;-1050.124; -904.777
536.359;    7.199;  -22.123;    3.221
536.640;  -18.823; -480.125; -197.774
536.921;  158.695;  225.871;  143.232
537.202;  379.138;  -87.138;  -16.751
537.483;  467.103;  251.869;  377.236
537.764;  173.931;   17.870;   98.235
538.045;  -37.552; -543.134; -371.758
538.326;  -32.903; -596.129; -447.768
538.607;   26.913; -686.127; -476.771
538.888;  193.039;   98.879;    5.218
539.169;  212.659; -704.122; -535.781
539.450;  332.219;  236.871;   16.233
539.731;  216.543; -361.121; -182.783
540.012;  128.823;  199.880;  412.216
540.293;   92.610;   82.876;  158.224
540.574;    6.358; -895.113; -717.796
540.855;  453.667;  435.879;  377.218
541.136;  529.806;   47.878;  139.220
541.416;  295.213; -161.130; -220.766
541.697;  196.124; -274.131; -170.763
541.978; 1095.767; -270.135; -315.757
542.259; 1370.838; -211.127; -236.771
542.539;  660.556; -191.116; -186.790
542.820;  176.432;  461.875;  480.225
543.101;  113.528;  -52.145;  -77.738
543.381;   27.137; -638.127; -591.771
543.662;  263.710;  159.873; -254.771
543.942;  607.708; -751.127; -830.770
544.223; 1114.558;  193.878;  161.219
544.504;  735.766; -275.124; -182.777
544.784;  598.244; -592.126; -408.773
545.065; 1725.685;  104.884; -254.791
545.345; 2031.307;  227.881;   14.215
545.626; 1326.757;  -14.113; -108.796
545.906;  935.706;   77.869;   98.235
546.186;  395.923;   92.874;  -95.773
546.467;  206.668;   99.877;  -95.778
546.747;  339.806;  264.884;  327.210
547.027;  390.964;   91.876;  111.223
547.308;  353.183; -376.127; -530.770
547.588;  414.172;  299.871;  371.232
547.868;  184.332;  458.870;  588.235
548.149;  197.367;  609.885;  593.207
548.429;  140.511; -347.127; -299.771
548.709;  214.448; -645.120; -461.784
548.989;  516.516;   84.882;   88.213
549.269; 2224.489;   10.868;  139.239
549.550; 5102.972;  215.877;  117.222
549.830; 4546.325; -758.111; -556.799
550.110;  920.082; -468.110; -320.801
550.390;  864.053; -128.122;  -56.779
550.670; 1192.653; -868.114; -783.795
550.950;  830.016; -509.121; -471.782
551.230;  183.987;  549.879;  460.218
551.510;   -0.660; -381.121; -326.782
551.790;   31.965; -173.109; -127.803
552.070;  275.068;  940.877; 1181.223
552.350;  441.661; -492.119; -377.786
552.630;  630.385;   -2.121;   77.219
552.909;  388.985;  181.884;   73.209
553.189;  256.371;  -49.132;   33.237
553.469;  199.535; -703.119; -514.786
553.749;  206.614; -469.127; -357.772
554.029;  170.226;   33.883;  -24.790
554.308;  165.021; -154.115;  -37.794
554.588;   67.481; -196.128; -204.770
554.868;   75.017; -366.121;  -47.782
555.147;  172.493; -114.115;  -46.793
555.427;  618.713; -260.116; -250.792
555.707; 4097.766; -284.115; -200.793
555.986; 4978.928; -719.111; -538.800
556.266; 2602.705;   23.884;   72.210
556.546;  127.715; -888.121; -675.782
556.825;  259.526; -657.114; -556.794
557.105; 1884.254; -125.128;   17.230
557.384; 2216.284;  122.884;  187.209
557.664;  838.637; -717.116; -508.792
557.943;  116.616; -557.121; -411.782
558.222;  185.569; -345.118; -344.788
558.502;  288.520; -116.115;  -76.793
558.781;  494.615;  194.885;  499.208
559.061;  433.494; -232.118; -227.788
559.340;  315.399;  302.883;  353.211
559.619;  743.729;   93.884;  148.210
559.899; 1116.501; -239.117; -266.789
560.178;  969.094; -778.115; -593.793
560.457; 3287.177; -623.117; -562.790
560.736; 4654.279; -472.111; -482.800
561.015; 3064.852; -500.128; -502.769
561.295;  398.310;  180.893;  215.193
561.574;  346.667;  119.885;  116.207
561.853;  514.869;  274.891;  303.197
562.132;  505.147;  -45.114;  182.206
562.411;  459.311;  396.879;  553.219
562.690;  154.390; -592.115; -458.792
562.969;  150.664;  472.888;  630.203
563.248;  512.083; 2966.878; 2487.219
563.527;  284.179; -290.111; -408.800
563.806;  405.511; -650.127; -521.771
564.085;  450.250; -297.105; -206.810
564.364;  267.779; -594.117; -405.790
564.643;  522.536; -276.121; -223.781
564.922; 1990.338;  221.890;  397.198
565.201; 2010.192; -640.109; -700.803
565.479;  866.139; -297.115; -219.792
565.758;  344.229; -810.128; -712.770
566.037;  488.443; -155.109; -100.803
566.316;  248.984; -286.116;  -28.791
566.595;   46.042;  -17.115;  -12.793
566.873;   97.031; -166.111;  -79.801
567.152;  -68.011; -490.113; -590.797
567.431;   14.455; -113.116;    6.210
567.709;   13.235; -344.107; -212.807
567.988;  287.825; -810.114; -769.794
568.266;  560.691; -160.115;  -68.793
568.545;  416.497; -644.100; -514.819
568.824;  616.463;  160.885;  356.208
569.102;  608.025; -351.114; -235.794
569.381;  244.912; -492.116; -407.792
569.659;  -38.865; -553.113; -553.796
569.938;   60.457; -743.122; -465.780
570.216;  114.496; -225.109; -225.804
570.494;  -19.597; -632.114; -572.795
570.773;   34.790;  202.879;  114.218
571.051;   12.396; -373.123; -357.778
571.330;   62.683; -221.113; -174.796
571.608;   55.190; -181.098; -173.823
571.886;  -55.202; -671.111; -581.799
572.164;  -52.058; -739.121; -621.782
572.443;  -37.796; -562.105; -512.811
572.721;  -31.772; -399.117; -289.790
572.999;  -23.504; -280.117; -168.788
573.277;   95.197;  379.894;  620.191
573.555;  306.974;   94.894;   37.190
573.834; 1424.646;  -86.117; -114.788
574.112; 1674.088;  880.893;  811.193
574.390;  513.905; -143.111;  -96.801
574.668;   16.740;  -91.112;  -61.797
574.946;   -3.975; -165.106; -187.810
575.224;    2.142;   71.891;  -16.803
575.502;   -5.968; -200.116; -204.791
575.780;  -70.109; -767.112; -829.798
576.058;  230.529; 1589.889; 1004.200
576.336;  -22.315; -210.110; -129.801
576.614;  -51.009; -511.112; -340.798
576.891;   52.446; -711.115; -823.794
577.169;  513.479; -158.108; -285.805
577.447;  593.362;  169.893;  202.193
577.725;  256.920;  629.888;  854.201
578.003;   15.643;  -71.112; -371.798
578.280;   91.513; -208.104; -242.812
578.558;   60.395; -450.115; -422.793
578.836;  129.228; -210.114; -145.795
579.114;   57.514; -630.112; -670.797
579.391;   62.373;   -6.117;  -18.789
579.669;  -68.778; -595.114; -704.794
579.947;  178.709; -326.107; -127.806
580.224;  337.584; -692.107; -524.806
580.502;  345.838;  127.893;   76.193
580.779;    6.503;  -42.117;   75.210
581.057;  -67.279; -584.109; -470.804
581.334;  -97.347; -726.102; -695.815
581.612;   40.700;   54.895;  511.190
581.889;  -27.934;  -83.101; -129.818
582.167;  -40.470; -298.099; -190.821
582.444;  -97.915; -845.102; -814.817
582.721;   95.161;  657.899;  715.183
582.999;   52.152; -326.100; -167.821
583.276;  559.650; -812.123; -713.779
583.553;  785.506; -364.102; -294.816
583.831;  238.234; -607.104; -631.812
584.108;   59.627;  349.892;  174.195
584.385;   22.927; -122.102;  -98.815
584.662;  -67.294; -651.111; -828.801
584.940;   39.180;  204.889;  204.199
585.217;  -19.040;  -73.113; -303.796
585.494;   32.439;   71.890;  118.198
585.771;  199.972; -250.109; -354.804
586.048;  531.609; -196.113;  -76.796
586.325;  328.684; -721.110; -773.801
586.602;   99.138;  230.896;  213.188
586.879;  -13.426; -499.100; -580.820
587.156;   58.776; -156.105; -331.810
587.433;  -42.692; -701.102; -667.817
587.710;   69.217;  152.888;  234.202
587.987;  300.581; -264.105; -236.811
588.264;  796.368;  315.888;  387.202
588.541; 1360.116;  -61.104;   26.187
588.818; 2771.349;   72.892;  171.196
589.095; 2394.836; -163.104; -174.812
589.371;  393.195; -459.109; -414.804
589.648;    6.688; -581.107; -437.807
589.925;   28.079; -517.114; -621.795
590.202;    9.941; -741.112; -607.798
590.478;   92.408; -166.105;  -73.811
590.755;  277.805; -241.108; -132.806
591.032; 2575.361; -741.110; -699.802
591.308; 3578.030; -732.094; -790.831
591.585; 1860.560; -573.110; -560.802
591.862;  148.260;-1056.102; -950.817
592.138;   67.653; -475.108; -474.805
592.415;  144.514; -486.104; -495.813
592.691; 1501.962;  460.896;  518.188
592.968; 1939.167; -208.098; -123.824
593.244;  944.331; -695.116; -595.790
593.521;   85.435; -105.102;  -42.817
593.797;  -14.121; -810.122; -720.780
594.074;  332.479; -611.096; -588.826
594.350;  679.365;  828.905;  729.172
594.626;  311.381; -303.111; -283.801
594.903;  125.661; -643.101; -645.817
595.179;  195.718;  243.896;  418.187
595.455;   19.039; -136.107; -150.807
595.731;   -0.756;  -19.103;  -38.814
596.008;  -45.049; -464.111; -434.800
596.284;   32.826; -187.100; -242.820
596.560;   84.386; -501.093; -493.833
596.836;  198.128; -173.105;  -70.810
597.112;  357.503; -582.108; -437.805
597.388;  302.902;  -49.097;  -48.826
597.665;  106.787;  437.887;  530.203
597.941;  -59.535; -572.089; -658.839
598.217;   15.339; -323.110; -293.802
598.493;  270.273;   61.891; -204.804
598.769;  555.446; -175.100;  -50.819
599.045;  323.106; -490.108; -562.806
599.321;   57.050; -193.100; -261.820
599.597;  137.523; -355.109; -476.804
599.872;  492.966;  409.896;  429.187
600.148;  409.104;  -61.097; -172.826
600.424;  317.686;   91.893;  202.193
600.700;  253.288; -170.107; -280.807
600.976;  137.473; -442.097; -464.825
601.252;  271.544; -226.109; -272.803
601.527;  240.116; -833.104; -840.813
601.803;  155.059; -453.105; -404.812
602.079;  193.521; -124.100; -118.819
602.354;  579.996; -620.092; -531.835
602.630;  859.910; -140.113; -482.796
602.906; 2389.616; -910.101; -863.818
603.181; 7022.060; -627.119; -534.786
603.457; 6006.376;   98.903; -278.826
603.733;  876.369; -605.120; -626.783
604.008;  985.450; -245.106; -164.810
604.284; 3200.412; -636.101; -580.817
604.559; 2747.195;   -3.112;  -42.799
604.835;  529.353; -163.105; -225.810
605.110;  431.955; -732.099; -892.821
605.385;  705.839;  224.907;  267.167
605.661;  652.243; -625.095; -729.829
605.936; 1225.732; -664.108; -737.806
606.211; 1015.501;  -17.103; -170.815
606.487;  212.049; -329.114; -376.794
606.762;   26.486; -791.119; -745.786
607.037;  -15.147; -501.105; -433.810
607.313;  -46.339; -589.096; -574.828
607.588;  -11.525; -375.106; -137.810
607.863;   57.240;  -28.101; -143.818
608.138;  189.588;  513.890;  516.198
608.413;   38.534; -576.099; -592.822
608.688;   49.728; -203.108; -267.805
608.964;  213.594; -509.106; -218.809
609.239;  270.026; -107.105; -212.810
609.514;  244.833;  281.895;  240.188
609.789;  673.363; -187.104; -716.812
610.064;  887.610; -435.096; -609.827
610.339;  919.470; -855.109; -799.804
610.614; 1269.601; -131.100; -315.820
610.889;  703.784;  215.895;  107.188
611.163;   53.384; -407.104; -591.812
611.438;   87.575;   81.886; -167.794
611.713;   15.737; -467.101; -499.817
611.988;   61.814; -144.101; -328.818
612.263;  -13.272; -771.102; -717.815
612.538;  212.484;  385.887;  251.204
612.812;  202.102; -832.100; -911.820
613.087;  142.015; -358.098; -338.823
613.362;  -51.261; -497.107; -557.807
613.637;   34.622;  261.897;  138.186
613.911;   -4.028; -256.092; -345.835
614.186;  118.362; -249.107; -292.807
614.460;  699.415; -842.081; -758.854
614.735;  824.539;  -55.087;  -17.843
615.010;  170.579;   43.912;  -82.841
615.284;  258.052;  360.892;  246.195
615.559;  382.945; -792.092; -955.835
615.833;  302.132;  -76.099;  -87.822
616.108;    5.532; -225.090; -390.837
616.382;  149.215;  274.913;  402.156
616.656;  170.783; -241.090; -232.837
616.931;  521.533; -785.099; -700.822
617.205; 1110.542; -973.104; -979.813
617.480; 1010.205;  -91.125;    6.225
617.754;  165.302; -396.125; -128.774
618.028;   21.623; -369.129; -382.768
618.302;   50.326;   73.892;  -25.805
618.577;  -38.752; -371.103; -518.815
618.851;  -57.509; -399.109; -600.803
619.125;  -46.071; -335.134; -378.759
619.399;  -28.933; -244.104; -374.813
619.673;  -47.112; -330.115; -515.792
619.947;  -46.422; -333.114; -448.795
620.222;  -12.093; -198.110; -204.801
620.496;   -5.333;  -47.121;  -96.782
620.770;   17.558; -187.122;  -93.781
621.044;  204.301;  323.895;  346.190
621.318;  761.120; -653.120; -614.783
621.592;  684.717; -430.121; -409.783
621.866;  369.521; -476.112; -572.799
622.140;   14.432; -207.116; -356.791
622.413;   76.400;  138.889;  112.200
622.687;  -34.538; -746.101; -492.817
622.961;    7.526; -130.108; -143.805
623.235;  -59.424; -633.111; -661.800
623.509; -100.742; -816.105; -848.811
623.783;    8.635;  -12.107;   48.193
624.056;   -5.604; -254.120; -280.783
624.330;   45.815;   63.888;   -3.797
624.604;   58.129; -271.116; -355.790
624.877;   56.662;  180.890;   26.198
625.151;   33.873; -249.114; -238.794
625.425;  -44.356; -150.103; -283.814
625.698;  -55.445; -367.119; -374.785
625.972;  -99.111; -799.110; -765.802
626.245;   80.231;  685.884;  484.210
626.519;  -37.750; -426.120; -340.784
626.792;  -40.537; -192.107; -380.807
627.066;  -85.149; -485.122; -662.779
627.339;  -89.065; -736.110; -663.802
627.613;   36.173;  351.880;  148.216
627.886;   50.516;  187.891; -612.803
628.160;  -20.106;  312.880; -161.783
628.433;  -82.542; -695.125; -703.775
628.706;  -76.325; -517.120; -615.784
628.979;   39.889;  296.876;  117.223
629.253;  -82.190; -785.119; -833.786
629.526;  388.367; -334.126; -253.772
629.799;  363.496; -641.123; -479.778
630.072;  184.275; -497.128; -516.769
630.346;  -56.019;-1115.116;-1080.790
630.619;  469.789; -467.107; -545.808
630.892;  650.477;  709.889;  593.200
631.165;  343.017;  790.896;  679.187
631.438;  -69.957;-1092.112;-1055.798
631.711;   52.299;  453.877;  257.221
631.984;  -40.074; -523.117; -624.789
632.257;  -74.577; -636.117; -681.789
632.530;  -42.370; -412.119; -433.785
632.803;   23.246; -109.115;    7.207
633.076;  -69.882; -360.123; -422.777
633.349;   19.229;  173.872;  121.231
633.622;  -38.546; -187.119; -240.785
633.895; -117.205; -903.120; -823.783
634.167;  -71.381; -496.126; -525.773
634.440;   -3.388;  -19.116; -137.792
634.713;  -14.366;  -22.119; -120.786
634.986;   88.543;  593.871;  453.233
635.258;  -76.231; -507.115; -597.793
635.531;   97.469;  742.882; -343.788
635.804;  -41.100; -303.117; -318.789
636.077;  -80.917; -830.116; -852.791
636.349;   -7.558; -586.115; -474.793
636.622;  389.642; 1695.874; 1392.228
636.894;  245.575; -474.120; -909.784
637.167;  159.661; -836.127; -789.771
637.439;   33.957; -278.128; -213.770
637.712;  -46.832; -312.126; -293.772
637.984;  -78.766; -635.116; -707.791
638.257;  381.493;  515.877;  488.222
638.529;  578.784; -881.125; -924.776
638.802;  255.874; -508.128; -449.769
639.074; -115.042; -927.122; -952.781
639.346; -127.355; -942.135; -930.757
639.619;   10.931;  -79.142; -319.744
639.891;   -5.874;  -83.122; -168.779
640.163;  -77.622; -689.122; -756.780
640.435;   31.555;  273.878;  103.220
640.708;    2.132;  -72.122; -132.780
640.980;  -26.566; -366.122; -362.781
641.252;  176.161;  -25.121;  -71.781
641.524; 1815.762;  580.879;  573.219
641.796; 1830.514;-1094.121; -907.782
642.068;  331.866; -191.121; -300.782
642.340;  -58.182; -486.121; -566.783
642.613;   45.420;  294.880;  323.217
642.885;  -94.054; -787.120; -878.783
643.157;  -44.377; -810.120; -658.784
643.428;   59.550;  170.880;  218.216
643.700;  -69.948; -498.120; -425.784
643.972;  -38.146;  -16.119; -133.785
644.244;  -84.244; -474.119; -559.785
644.516;  -57.868; -250.119; -114.786
644.788;   57.659;  662.881;  548.214
645.060;  -31.314;  -12.119; -124.786
645.332;  -92.887; -525.118; -535.787
645.603;   39.365;  479.882;  342.213
645.875;  -73.158; -334.118; -369.787
646.147;  168.068; 1487.882; 1242.212
646.418;  -64.280; -931.117; -918.788
646.690;  162.847; -714.117; -715.789
646.962;   31.874; -413.117; -451.789
647.233;  -20.299;   15.883;   11.211
647.505; -101.698; -595.117; -475.790
647.776;   16.929;  328.884;  229.210
648.048;  -11.169; -248.116; -418.790
648.320;  -72.392; -752.116; -679.791
648.591; -149.265;-1055.116; -958.791
648.862; -104.113; -505.116; -577.792
649.134;    8.388;  115.885;  198.208
649.405;  -40.010; -661.115; -618.792
649.677;  -51.858; -475.115; -598.793
649.948;  -12.006; -181.115; -296.793
650.219;   -4.304;  -37.115; -147.793
650.491;  -89.003; -431.114; -520.794
650.762; -117.901; -705.114; -731.794
651.033;  -77.799; -437.114; -424.795
651.304;  -87.272; -743.114; -728.795
651.576;  -76.620; -680.114; -645.795
651.847;  -37.343; -250.113; -140.796
652.118;  -34.117;  -32.113; -189.796
652.389;  -90.540; -639.113; -722.796
652.660;  -40.013; -147.113;  -89.797
652.931; -138.086; -897.112; -871.797
653.202;  -72.984; -382.112; -541.798
653.473;  -74.132; -633.112; -533.798
653.744;  160.994; -595.112; -590.798
654.015;  136.446; -356.112; -303.799
654.286;  -62.552; -642.111; -663.799
654.557;  -44.275; -586.111; -521.799
654.828; -153.748;-1114.111;-1088.800
655.099;  -77.597; -404.111; -291.800
655.370; -100.445; -427.111; -543.801
655.641; -114.718; -656.110; -714.801
655.911; -119.991; -618.110; -638.801
656.182;   44.086;  437.890;  387.198
656.453;   85.363;  830.890;  746.198
656.724;  -58.961; -466.110; -426.802
656.994;  -86.534; -553.109; -568.803
657.265; -111.382; -862.109; -873.803
657.536;  -88.205; -500.109; -377.804
657.806; -105.853; -561.109; -593.804
658.077; -141.476; -866.109; -950.804
658.347;  -78.325; -523.108; -598.805
658.618; -112.448; -646.108; -694.805
658.888;  -19.771;  -41.108;  112.195
659.159;  -68.869; -432.108; -548.806
659.429;  -19.617; -292.108; -349.806
659.700;    2.159; -435.107; -390.807
659.970;   -9.664; -370.107; -359.807
660.241;   20.863; -754.107; -921.807
660.511;  517.740; -147.107; -174.808
660.781;  114.192; -793.106; -748.808
661.052;  -35.381; -222.106; -381.808
661.322;  -19.780;   21.894;   -9.809
661.592;   12.197;  257.894;  148.191
661.862;  -72.901; -369.106; -382.810
662.133;  -90.849; -551.105; -502.810
662.403; -125.322; -770.105; -676.810
662.673;  -52.295; -256.105; -213.811
662.943; -102.569; -612.105; -551.811
663.213;   -2.367;  -85.105;  -81.811
663.483;  -91.840; -593.104; -568.812
663.753;  -52.438; -194.104; -152.812
664.023;  -14.186;   68.896;  -32.813
664.293;  -64.085; -319.104; -126.813
664.563; -127.533; -694.104; -648.813
664.833; -124.856; -743.103; -608.814
665.103; -119.979; -730.103; -793.814
665.373; -113.877; -766.103; -806.814
665.643;  -85.100; -863.103; -918.815
665.913;   35.701; -534.103; -714.815
666.182;  124.753; -685.102; -719.816
666.452;  275.230;  -22.102;  -89.816
666.722;  -25.618; -724.102; -784.816
666.992; -128.991; -948.102; -921.817
667.261; -101.589; -824.102; -808.817
667.531;  177.712;  134.899;   45.183
667.801;  524.614; -440.101; -412.818
668.070;  235.991;  714.899;  697.182
668.340; -108.232; -883.101; -840.819
668.609;   85.720;  588.900;  301.181
668.879;  -88.779; -490.100; -558.819
669.149;  -66.577; -539.100; -516.820
669.418; -111.400; -698.100; -726.820
669.688;  -31.998; -482.100; -666.820
669.957;   63.629; -423.099; -546.821
670.226;  -18.819; -268.099; -331.821
670.496;  -96.243; -431.099; -635.822
670.765;  -68.141; -418.099; -501.822
671.034; -134.089; -872.099; -828.822
671.304;   -0.512;   55.902; -111.823
671.573; -147.285;-1085.098; -957.823
671.842;   83.266; -380.098; -294.823
672.112;   29.293; -692.098; -586.824
672.381;  -11.130; -239.098; -214.824
672.650; -126.553;-1005.097;-1021.825
672.919;  -87.701; -631.097; -507.825
673.188; -101.799; -681.097; -878.825
673.457; -152.223;-1101.097;-1143.826
673.726;  -84.921; -579.096; -646.826
673.995;  -34.119; -533.096; -479.826
674.265;  -27.917; -263.096; -333.827
674.534;   11.660; -183.096; -235.827
674.802;    8.112; -618.096; -703.828
675.071; 1000.613; -886.095; -801.828
675.340; 4070.165; -464.095; -339.828
675.609; 1354.392;  103.905;   82.171
675.878;   94.244; -949.095; -893.829
676.147;   28.946;  -26.095;   -8.829
676.416;   88.247; -210.094; -294.830
676.685;  751.499; 1000.906; -622.830
676.953;  114.376; -603.094; -452.831
677.222;  -32.147; -193.094; -273.831
677.491;  -30.245;  -24.094; -127.831
677.759;   -7.718;   11.907;  172.168
678.028;  -14.792; -279.093; -222.832
678.297;    9.935;   71.907;  197.168
678.565; -149.063; -898.093; -944.833
678.834;  -55.111; -311.093; -268.833
679.102;  -87.859; -411.092; -391.834
679.371; -134.332; -898.092; -727.834
679.639; -127.706; -797.092; -786.834
679.908; -124.029; -794.092; -724.835
680.176; -151.277; -895.091; -941.835
680.445;  -69.625; -346.091; -352.835
680.713;  -28.698;  -58.091;  -23.836
680.982; -104.622; -523.091; -525.836
681.250; -100.470; -578.091; -507.837
681.518; -100.818; -534.090; -751.837
681.787;  -25.441; -204.090; -167.837
682.055;  -61.864; -490.090; -422.838
682.323; -146.612; -993.090; -992.838
682.591;   34.314; -216.090; -538.838
682.859;   96.016;    9.911;  -35.839
683.128;   16.468;  232.911;  497.161
683.396; -164.905;-1102.089;-1122.840
683.664;  -42.428; -241.089;   21.160
683.932;    4.749;  144.911;  -76.840
684.200;  -80.950; -576.088; -320.841
684.468;  -41.998;  -73.088; -124.841
684.736;  -33.896; -214.088; -175.841
685.004; -117.644;-1024.088; -982.842
685.272;  -50.142; -880.088; -774.842
685.540;  -59.041; -499.087; -557.843
685.808;  -79.339; -651.087; -682.843
686.076;  -91.487; -894.087; -969.843
686.343;  -54.985; -601.087; -815.844
686.611;   55.042; -195.087; -224.844
686.879;  455.544; -530.086; -553.844
687.147; 3410.320; -483.086; -480.845
687.414;  976.972;  -12.086; -169.845
687.682;   17.749; -658.086; -757.846
687.950;  322.201;  259.915;  263.154
688.217;   17.228; -792.085; -760.846
688.485;    3.305; -632.085; -636.847
688.753;  554.956;  -11.085; -102.847
689.020;  177.383; -820.085; -851.847
689.288;  -98.040; -853.084; -787.848
689.555;  -18.738; -195.084; -148.848
689.823;  -38.236; -241.084; -345.849
690.090;  -86.385; -546.084; -651.849
690.358; -140.383; -877.084; -897.849
690.625;   -0.481;  120.917;   45.150
690.892;  -77.504; -403.083; -369.850
691.160;  -20.727;   72.917;  -35.850
691.427;    1.300;  141.917;  130.149
691.694; -124.324; -855.083; -929.851
691.962; -140.747;-1177.082;-1060.852
692.229;   -1.220;  127.918;   56.148
692.496;   83.382;  130.918;  -49.852
692.763;   28.409; -164.082; -201.853
693.031;  -60.690; -739.082; -716.853
693.298;  -24.238; -509.081; -368.853
693.565;  319.164; -155.081; -163.854
693.832; 1339.016;   -5.081;   -9.854
694.099;  156.968; -643.081; -642.855
694.366;  -57.255; -882.081; -896.855
694.633;  -41.829; -920.080; -633.855
694.900;  725.698; 4367.920; -114.856
695.167;  429.225; -214.080; -380.856
695.434;  110.302; -646.080; -623.856
695.701;  196.004;  121.921;  -61.857
695.968;  480.806; -365.079; -361.857
696.234;  963.582; -415.079; -646.858
696.501;10050.509; -776.079; -614.858
696.768; 5235.511; -554.079; -617.858
697.035;  313.213; -632.078; -667.859
697.302;   38.215; -448.078; -552.859
697.568;    8.391; -458.078; -497.859
697.835;  -41.182; -683.078; -624.860
698.102;  -25.155; -498.078; -407.860
698.368;   65.397;  384.923;  396.139
698.635;  -45.776;  -47.077; -424.861
698.901;  -31.624; -240.077; -348.861
699.168;   76.752; -534.077; -456.862
699.435;   71.254;  -72.077;  -13.862
699.701;  -96.419; -868.076; -764.862
699.968;   -6.142;  144.924; -441.863
700.234;  -94.490; -783.076; -822.863
700.500;  -43.938; -448.076; -539.864
700.767;   -4.537;   -1.075;   26.136
701.033; -118.260;-1015.075; -963.864
701.299;  -48.833; -450.075; -483.865
701.566;  121.369;  950.925;  763.135
701.832;   27.471;  -31.075;  -76.865
702.098;  -97.353;-1054.074;-1034.866
702.365;  -77.201;-1098.074;-1030.866
702.631;  -29.674;-1038.074;-1063.867
702.897; 1361.578; -765.074; -676.867
703.163; 2301.330;  348.926;  254.133
703.429;  163.082; -256.073; -273.868
703.695;  -38.667; -796.073; -792.868
703.961;   13.835; -214.073; -210.868
704.227;  -45.313; -630.073; -725.869
704.493;  117.864;  613.927;  510.131
704.759;  -21.784; -565.072; -540.870
705.025;   23.168; -203.072; -194.870
705.291;   -9.931; -666.072; -562.870
705.557;  196.821;  719.928;   34.129
705.823;   25.598; -742.072; -694.871
706.089;  141.375; -307.071; -326.871
706.355;  343.727; -315.071; -244.872
706.620; 5265.478; -776.071; -729.872
706.886; 7638.430; -309.071; -362.873
707.152;  719.732; -818.070; -973.873
707.418;  -32.741;-1153.070;-1186.873
707.683;   14.461; -550.070; -530.874
707.949;  -34.762; -547.070; -578.874
708.215;   -9.386; -129.070; -207.874
708.480;  -29.084; -520.069; -420.875
708.746;   81.718;   68.931;   28.125
709.011;  -62.005; -578.069; -612.876
709.277;  -67.253; -538.069; -543.876
709.542;  -55.677; -428.069; -387.876
709.808;   -4.150;  -59.068;   89.123
710.073;  -78.423; -577.068; -695.877
710.339;  -30.821; -242.068; -228.877
710.604;   70.456; -780.068; -845.878
710.869;  334.233; -277.068; -366.878
711.135;  -71.266; -715.067; -628.879
711.400;  -85.889; -507.067; -608.879
711.665;  -70.237; -404.067; -479.879
711.931;  -91.185; -661.067; -677.880
712.196; -122.458; -876.067; -954.880
712.461;  106.194; -402.066; -490.880
712.726;  158.045; -727.066; -771.881
712.991;  -93.228; -647.066; -664.881
713.256;  -39.876; -350.066; -332.882
713.521;  -60.499; -417.065; -381.882
713.787;  -63.147; -454.065; -472.882
714.052;  -26.671; -214.065; -400.883
714.317; -110.544;-1045.065; -981.883
714.581;  939.908; -374.065; -268.883
714.846; 1372.485; -822.064; -888.884
715.111;  115.512;  261.936;  257.116
715.376;  -27.836;  -86.064; -223.885
715.641;  -18.360; -365.064; -367.885
715.906;  297.992;   15.936; -551.885
716.171;  136.294;  221.937;  209.114
716.436;   33.821;  -78.063; -104.886
716.700;  -99.402; -818.063; -692.886
716.965; -120.075; -794.063; -807.887
717.230;  -71.349; -339.063; -392.887
717.494;  -27.447;  -40.062; -134.888
717.759;  -86.420; -784.062; -640.888
718.024;   -4.193;  269.938;  250.112
718.288;   73.484;  685.938;  395.111
718.553; -146.890; -803.062; -977.889
718.817; -120.313; -883.061; -899.889
719.082;  -33.336; -115.061; -125.890
719.346; -126.834;-1000.061; -947.890
719.611;  -43.032; -300.061; -255.891
719.875;  -91.830; -568.060; -537.891
720.140;  -62.654; -453.060; -603.891
720.404;   33.923; -136.060; -249.892
720.668;  851.250; -475.060; -411.892
720.933;  346.577;  146.940;  137.108
721.197;  -95.596; -667.059; -600.893
721.461; -133.369; -851.059; -826.893
721.725;   -8.418;  -21.059; -250.894
721.990;  -66.341; -284.059; -204.894
722.254;  -39.964;  -26.059; -108.894
722.518;  -70.112; -286.058; -442.895
722.782; -102.960; -743.058; -594.895
723.046;  107.766;  614.942;  570.105
723.310;   14.418;  374.942;  210.104
723.574;  -96.505; -654.058; -614.896
723.838; -106.878; -576.057; -642.897
724.102;  -41.776; -226.057; -239.897
724.366; -132.449;-1032.057; -978.897
724.630; -105.223; -749.057; -571.898
724.894;  -74.296; -722.057; -514.898
725.158;   -2.594;   38.944; -295.898
725.422;  -64.342; -394.056; -327.899
725.685;  -62.840; -441.056; -349.899
725.949;  -73.688; -566.056; -519.900
726.213;  -70.837; -732.056; -811.900
726.477;  165.465;-1020.055; -933.900
726.740;  159.992; -274.055; -104.901
727.004;  325.069; -384.055; -510.901
727.268; 3205.546; -442.055; -400.901
727.531;  913.247; -961.055; -775.902
727.795;  -38.076; -713.054; -673.902
728.059;  -60.799; -552.054; -557.903
728.322;  -75.622; -841.054; -669.903
728.586;   27.880; -692.054; -701.903
728.849;  -78.193; -695.053; -756.904
729.112; -108.967; -812.053; -912.904
729.376; -109.865; -959.053; -905.904
729.639;  -85.388; -536.053; -536.905
729.903; -104.561; -733.053; -699.905
730.166;  -51.984; -437.052; -399.906
730.429;  -31.408; -317.052; -468.906
730.693;  -70.456; -355.052; -894.906
730.956;  206.046;  810.948;  651.093
731.219;  698.748; -310.052; -103.907
731.482;  112.600;-1003.051; -894.907
731.745;  109.877; -794.051; -935.908
732.009;   23.353;  -30.051;   50.092
732.272; -106.220; -904.051; -771.909
732.535;  -46.368; -300.051; -310.909
732.798; -152.666;-1083.050;-1166.909
733.061;  -58.314; -430.050; -456.910
733.324;   12.938;   31.950; -180.910
733.587;   52.664;  290.950;  365.090
733.850;  -69.959; -973.049;-1050.911
734.113;   25.243;   33.951;   32.089
734.376;   -0.605; -328.049; -447.912
734.639;  219.772; 1188.951; 1011.088
734.901;   62.848; -180.049; -402.912
735.164;  501.525; -883.048; -837.913
735.427; 1362.052; -166.048; -355.913
735.690;  127.979; -205.048; -234.913
735.952;  -39.269; -923.048; -925.914
736.215;  -25.242;-1113.048;-1009.914
736.478;   27.109; -771.047; -774.915
736.740;  201.311;   33.953;  129.085
737.003;  663.563; -658.047; -672.915
737.266; 4204.840;  -94.047;   46.084
737.528;  450.092; -682.047; -660.916
737.791;  318.244; -316.046; -327.916
738.053;  763.995;  465.954;  649.083
738.316;10432.647; -162.046; -136.917
738.578; 7680.249; -770.046; -736.918
738.841;  443.301; -382.046; -446.918
739.103;  170.228; -875.045; -777.918
739.365;  515.379;   79.955;  -69.919
739.628;    8.781; -884.045; -805.919
739.890;  -23.842; -758.045; -710.919
740.152;  -38.140; -692.044; -754.920
740.414;   -6.413; -408.044; -359.920
740.677;  -56.661; -785.044; -634.921
740.939;  -44.460; -587.044; -487.921
741.201;  261.817; -432.044; -572.921
741.463;   51.144; -689.043; -745.922
741.725;   11.546;  -21.043; -199.922
741.987;   57.573;  220.957;  116.078
742.249;    1.175; -751.043; -859.923
742.511;  219.001; -703.043; -794.923
742.773;   24.603; -546.042; -546.924
743.035;  135.205;  796.958;  533.076
743.297;  -40.618; -963.042;-1013.924
743.559;  758.759; -278.042; -262.925
743.821;   68.110; -735.042; -744.925
744.083;   17.837;  -44.041; -149.925
744.345;  -90.786; -869.041; -892.926
744.607;   30.941;   75.959;  122.074
744.868;  -47.057; -490.041; -554.927
745.130; -103.830; -994.041;-1008.927
745.392;   24.946;   -1.040;  -44.927
745.653;   -8.177; -411.040; -378.928
745.915;  148.450;  896.960;  631.072
746.177;   49.102;   35.960;  -43.928
746.438;   -4.446; -428.040; -543.929
746.700;  -34.569; -947.039; -988.929
746.961;    8.007; -659.039; -740.930
747.223;  133.059; -190.039;  -74.930
747.484;   90.636; -391.039; -471.930
747.746;  149.763;  -23.038; -106.931
748.007;  118.215; -647.038; -689.931
748.269;  294.516; -468.038; -440.931
748.530;  509.168; -852.038; -638.932
748.791;  256.895; -354.038; -420.932
749.053;  442.472;  286.963;  163.067
749.314;  446.574; -236.037; -169.933
749.575;  510.501; -945.037; -905.933
749.836;  854.377; -217.037;   86.066
750.098; 2385.954;  -60.037;  -21.934
750.359;36832.556;  414.964;  555.066
750.620; 9804.158; -121.036; -220.935
750.881; 1061.285; -585.036; -513.935
751.142; 1364.811; -950.036; -938.936
751.403;16429.763; -789.036; -705.936
751.664; 7632.840;-1034.035; -999.936
751.925;  490.542; -175.035; -262.937
752.186;  267.444; -298.035; -278.937
752.447;  153.771; -590.035; -445.937
752.708;   27.472; -532.035; -648.938
752.969;   24.899; -566.034; -576.938
753.230;    0.726; -777.034; -672.939
753.491;    1.053; -650.034; -631.939
753.751;   66.080;  109.966;   19.061
754.012;   95.082;  258.967;  181.060
754.273;   53.933; -174.033;  -71.940
754.534;   17.585; -487.033; -580.940
754.794;  -79.963; -926.033; -911.941
755.055;  158.064; 1051.967;  881.059
755.316;  -50.109; -700.032; -566.942
755.576;  -22.833; -606.032; -576.942
755.837;  -40.081; -527.032; -695.942
756.097;  -31.329; -530.032; -564.943
756.358;  -75.477; -725.032; -770.943
756.618;  -55.300; -705.031; -641.943
756.879;   12.402; -254.031; -349.944
757.139; -119.422;-1098.031;-1116.944
757.400;  -54.095; -538.031; -553.945
757.660;  -18.493; -365.031; -401.945
757.920;   21.134; -266.030; -228.945
758.181;   -6.989; -468.030; -351.946
758.441;  -73.012; -870.030; -809.946
758.701;  -19.111; -308.030; -215.946
758.961;  -22.784; -220.030; -278.947
759.222;  -52.582; -574.029; -502.947
759.482;  -76.305; -683.029; -723.948
759.742;  -84.703; -706.029; -547.948
760.002;   12.298;  -83.029; -143.948
760.262;   15.100;   50.972;  182.051
760.522;  -36.873; -498.028; -574.949
760.782;  -52.071; -738.028; -612.949
761.042;  -35.969; -618.028; -573.950
761.302;   43.483;   55.972;  -18.950
761.562;   54.784; -164.027; -154.951
761.822;   91.836; -710.027; -551.951
762.082;  -50.662;-1104.027;-1093.951
762.342;   68.290; -328.027; -403.952
762.601;   72.717; -567.027; -506.952
762.861;  371.419; -281.026; -207.952
763.121;  397.045; -406.026; -411.953
763.381; 7141.322; -499.026; -485.953
763.640; 8282.249; -139.026; -307.954
763.900;  355.426; -242.026; -203.954
764.160;   88.528; -458.025; -491.954
764.419;  -18.521; -726.025; -782.955
764.679;  -61.344; -795.025; -726.955
764.939;  -12.892; -124.025; -210.955
765.198;  -82.090; -608.025; -563.956
765.458;  -81.688; -710.024; -612.956
765.717;  -77.411; -454.024; -590.957
765.976;  -61.010; -428.024; -411.957
766.236;  -71.008; -475.024; -610.957
766.495;   25.669;  260.977;   73.042
766.755;  -84.004;-1090.023; -987.958
767.014;    6.248; -594.023; -665.958
767.273;  -61.076; -373.023; -397.959
767.533;  -40.849; -228.023; -307.959
767.792;  -25.322; -151.022; -188.960
768.051;  -49.795; -228.022; -276.960
768.310;  -86.943; -546.022; -650.960
768.569;   -7.566; -161.022;    4.039
768.828;  -24.215; -285.022; -363.961
769.088; -118.038;-1050.021; -942.961
769.347;  -85.536; -755.021; -599.962
769.606;  -88.909; -876.021; -857.962
769.865; -124.157;-1016.021;-1033.963
770.124;    7.845; -411.021; -336.963
770.383;  -35.379; -778.020; -910.963
770.641;   -2.252; -398.020; -400.964
770.900;  -59.825; -953.020; -846.964
771.159;  -53.073; -851.020; -951.964
771.418;  -27.071; -917.020; -779.965
771.677;  135.205; -224.019; -293.965
771.936;  131.582; -794.019; -865.966
772.194; 1981.809; -465.019; -437.966
772.453;10874.961; -213.019; -391.966
772.712;  767.238;  416.982;  329.033
772.970;  107.415;   32.982;   63.033
773.229;   80.541;  -22.018;  102.033
773.488;  -83.657; -814.018; -770.968
773.746;   52.720;  296.982;  335.032
774.005;    2.672;  190.983;  -22.969
774.263;    8.349;  243.983;  177.031
774.522;  -35.699; -422.017; -548.969
774.780;  -84.498; -484.017; -417.970
775.039;  -88.746; -551.017; -531.970
775.297;  -24.244; -135.016; -351.970
775.555; -112.842; -489.016; -612.971
775.814; -116.515; -618.016; -570.971
776.072; -121.639; -749.016; -740.971
776.330;  -97.087; -630.016; -520.972
776.589; -130.535; -703.015; -721.972
776.847; -133.783; -645.015; -624.973
777.105; -166.581;-1016.015;-1032.973
777.363;  -83.304; -459.015; -454.973
777.621; -144.003; -660.015; -717.974
777.879;  -20.001;  -42.014;   32.026
778.138;  -86.999; -554.014; -717.974
778.396;  -97.022; -585.014; -526.975
778.654; -154.745;-1015.014; -970.975
778.912;  -73.043; -269.014; -371.976
779.170; -120.742; -880.013; -803.976
779.427; -139.315; -922.013; -897.976
779.685; -126.313; -880.013; -832.977
779.943;  -78.061; -654.013; -593.977
780.201; -154.209; -964.012; -883.978
780.459; -121.533; -651.012; -610.978
780.717;  -86.881; -440.012; -390.978
780.974;  -90.754; -449.012; -490.979
781.232;  -70.227; -358.012; -338.979
781.490;  -79.025; -551.011; -472.979
781.747; -119.373; -555.011; -476.980
782.005;   30.153;  462.989;  254.020
782.263; -161.895; -542.011;-1004.981
782.520;  -82.393; -326.011; -501.981
782.778; -160.816;-1013.010;-1051.981
783.035; -162.764; -962.010; -938.982
783.293;  -57.487; -248.010; -206.982
783.550;  -62.311; -134.010; -198.982
783.808; -134.559; -764.010; -776.983
784.065; -161.557; -745.009; -874.983
784.322;  -44.205;   25.991;  -86.984
784.580; -133.528; -915.009; -771.984
784.837;  -98.027; -392.009; -466.984
785.094; -129.400; -783.009; -762.985
785.352;  -76.423; -304.008; -404.985
785.609; -104.996; -934.008; -839.985
785.866;  -72.144; -345.008; -401.986
786.123;  -60.592; -639.008; -583.986
786.380; -102.866; -665.008; -604.987
786.637;  -51.064; -225.007; -380.987
786.895;  -30.887; -456.007; -543.987
787.152;  -53.910; -135.007; -267.988
787.409;  -43.408; -123.007; -225.988
787.666;  -94.682; -299.006; -378.988
787.923; -100.255; -616.006; -695.989
788.179; -106.278; -551.006; -584.989
788.436; -108.851; -585.006; -585.990
788.693;  -39.774;  -92.006;  -87.990
788.950;  127.928; -125.005; -112.990
789.207;  240.554; -381.005; -372.991
789.464;  -44.869; -161.005; -301.991
789.720;  -11.367;  150.995;  110.009
789.977; -168.365;-1003.005; -671.992
790.234;  -34.413;   44.996;  -66.992
790.490; -146.336; -884.004;-1031.993
790.747;  -25.585;  -85.004;   22.007
791.004;  -36.508; -426.004; -348.993
791.260;  -68.606; -430.004; -560.994
791.517;  -98.454; -843.003; -788.994
791.773;  -54.502; -379.003; -342.994
792.030; -101.226; -596.003; -660.995
792.286;  -94.049; -686.003; -636.995
792.543;  -20.247;  -74.002; -159.995
792.799;  -53.520; -584.002; -382.996
793.055; -160.643;-1179.002;-1210.996
793.312;  -89.216; -827.002; -816.997
793.568;  -67.790; -746.002; -599.997
793.824;   19.162; -226.001; -284.997
794.081;    6.939; -447.001; -508.998
794.337;   60.616; -664.001; -561.998
794.593; 1223.218; -319.001; -271.999
794.849; 6582.045; -746.001; -772.999
795.105;  353.221; -270.000; -261.999
795.361;   18.098; -490.000; -457.000
795.617;  -70.700; -875.000; -945.000
795.873;  -51.350; -360.000; -407.000
796.129;  -40.350; -368.000; -306.000
796.385;  -18.325; -124.000; -156.000
796.641;   61.725;  412.000;  550.000
796.897;  -82.025; -666.000; -635.000
797.153;   71.000;  453.000;  357.000
797.409;  -88.800; -785.000; -868.000
797.665;  -69.700; -625.000; -732.000
797.921;  -69.600; -775.000; -762.000
798.176;  -49.875; -744.000; -747.000
798.432;  -39.600; -824.000; -596.000
798.688;  -75.175;-1174.000;-1078.000
798.943;   77.425; -165.000; -147.000
799.199;  -17.000;-1005.000; -959.000
799.455;  221.950;  369.000;  316.000
799.710;  125.575; -813.000; -380.000
799.966;  274.750; -162.000; -160.000
800.221;  462.475; -638.000; -721.000
800.477; 9886.000; -743.000; -710.000
800.732; 9417.175; -773.000; -800.000
800.988;  610.725;  205.000;  -19.000
801.243; 1591.125; -454.000; -344.000
801.498; 7399.275; -814.000; -739.000
801.754;  446.425; -289.000; -163.000
802.009;   77.825; -257.000; -335.000
802.264;  -47.450; -967.000;-1033.000
802.520;   21.175;  222.000;   -3.000
802.775;  -58.500; -524.000; -359.000
803.030;   51.725;  395.000;  356.000
803.285; -118.300; -840.000; -903.000
803.540;  -58.600; -686.000; -699.000
803.795;  -50.100; -648.000; -583.000
804.051;  -37.250; -279.000; -346.000
804.306;    9.800;  168.000;  128.000
804.561;  154.200;  451.000;  362.000
804.816;  120.225;  714.000;  861.000
805.071;   -6.275; -185.000; -280.000
805.325;  232.975; -257.000; -427.000
805.580;  -93.100; -841.000; -877.000
805.835;   -5.850; -204.000; -297.000
806.090;  -73.525; -760.000; -676.000
806.345;  -29.750; -344.000; -264.000
806.600;  -19.700; -549.000; -632.000
806.854;  -17.100; -408.000; -538.000
807.109;    6.200; -493.000; -577.000
807.364;   -0.675; -407.000; -328.000
807.618;    1.250; -415.000; -381.000
807.873;   46.400; -470.000; -494.000
808.128;   92.050; -257.000; -518.000
808.382;   99.050; -224.000; -332.000
808.637;   77.925; -440.000; -511.000
808.891;  179.500; -257.000; -180.000
809.146;  113.750; -902.000; -794.000
809.400;  241.850; -848.000; -923.000
809.654;  346.450; -779.000; -551.000
809.909;  482.975; -841.000; -927.000
810.163; 6331.650; -813.000; -651.000
810.418;17861.150; -940.000; -861.000
810.672; 1076.925; -685.000; -690.000
810.926;  708.300; -993.000; -973.000
811.180; 1356.475; -439.000; -372.000
811.434;30154.900;  240.000;  135.000
811.689;13284.050; -231.000; -365.000
811.943;  642.225; -936.000; -953.000
812.197;  324.750; -893.000; -671.000
812.451;  119.200; -379.000; -514.000
812.705;  -24.250; -809.000; -619.000
812.959;  -21.200; -263.000; -388.000
813.213;    6.100; -283.000; -209.000
813.467;   52.975;  470.000;  253.000
813.721; -108.775; -764.000; -792.000
813.975; -120.425; -826.000; -877.000
814.229;   35.175;  430.000;  353.000
814.482;  -61.125; -517.000; -566.000
814.736; -108.150; -766.000; -744.000
814.990; -139.600; -779.000; -872.000
815.244;  -47.600; -228.000; -285.000
815.497;  -97.050; -636.000; -601.000
815.751;  -16.850; -141.000;   82.000
816.005;  -92.325; -470.000; -586.000
816.258;  -70.250; -510.000; -363.000
816.512; -101.925; -693.000; -610.000
816.766;   -9.625;  121.000;  157.000
817.019;    9.450;  148.000;  149.000
817.273; -119.300;-1000.000; -802.000
817.526;  -39.525; -206.000; -173.000
817.779;  -35.750;-1049.000; -960.000
818.033;  -73.725; -693.000; -807.000
818.286; -125.725; -725.000; -792.000
818.540;  -90.525; -403.000; -403.000
818.793;  -77.100; -402.000; -489.000
819.046; -102.250; -582.000; -520.000
819.299;  -38.275; -157.000; -166.000
819.553; -126.200; -552.000; -592.000
819.806; -175.000;-1016.000; -838.000
820.059;  -69.875; -334.000; -354.000
820.312;   14.425;  152.000;  185.000
820.565;  -19.250;  110.000;  -27.000
820.818;  -56.925;  -59.000; -173.000
821.071; -166.775;-1041.000; -957.000
821.324; -107.300; -536.000; -540.000
821.577; -101.150; -457.000; -483.000
821.830;  -73.550; -270.000; -172.000
822.083; -126.150; -733.000; -288.000
822.336;  -47.600; -261.000; -167.000
822.589; -131.875; -805.000; -688.000
822.842; -135.825; -875.000; -770.000
823.094; -195.575;-1076.000;-1114.000
823.347; -136.150; -925.000; -729.000
823.600;   23.350;  402.000;  187.000
823.853;  -47.650; -311.000; -267.000
824.105;  -89.100; -331.000; -575.000
824.358; -102.175; -617.000; -716.000
824.611;   11.250;  234.000;   40.000
824.863;  -52.000; -612.000; -591.000
825.116;   44.475;  -33.000;   27.000
825.368;   85.400; -366.000; -372.000
825.621;  160.325; -186.000; -240.000
825.873;   79.625; -704.000; -737.000
826.126;  528.775; -669.000; -641.000
826.378;11290.000; -389.000; -505.000
826.630; 3076.775; -890.000; -898.000
826.883;   47.450; -754.000; -693.000
827.135;   45.800; -279.000; -270.000
827.387; -116.075; -893.000; -839.000
827.639;  -25.325;  -86.000;   32.000
827.892; -118.150; -742.000; -582.000
828.144; -150.400; -848.000; -804.000
828.396;  -27.825;  104.000;  -80.000
828.648; -100.450; -440.000; -333.000
828.900; -140.275; -702.000; -795.000
829.152; -126.550; -684.000; -683.000
829.404;  -59.325; -215.000; -267.000
829.656;  -43.575;  321.000;  214.000
829.908;  -12.625;  393.000;  229.000
830.160; -166.125;-1064.000;-1047.000
830.412;  -94.250; -481.000; -430.000
830.664; -132.175; -557.000; -665.000
830.916;  -76.300; -268.000; -206.000
831.167; -166.100;-1073.000; -951.000
831.419; -107.900; -623.000; -566.000
831.671; -144.250; -764.000; -809.000
831.923;  -85.475; -311.000; -447.000
832.174;  -73.225; -273.000; -331.000
832.426; -110.375; -493.000; -582.000
832.678; -184.975;-1043.000;-1091.000
832.929; -154.350; -947.000; -935.000
833.181;  -58.500; -575.000; -677.000
833.432;  -53.900;  -59.000; -186.000
833.684;  -14.150;  112.000;  -27.000
833.935; -109.750; -610.000; -566.000
834.187; -130.575; -829.000; -823.000
834.438;  -49.425;  -58.000;  -25.000
834.689;  -58.850; -255.000; -123.000
834.941;  -64.275; -343.000; -244.000
835.192; -102.825; -590.000; -533.000
835.443;  -98.125; -419.000; -506.000
835.695;  -18.925;  138.000;  -16.000
835.946;  -93.625; -608.000; -378.000
836.197; -113.325; -599.000; -622.000
836.448;  -86.425; -528.000; -395.000
836.699;  -68.325; -253.000; -341.000
836.950;   11.425;   72.000;    7.000
837.201; -143.575;-1003.000; -987.000
837.452;  -49.975; -356.000; -170.000
837.703; -114.900; -791.000; -737.000
837.954;  -43.875; -205.000; -365.000
838.205;  -85.975;-1029.000;-1008.000
838.456;  177.175; -196.000; -282.000
838.707;   11.350; -423.000; -519.000
838.958;   29.975; -634.000; -647.000
839.209;  291.925;   18.000;   40.000
839.460;  133.150; -439.000; -201.000
839.710;  184.500; -135.000; -297.000
839.961;  438.125;  730.000;  612.000
840.212;  336.225; -382.000; -497.000
840.462; 1083.950; -328.000; -277.000
840.713;17315.075; -571.000; -536.000
840.964; 7678.075;  -62.000; -143.000
841.214;  531.725; -384.000; -624.000
841.465;  580.750; -214.000; -141.000
841.715;  528.625; -417.000; -380.000
841.966;  673.650; -746.000; -685.000
842.216; 8693.125; -330.000; -431.000
842.466;36002.600; -169.000; -313.000
842.717; 2164.275; -964.000; -952.000
842.967;  336.850; -635.000; -641.000
843.217;  274.500;   20.000;   28.000
843.468;   86.250; -104.000; -132.000
843.718;  -48.525; -718.000; -726.000
843.968;  -86.725; -837.000; -765.000
844.218;   25.800; -315.000; -262.000
844.469;  -38.800; -577.000; -561.000
844.719; -105.475; -537.000; -682.000
844.969;  -79.600; -550.000; -580.000
845.219; -152.800; -814.000; -862.000
845.469;  -78.000; -392.000; -342.000
845.719; -138.700; -792.000; -884.000
845.969;  -10.800;  119.000;  174.000
846.219; -120.075; -738.000; -720.000
846.469;   20.900;  464.000;  432.000
846.718;  -45.850; -115.000;   31.000
846.968; -132.725; -827.000; -827.000
847.218;  -43.825; -224.000; -371.000
847.468;  -93.875; -586.000; -555.000
847.718; -149.550; -827.000; -798.000
847.967; -135.475; -826.000; -915.000
848.217;  -84.450; -449.000; -569.000
848.467;  -69.125; -405.000; -376.000
848.716; -108.825; -708.000; -725.000
848.966;   -8.675; -372.000; -358.000
849.215;  -68.800; -428.000; -419.000
849.465;  -91.425; -785.000; -615.000
849.714; -138.775;-1132.000;-1150.000
849.964;  -74.525; -551.000; -613.000
850.213;  -21.375; -393.000; -355.000
850.463;   73.050;  137.000;  340.000
850.712;   -7.025; -542.000; -567.000
850.961;   12.325; -739.000; -678.000
851.211;   99.375; -513.000; -504.000
851.460;  163.150; -635.000; -650.000
851.709;  544.500;  -25.000;   18.000
851.958; 9735.900; -912.000; -750.000
852.208;13152.275; -859.000; -879.000
852.457;  495.450; -181.000;  -13.000
852.706;   57.450; -791.000; -823.000
852.955;   13.025; -507.000; -528.000
853.204;  -57.200; -521.000; -461.000
853.453;  -83.650; -418.000; -458.000
853.702; -137.000; -660.000; -750.000
853.951; -100.125; -532.000; -520.000
854.200; -111.225; -613.000; -562.000
854.449; -126.975; -695.000; -661.000
854.698; -105.250; -340.000; -279.000
854.946;  -71.150; -181.000; -284.000
855.195; -146.925; -843.000; -868.000
855.444;  -89.825; -395.000; -420.000
855.693; -123.925; -345.000; -432.000
855.941;  -98.075; -387.000; -516.000
856.190;  -62.825; -256.000; -382.000
856.439; -122.650; -652.000; -703.000
856.687;  -56.950;  -99.000;  -72.000
856.936; -110.825; -621.000; -323.000
857.184; -192.600;-1067.000;-1020.000
857.433; -115.275; -423.000; -512.000
857.681; -164.600; -989.000; -953.000
857.930;  -73.600; -282.000; -433.000
858.178; -171.775; -856.000; -929.000
858.427; -152.750; -802.000; -781.000
858.675; -113.375; -377.000; -544.000
858.923; -112.550; -527.000; -819.000
859.172; -182.700;-1094.000;-1070.000
859.420;  -80.025; -339.000; -239.000
859.668; -131.300; -624.000; -628.000
859.916;  -16.625;  109.000;  115.000
860.164; -116.650; -699.000; -603.000
860.413;  293.175; -878.000; -696.000
860.661;  243.025; -709.000; -577.000
860.909;  -86.925; -339.000; -325.000
861.157;  -82.700; -277.000; -444.000
861.405; -120.900; -534.000; -670.000
861.653;    3.375;  310.000;  310.000
861.901;  178.675; -543.000; -613.000
862.149;   13.400; -801.000; -824.000
862.396;  -74.500; -297.000; -187.000
862.644; -102.775; -368.000; -347.000
862.892;  -41.875;   98.000;  138.000
863.140; -123.800; -549.000; -530.000
863.388; -150.500; -815.000; -759.000
863.635; -135.775; -642.000; -601.000
863.883;  -20.550;  231.000;  190.000
864.131;  -99.800; -288.000; -357.000
864.378; -130.325; -675.000; -540.000
864.626; -105.325; -347.000; -415.000
864.873; -120.000; -556.000; -505.000
865.121; -139.325; -714.000; -799.000
865.368;  -42.225; -173.000;   75.000
865.616;  -45.550;  -33.000;  -40.000
865.863;  -69.275; -462.000; -506.000
866.111; -108.125; -795.000; -824.000
866.358;   33.575; -426.000; -420.000
866.605; 2013.600;  -64.000; -804.000
866.853; 2283.025; -621.000; -537.000
867.100;  -48.275; -728.000; -775.000
867.347;  -94.175; -672.000; -611.000
867.594;  -88.325; -740.000; -714.000
867.841;  104.625;   97.000;   17.000
868.089; -148.075; -746.000; -698.000
868.336; -100.375; -477.000; -420.000
868.583; -147.225; -637.000; -741.000
868.830;  -46.125; -131.000; -170.000
869.077; -166.575; -859.000; -787.000
869.324; -119.900; -502.000; -458.000
869.571; -126.475; -398.000; -430.000
869.818; -122.050; -485.000; -439.000
870.065; -128.150; -439.000; -513.000
870.311; -113.850; -456.000; -542.000
870.558; -105.625; -332.000; -311.000
870.805;  -90.400; -320.000; -384.000
871.052; -109.525; -494.000; -369.000
871.298;  -61.700; -204.000; -131.000
871.545;  -69.325; -151.000; -185.000
871.792;  -91.275; -173.000; -222.000
872.038;  -74.700;   43.000; -126.000
872.285; -129.700; -496.000; -387.000
872.532;  -97.875; -357.000; -387.000
872.778;    5.825;  556.000;  403.000
873.025;  -98.625; -384.000; -359.000
873.271;    9.000;  501.000;  578.000
873.517;  -26.675; -133.000; -209.000
873.764;  -31.700; -193.000;  -80.000
874.010;  -80.975; -143.000; -230.000
874.257;  -51.150;  123.000;   90.000
874.503; -141.325; -579.000; -479.000
874.749;  -68.425;   31.000;  275.000
874.995;  -67.225;  -80.000;  -20.000
875.242; -122.375; -540.000; -478.000
875.488; -107.675; -414.000; -439.000
875.734;  -52.075; -106.000; -234.000
875.980;  184.950; -872.000;-1032.000
876.226;  404.750; -157.000; -255.000
876.472;   -9.150;  343.000;  237.000
876.718;  -44.475;  184.000;  158.000
876.964;  -38.950;   56.000;   55.000
877.210; -149.650; -547.000; -677.000
877.456; -150.975; -630.000; -557.000
877.702; -184.725; -821.000; -832.000
877.948; -118.925; -377.000; -497.000
878.193;    7.475;  361.000;  255.000
878.439;  -95.850; -487.000; -472.000
878.685;  -93.475; -272.000; -343.000
878.931; -134.925; -618.000; -676.000
879.176;  -95.875; -201.000; -201.000
879.422; -179.300; -933.000; -820.000
879.668;   49.025;   10.000;   79.000
879.913;  151.550;   53.000;  137.000
880.159;  -60.400; -112.000;  -17.000
880.404;  -63.350; -152.000; -162.000
880.650;  -48.200;   91.000;  141.000
880.895; -163.525; -670.000; -710.000
881.141; -119.800; -454.000; -428.000
881.386; -147.000; -503.000; -658.000
881.631;  -90.925; -311.000; -166.000
881.877;  -38.750;  112.000;  -13.000
882.122; -134.775; -684.000; -600.000
882.367;  -80.625; -136.000; -186.000
882.612;  -70.900;  -80.000; -176.000
882.858; -171.825; -877.000; -823.000
883.103;  -97.325; -297.000; -267.000
883.348; -153.300; -759.000; -852.000
883.593; -140.800; -677.000; -602.000
883.838;  -57.450; -311.000;  -24.000
884.083;   20.350;  353.000;  288.000
884.328;  -93.725; -564.000; -545.000
884.573;  -53.025; -196.000; -143.000
884.818;  187.650; -694.000; -531.000
885.063;  195.800; -348.000; -315.000
885.308; -102.900; -475.000; -398.000
885.553;  -16.450;  245.000;  325.000
885.797; -133.600; -545.000; -615.000
886.042;  -65.750;    8.000;   58.000
886.287; -100.950; -253.000; -211.000
886.532;  -57.400;   26.000;  204.000
886.776; -114.675; -407.000; -525.000
887.021; -139.050; -621.000; -574.000
887.265; -156.375; -685.000; -689.000
887.510; -134.925; -557.000; -496.000
887.755;  -86.875; -194.000; -164.000
887.999; -128.350; -552.000; -575.000
888.244;  -57.925;  -58.000;  161.000
888.488;  -17.800;  371.000;  393.000
888.732; -136.775; -368.000; -520.000
888.977; -129.625; -622.000; -567.000
889.221; -161.100; -683.000; -659.000
889.465; -124.100; -422.000; -566.000
889.710;  -89.250;  -56.000; -299.000
889.954;   -4.325;  579.000;  467.000
890.198; -150.925; -584.000; -707.000
890.442; -150.225; -716.000; -712.000
890.687; -164.050; -800.000; -753.000
890.931;  -86.450; -273.000; -210.000
891.175; -136.975; -502.000; -500.000
891.419;  -72.100; -105.000; -110.000
891.663;  -99.125; -239.000; -112.000
891.907; -169.350; -801.000; -545.000
892.151; -188.400; -920.000; -815.000
892.395; -121.600; -274.000; -387.000
892.638;  -26.600;  408.000;  291.000
892.882; -179.150; -780.000; -867.000
893.126;   -1.650;  758.000;  558.000
893.370;  -94.375; -167.000; -168.000
893.614; -144.125; -714.000; -715.000
893.857; -102.025; -183.000; -197.000
894.101; -134.500; -527.000; -631.000
894.345;  -46.450;  300.000;  150.000
894.588;   12.675;  569.000;  380.000
894.832;  -84.125; -178.000;  -84.000
895.075;  -77.850;   15.000;  -92.000
895.319; -126.975; -552.000; -420.000
895.563; -109.350; -413.000; -353.000
895.806; -144.675; -628.000; -741.000
896.049;  -70.400; -576.000; -368.000
896.293;  100.175;  527.000;  405.000
896.536;  -73.125; -465.000; -468.000
896.779;  -55.200; -149.000;   -1.000
897.023; -162.350; -751.000; -714.000
897.266;  -28.275;  325.000;  269.000
897.509; -181.875; -900.000; -901.000
897.752;  -56.625;  149.000;  171.000
897.996; -203.275; -972.000; -864.000
898.239;  -45.300;  168.000;  102.000
898.482; -121.625; -431.000; -453.000
898.725;  -38.075;  101.000;   53.000
898.968; -155.300; -609.000; -744.000
899.211; -111.025; -513.000; -361.000
899.454; -119.100; -633.000; -539.000
899.697;  -64.425;   90.000;  -43.000
899.940; -162.975; -761.000; -757.000
900.182; -104.425; -335.000; -405.000
900.425;  -96.525; -150.000; -298.000
900.668;  -16.450;  491.000;  350.000
900.911; -109.500; -292.000; -345.000
901.154;  -58.575;  141.000;   -3.000
901.396; -146.050; -407.000; -412.000
901.639; -146.625; -430.000; -496.000
901.882; -180.675; -790.000; -809.000
902.124;  -97.250;  -29.000; -143.000
902.367; -108.600; -315.000; -361.000
902.609; -128.900; -476.000; -453.000
902.852;  -89.600; -108.000; -260.000
903.094; -114.825; -458.000; -337.000
903.337;  -67.925;  -26.000;   53.000
903.579; -108.925; -228.000; -441.000
903.821; -157.375; -597.000; -744.000
904.064;  -71.350;   85.000;  127.000
904.306;  -95.525; -126.000; -166.000
904.548;  -99.950; -152.000; -366.000
904.790; -109.950; -195.000; -340.000
905.033; -126.825; -625.000; -577.000
905.275; -132.525; -513.000; -524.000
905.517;   38.125;  468.000;  256.000
905.759;  -61.525; -667.000; -761.000
906.001;  -91.875; -322.000; -369.000
906.243;  -70.250; -162.000; -224.000
906.485;  114.850; -265.000; -207.000
906.727;  128.625; -499.000; -542.000
906.969;  -24.875;  -30.000; -135.000
907.211;  133.025; -316.000; -382.000
907.453;  279.750; -188.000; -237.000
907.695;   14.500; -158.000; -385.000
907.936;   26.725;  818.000;  706.000
908.178;  -58.075;   92.000; -135.000
908.420;  -88.525; -111.000; -162.000
908.662; -139.450; -633.000; -682.000
908.903;  -80.775; -208.000; -123.000
909.145;  -76.225; -240.000; -305.000
909.386;  -18.625;  315.000;  280.000
909.628;   21.375;  363.000;  397.000
909.870;  -12.075;   29.000;  264.000
910.111; -107.775; -809.000; -949.000
910.353;    5.850; -123.000; -161.000
910.594;   -3.200; -574.000; -606.000
910.835;   73.525; -265.000; -326.000
911.077;  155.925; -503.000; -604.000
911.318;  260.000; -505.000; -471.000
911.559;  443.100; -577.000; -880.000
911.801; 1320.525; -284.000; -280.000
912.042; 9887.975;  -50.000; -159.000
912.283;27139.175;  404.000;  371.000
912.524; 4474.400; -396.000; -457.000
912.765;  492.825; -193.000;   79.000
913.006;  241.600; -307.000; -338.000
913.247;   67.900; -270.000; -290.000
913.488;   -2.150;  -43.000;   30.000
913.729;  -70.875; -373.000; -373.000
913.970;  -68.750;  -96.000; -292.000
914.211;  -61.600; -160.000; -198.000
914.452;  -62.875; -118.000;  -11.000
914.693;   10.425;  510.000;  592.000
914.934;   -6.825;  510.000;  440.000
915.175;  -74.050;   53.000;  -95.000
915.415;  -62.925; -137.000;   27.000
915.656;  -74.825;  -28.000;  192.000
915.897;  -91.300; -252.000;  -82.000
916.137;  -72.250;   74.000;   -9.000
916.378; -124.650; -573.000; -517.000
916.619;  -76.150; -159.000;  -63.000
916.859;  -31.050;  303.000;  330.000
917.100;  137.100; 1655.000; 1070.000
917.340;   43.300;  930.000;  728.000
917.581;   42.725;  965.000;  789.000
917.821;  -40.000; -171.000;  143.000
918.061;   10.500; -199.000;  -72.000
918.302;  -47.800; -152.000; -211.000
918.542;  -28.550;  -22.000;    3.000
918.782;   34.100;  369.000;  377.000
919.023;  136.925;  360.000;  427.000
919.263; 1718.525; 8131.000;  202.000
919.503; 1144.050; -137.000;  -54.000
919.743;  632.825;  390.000;  266.000
919.983;  287.325; -134.000;  -26.000
920.223;   65.950;  135.000;   14.000
920.463;  139.425;  631.000;  554.000
920.703;  132.175;   84.000;   39.000
920.943;  174.000; -110.000;   90.000
921.183;  198.775; -414.000; -405.000
921.423;  485.025;  307.000;  546.000
921.663;  696.850; -174.000; -257.000
921.903; 1508.050;  237.000;  173.000
922.143; 8231.375;  372.000;  389.000
922.383;32390.500;  158.000;  115.000
922.622;11814.525; -120.000;  -15.000
922.862; 1265.175;  796.000;  785.000
923.102;  452.925;  -51.000;   33.000
923.341;  195.400;   59.000;   74.000
923.581;   89.400;  450.000;  360.000
923.821;   10.700;  301.000;  398.000
924.060;    5.825;  351.000;  193.000
924.300;  -50.375;  -16.000; -128.000
924.539;  -12.050;  584.000;  473.000
924.779;    8.250;  812.000;  597.000
925.018;  -44.675;  247.000;  353.000
925.257;    0.600;  595.000;  666.000
925.497;  -42.075;  447.000;  412.000
925.736;  -86.750;  -35.000;  102.000
925.975;   -3.475;  687.000;  669.000
926.214;   21.200;  907.000;  850.000
926.454;   24.075;  706.000;  757.000
926.693;  -35.400;  419.000;  543.000
926.932;   36.175; 1021.000;  825.000
927.171;   74.575; 1107.000; 1044.000
927.410;   61.525; 1144.000;  967.000
927.649;   22.700;  924.000;  742.000
927.888;  -19.800;  590.000;  564.000
928.127;    1.550;  680.000;  678.000
928.366;   36.450;  842.000;  826.000
928.605;   39.125;  831.000;  737.000
928.844;  217.050; 1451.000; 1393.000
929.083;  621.175;  770.000;  613.000
929.321;  353.850; 1335.000; 1359.000
929.560;  104.475; 1158.000; 1122.000
929.799;  -11.575;  574.000;  475.000
930.038;   80.325; 1025.000; 1394.000
930.276;  -63.825;  334.000;  397.000
930.515;  -12.600;  827.000;  681.000
930.753;  -14.200;  614.000;  589.000
930.992;   -7.875;  664.000;  717.000
931.230;   -3.850;  847.000;  847.000
931.469;  159.925; 2162.000;  892.000
931.707;   63.650;  840.000;  751.000
931.946;   59.775; 1278.000; 1344.000
932.184;   42.600; 1437.000; 1175.000
932.423;   62.750; 1265.000;  963.000
932.661;   89.750; 1296.000; 1428.000
932.899;   20.525;  987.000;  821.000
933.137;   14.000;  754.000;  564.000
933.376;  130.125; 1664.000; 1335.000
933.614;  160.325; 1759.000; 1196.000
933.852;   56.625; 1357.000; 1171.000
934.090;  124.425; 1722.000; 1747.000
934.328;   92.125; 1252.000; 1457.000
934.566;   92.000; 1431.000; 1110.000
934.804;  124.525; 1263.000; 1309.000
935.042;  417.475; 1861.000; 1850.000
935.280; 1619.525; 2088.000; 2063.000
935.518; 1668.775; 2113.000; 2007.000
935.756;  388.475; 2481.000; 2316.000
935.994;  170.350; 1808.000; 1751.000
936.231;  352.350; 2890.000; 2950.000
936.469;  183.225; 2367.000; 2378.000
936.707;  176.875; 2220.000; 2167.000
936.945;  251.650; 2825.000; 2882.000
937.182;  212.275; 2679.000; 2741.000
937.420;  294.450; 3602.000; 3031.000
937.657;  401.300; 3365.000; 3478.000
937.895;  347.800; 3331.000; 3488.000
938.133;  310.975; 3540.000; 3528.000
938.370;  349.175; 3896.000; 4191.000
938.607;  398.325; 4488.000; 4205.000
938.845;  549.775; 5587.000; 5549.000
939.082;  490.375; 5387.000; 5177.000
939.320;  514.225; 5799.000; 5728.000
939.557;  632.700; 6549.000; 6491.000
939.794;  728.500; 7285.000; 7097.000
940.031;  927.050; 8421.000; 8368.000
940.269; 1119.075; 9552.000; 9107.000
940.506; 1103.075;10901.000;10507.000

