
Integration time [ms]: 100.000
Averaging Nr. [scans]: 40
Smoothing Nr. [pixels]: 0
Data measured with spectrometer [name]: 2101013U2
Wave   ;Sample   ;Dark     ;Reference
[nm]   ;[counts] ;[counts] ;[counts] 

394.013;   48.595; -450.257; -315.536
394.305;  239.793; -461.258; -419.536
394.596; 1181.387; -676.269; -527.514
394.887; 2797.829; -796.268; -654.518
395.178; 1059.210;  145.736;   11.476
395.470;   88.347; -210.263; -356.526
395.761;  219.369;  305.734;  394.479
396.052;  384.282; -545.284; -306.489
396.343;  375.755; -557.276; -454.503
396.634;  127.647; -200.279; -290.497
396.926;  127.601; -618.268; -565.517
397.217;  125.559;   11.725;  -17.504
397.508;   51.226; -366.273; -154.507
397.799;   54.497; -555.279; -571.497
398.090;   12.766; -973.280; -902.495
398.381;  109.305;   11.708;  -11.473
398.672;   -7.769; -585.292; -742.473
398.963;   60.478; -348.279; -373.498
399.254;  120.815;   54.709; -209.475
399.545;  -29.909;-1017.266; -883.520
399.836;   74.418; -407.277; -343.501
400.127;   63.905; -205.295; -209.468
400.418;   67.295; -423.274; -392.506
400.709;   58.103; -359.281; -333.493
401.000;   64.544; -268.291; -309.476
401.290;  109.490;  225.698;  115.545
401.581;   78.614; -166.286; -228.485
401.872;   38.151; -542.298; -486.462
402.163;   67.173; -313.296; -252.467
402.454;   91.916; -123.291; -163.475
402.744;   80.814; -844.297; -813.465
403.035;  458.146; -226.293;  -86.471
403.326;  596.859; -366.292; -384.474
403.617;  379.446;  204.701;  165.539
403.907;  265.338; -593.283; -679.490
404.198; 2440.567; -545.307; -599.446
404.489; 6437.018; -618.283; -588.491
404.779; 2102.318; -618.302; -660.456
405.070;  221.371;  -67.304; -174.451
405.360;  358.148; -259.293; -238.472
405.651;  375.155;  125.699;   98.542
405.942;  187.685;  209.714;  127.516
406.232;  297.525; -432.285; -413.487
406.523;  489.265;  641.706;  758.530
406.813;  104.712; -579.286; -644.484
407.104;  363.879;  261.708;  144.527
407.394;  206.022; -604.299; -591.462
407.685;  147.524;  336.715;  222.513
407.975;   81.217; -400.283; -382.490
408.265;  116.656; -134.289; -190.478
408.556;   78.513; -472.291; -459.475
408.846;  165.791;  474.706;  429.530
409.137;   93.415;   -1.288; -216.480
409.427;   54.574; -193.285; -271.487
409.717;   47.904; -776.273; -692.508
410.007;  146.268;    4.715; -170.486
410.298;   96.008; -360.295; -342.469
410.588;   63.322; -495.285; -510.486
410.878;   43.301; -792.287; -873.482
411.168;  112.404; -481.298; -478.463
411.459;  131.736; -295.283; -242.489
411.749;   61.936; -609.292; -507.474
412.039;   73.238; -755.289; -386.480
412.329;  196.886;   40.722;  132.501
412.619;  201.187;  -62.286; -148.485
412.909;  379.084;  639.711;  594.521
413.199;  339.067; -130.280; -251.495
413.490;  399.649;  521.710;  352.523
413.780;  162.496;-1013.279; -913.496
414.070;  352.306;  -46.276;  235.497
414.360;  396.057; -729.278; -666.498
414.650;  447.297; -726.288; -688.482
414.940;  547.045; -538.280; -441.496
415.230;  960.219;   50.712;   74.519
415.520; 6267.486;  155.730;   66.486
415.809;24743.853; -305.281; -125.493
416.099;18860.996; -388.277; -229.501
416.389; 5298.393;  435.726;  236.494
416.679; 3107.176;   91.738;   85.473
416.969;  533.781; -527.287; -503.483
417.259;  486.698;  341.721;  171.503
417.549;  703.976;  522.718;  318.508
417.838; 1699.103; -205.268; -147.518
418.128; 5606.905;  650.710;  492.522
418.418; 4624.810; -491.272; -579.509
418.708; 3168.168;    9.726;  -48.506
418.997;11843.038; -474.275; -480.505
419.287;12202.575; -733.273; -790.507
419.577;11585.511; -160.283; -123.489
419.866;38688.393; -588.277; -498.501
420.156;39608.107; -242.270;  -55.513
420.446; 6962.118; -112.263;  -26.526
420.735;  891.076; -376.271; -446.512
421.025;  828.756; 1830.722;  315.502
421.314;  705.549; -203.271; -226.512
421.604; 1447.221;   89.732;  233.484
421.893;  845.745; -705.271; -602.511
422.183;  247.843; -487.263; -461.526
422.472;  409.696;  -36.271; -107.511
422.762;  459.247; -416.266; -379.521
423.051;  268.731; -916.276; -916.503
423.341;  337.402; -491.273; -439.507
423.630;  440.828; -121.265;   15.477
423.919;  392.388;   58.725;   49.495
424.209;  389.149;  -31.263;   56.473
424.498;  501.526;   68.732;  161.483
424.787; 1108.407; -535.267; -601.518
425.077; 3426.427;   34.735;   29.478
425.366; 4800.105; -734.262; -744.528
425.655;10003.002;  639.727;  259.493
425.945;22002.463; -313.247; -268.554
426.234;11900.778;  117.741;  300.467
426.523; 5201.383;  -86.259; -350.534
426.812; 7082.518;  107.734;  159.480
427.101;10462.067; -127.269; -323.515
427.390;13052.286;  -55.270;  -86.514
427.680; 2916.704; -624.257; -411.538
427.969;  500.965; -330.255; -301.540
428.258;  347.370; -385.257; -477.536
428.547;  544.365;  449.728;  397.490
428.836; 1297.732; -421.253; -398.543
429.125; 1843.010; -199.259;  -72.534
429.414;  834.705; -330.251; -294.548
429.703; 3154.655; -231.251; -213.548
429.992; 9571.884; -938.250; -828.549
430.281; 6154.511; -397.264; -331.524
430.570;  583.595;  -21.252;   32.454
430.859;  583.433;  279.741;  352.466
431.148;  452.034;  636.752;  631.446
431.437;  304.370;  391.748;  367.454
431.725;  154.022; -544.257; -481.536
432.014;  149.314; -845.253; -756.545
432.303;  412.687; -149.239; -105.569
432.592;  621.368; -460.263; -178.525
432.881; 1091.385; -601.248; -437.554
433.169; 6301.966; -343.255;  -61.540
433.458;12828.622;  445.765;  540.424
433.747; 5253.235; -397.261; -289.529
434.036;  918.987; -275.242; -280.564
434.324; 2129.422; -395.249; -379.551
434.613; 3747.755;   40.757;  159.437
434.902; 1198.477;  333.760;  439.433
435.190;  597.510;   75.761;  295.431
435.479;  315.586;  -52.245;   83.441
435.767;  113.220; -411.244; -427.561
436.056;  227.557; -340.242; -294.563
436.345;  375.254; -372.240; -223.568
436.633;  394.567;   60.750;  383.450
436.922;  264.906;  208.760;  414.432
437.210;  611.386; -194.236;    1.426
437.499; 1927.520; -583.235; -432.576
437.787; 2122.836; -339.236;  -10.574
438.075;  558.041;   56.761;  162.430
438.364;  764.719;  -44.238;  250.429
438.652;  453.327; -286.226; -138.592
438.941;  142.315;    3.770;  269.415
439.229;   10.167; -665.252; -466.545
439.517;   46.053; -160.234;  -85.577
439.806;   -2.007; -501.225; -290.595
440.094;  171.061;  377.766;  650.421
440.382;  207.415; -653.233; -302.580
440.670;  208.594; -361.235; -285.576
440.959;   37.711; -347.223; -170.599
441.247;   86.952; -151.229; -109.587
441.535;  114.702; -266.235;   31.423
441.823;   40.233; -497.234; -305.578
442.111;  177.131;  173.771;  327.412
442.400;  538.411; -628.245; -335.559
442.688; 1422.436; -111.234; -620.579
442.976;  993.777; -786.213; -450.617
443.264;  102.225; -324.224; -364.597
443.552;  102.103; -258.226;   51.408
443.840;  156.725;  602.765;  876.423
444.128;  111.189;  265.767;  269.420
444.416;   17.284; -694.228; -312.588
444.704;   24.442; -465.219;  -92.605
444.992;   74.031;   -0.226;  240.407
445.280;   61.666; -517.230;  -94.585
445.568;   56.980; -694.212; -396.618
445.856;  336.500; -174.221;  357.398
446.143;  772.663;  -54.220;   -7.604
446.431;  627.212;  -25.228;  625.411
446.719;  248.812;  489.783;  675.391
447.007;  189.160;  481.769;  705.416
447.295;  169.358;  597.777;  871.402
447.583;   85.474; -464.229;  -34.587
447.870;  152.522; -434.221; -202.601
448.158;  419.439; -104.230;  129.415
448.446;  325.964; -800.219; -338.604
448.733;  176.927;   13.776;  269.403
449.021;  269.155;   60.788;  341.382
449.309;  182.146; -296.210;  208.379
449.596;  229.133;  128.783;   59.392
449.884;  165.890; -571.222; -325.600
450.172;  160.318; -756.227; -406.590
450.459;  439.909;  645.786;  780.387
450.747; 2428.556; -411.218; -147.608
451.034; 7730.664;  493.772;  889.411
451.322; 6283.763; -413.214; -170.614
451.609;  525.578;  292.777;  508.403
451.897;  616.060; -550.203; -183.634
452.184; 1827.408; -622.223; -400.598
452.472; 1713.842;   97.792;  269.375
452.759;  332.890;  512.781;  864.395
453.047;  113.627; -407.212; -125.617
453.334;   87.973; -732.219; -216.606
453.621;   85.440; -438.214; -161.615
453.909;  117.077;   13.796;  384.368
454.196;  104.599; -299.199; -123.641
454.483;  205.274;  317.798;  540.364
454.771;  123.896; -215.208;  196.374
455.058;   43.849; -316.207;  102.374
455.345;  119.081;   71.807;  344.347
455.632;   88.427; -128.207;  235.373
455.919;   41.697;  -82.196;  182.354
456.207;  -38.821; -774.198; -450.642
456.494;   -6.564; -475.200;  -66.639
456.781;   13.869; -399.202; -198.635
457.068;   62.234; -253.206;  -29.628
457.355;   -7.765; -698.206; -401.629
457.642;    8.716; -552.205; -290.630
457.929;    0.972; -778.194; -417.651
458.216;   64.828; -575.212; -354.617
458.503;  234.677; -173.193;  -19.652
458.790;  231.568; -864.208; -630.625
459.077;  273.199;  -77.202;  110.364
459.364;  828.289; -350.195; -210.649
459.651; 1733.757;  -46.206;  220.372
459.938;  799.934; -864.209; -665.623
460.225;  147.753;  132.799;  276.363
460.512;  -43.556; -836.197; -688.645
460.799;  101.005;  -32.218;  320.392
461.086;   87.916; -370.200; -251.640
461.372;   56.479; -509.198; -279.642
461.659;  122.923; -165.196;  108.354
461.946;   70.425; -445.193;  -54.651
462.233;  228.714;  842.800;  888.361
462.519;  365.285; -814.201; -464.639
462.806; 1050.845; -768.197; -497.645
463.093;  887.896; -445.191;  -66.656
463.380;  -24.586; -920.186; -824.664
463.666;   62.272; -259.197;  -18.646
463.953;  108.334; -406.195; -243.648
464.239;  207.409; -173.195;  -77.648
464.526;  385.020;  413.806;  743.350
464.813;  339.733; -565.190; -304.658
465.099;  362.901;  606.807;  607.348
465.386;  321.080;  903.807;  921.348
465.672;   41.020; -694.197; -522.645
465.959;   27.577; -598.188; -520.662
466.245;   19.480; -468.193; -359.652
466.532;   93.457; -109.195;   63.352
466.818;   78.289; -357.186; -216.664
467.104;    3.405; -488.182; -415.672
467.391;  -22.940; -628.189; -459.658
467.677;   40.467; -289.186;    9.335
467.964;    4.592; -682.189; -471.660
468.250;   56.920; -331.186; -160.665
468.536;   86.312;   90.811;  180.341
468.822;  -28.918; -821.184; -574.668
469.109;  137.063;  351.827;  471.311
469.395;  195.415;  729.808;  787.346
469.681;  200.515;   46.811;  156.341
469.967; 1276.269; -699.188; -382.660
470.254; 2758.653; -494.188; -306.662
470.540; 1710.747; -601.196; -476.646
470.826;  238.867; -488.181; -397.675
471.112;  308.736;  288.816;  113.331
471.398;   80.441; -253.183;  -58.670
471.684;   47.796; -626.177; -447.680
471.970;   10.195; -918.180; -981.675
472.256;   27.439; -521.192; -441.654
472.542;   37.375; -499.171; -434.691
472.828;   20.026; -743.182; -607.672
473.114;   30.220; -380.166; -283.700
473.400;    9.838; -504.175; -293.684
473.686;   47.576; -452.166; -400.701
473.972;   63.753; -230.174; -131.687
474.258;  -22.137; -925.173; -843.689
474.544;  208.812; -183.178;   -2.679
474.830;  313.114;  -65.175;   45.316
475.116;  480.635; -123.190; -196.658
475.401;  658.073; -558.180; -467.676
475.687;  192.247; -725.180; -718.676
475.973;    9.559; -673.181; -770.673
476.259;  246.917;  736.825;  764.315
476.544;  374.729; -539.176; -437.682
476.830;  813.796; -398.172; -322.690
477.116;  715.503; -430.177; -336.682
477.401;  134.972;  346.820;  358.324
477.687;  -16.887; -289.175; -405.684
477.973;   33.663;   21.819;   28.326
478.258;   -3.328; -448.163; -348.706
478.544;   55.301;   21.815;   61.334
478.829;  -45.345; -818.171; -738.692
479.115;  -33.655; -749.172; -651.690
479.401;   -5.952; -444.174; -449.686
479.686;   33.621; -253.180;  -74.676
479.972;  -20.483; -886.178; -776.680
480.257;   35.646; -258.166;  -65.700
480.542;   -3.016; -614.170; -469.693
480.828;  213.061; 1288.824; 1392.317
481.113;  -39.291; -464.176; -426.683
481.399;    1.372; -236.161; -202.711
481.684;  -43.755; -620.166; -462.700
481.969;   17.185; -158.159;  -73.713
482.255;  -13.605; -439.169; -285.695
482.540;    2.143; -569.178; -441.680
482.825;   15.134; -395.187; -404.663
483.110;   98.674;  -85.169; -105.696
483.396;  186.058; -840.157; -652.718
483.681;  495.503;  543.826;  730.313
483.966;  156.079; -696.160; -700.712
484.251;    1.727; -404.174; -310.687
484.536;   -7.719; -356.165; -378.703
484.822;   11.505; -205.173; -218.687
485.107;  -16.003; -599.152; -502.726
485.392;  120.062;  662.836;  541.296
485.677;   76.459;  354.832;  163.302
485.962;   95.030;  160.843;  270.283
486.247;   85.930;  -14.162;   -8.707
486.532;   48.672; -178.166; -325.701
486.817;  166.991;  381.839;  431.291
487.102;  121.680; -453.154; -514.722
487.387;  676.360; -637.156; -652.718
487.672; 1188.318; -154.164;  -38.705
487.957;  727.673; -394.160; -286.711
488.241;  200.514; -290.150; -314.729
488.526;  750.848; -280.152; -148.726
488.811; 1203.495; -881.177; -818.680
489.096;  896.482; -666.154; -702.723
489.381;  496.345;    3.847;  162.275
489.666;  375.246; -428.161; -510.710
489.950;  163.110;  558.846;  627.277
490.235;  -27.266; -480.151; -458.728
490.520;  -46.330; -756.161; -723.710
490.804;  -53.688; -827.156; -736.719
491.089;   -1.044; -469.149; -299.732
491.374;   25.016; -132.164;  -75.704
491.658;   -8.858; -817.147; -717.735
491.943;  172.803; -657.152; -609.727
492.227;  276.075; -178.155;  -38.721
492.512;   65.405; -294.157; -341.717
492.797;  -68.551; -713.149; -716.731
493.081;  -58.755; -588.147; -598.735
493.366;  -36.428; -751.161; -635.711
493.650;  198.700;  831.859;  917.254
493.935;   27.217; -648.147; -447.734
494.219;  -36.713; -778.142; -687.743
494.503;  -39.856; -585.150; -487.730
494.788;   46.071;   46.842;   74.285
495.072;   89.516;  184.850;  434.271
495.356;  179.534; -463.148; -343.733
495.641;  491.777; -812.146; -736.736
495.925;  451.867; -976.156; -903.719
496.209;   34.980; -599.149; -451.732
496.494;  -42.138; -763.142; -544.744
496.778;   18.430; -364.154; -360.722
497.062;  -53.659; -819.156; -627.719
497.346;  -19.650; -869.160; -640.711
497.631;  129.912;  580.852;  560.266
497.915;   73.988;  -64.145;  175.261
498.199;   64.033; -341.157; -277.718
498.483;   44.647; -562.152; -508.725
498.767;  188.867;  301.850;  300.271
499.051;  184.728; -126.149; -100.732
499.335;   24.476; -693.149; -739.731
499.619;  -37.021; -381.129; -423.767
499.903;   22.299; -272.155;  -65.721
500.187;   30.887; -588.153; -316.724
500.471;   28.352; -796.152; -595.727
500.755;  116.571;   62.839;  -96.710
501.039;   27.574; -270.155; -357.721
501.323;   83.227;  -21.141;  264.254
501.607;   51.422; -447.163; -503.706
501.891;   -0.416; -607.156; -512.718
502.174;  -17.476; -726.144; -585.741
502.458;   78.031;   89.849;  370.273
502.742;   48.876; -180.138; -191.751
503.026;  112.766; -412.147; -254.734
503.310;  162.309; -437.159; -375.713
503.593;  121.168; -464.147; -325.735
503.877;  128.593; -232.133; -156.760
504.161;  185.215;    2.847;  -50.724
504.444;  138.548; -841.158; -710.716
504.728;  456.640; -487.164; -522.704
505.012;  711.189; -257.150;  -76.729
505.295;  515.172; -417.161; -212.711
505.579;  525.316; -256.156; -496.719
505.862;  748.409; -555.145; -333.738
506.146;  728.912; -681.159; -758.714
506.429;  399.612;  568.841;  461.286
506.713;   60.486; -732.151; -667.728
506.996;  325.929;   90.846;  295.278
507.280;  347.285; -633.165; -474.703
507.563;  235.822; -469.155; -261.721
507.847;   98.513; -423.153; -112.724
508.130;   83.772; -665.161; -456.711
508.413;  114.691; -758.167; -577.700
508.697;  241.442; -151.167;   12.300
508.980;  175.264; -422.153; -312.724
509.263;   -6.431; -466.155; -450.720
509.547;   38.063; -124.150;   82.271
509.830;   55.425; -172.160;  140.289
510.113;   88.616;  128.844;  298.281
510.396;   30.170; -530.152; -300.725
510.680;  167.335; -818.145; -812.738
510.963;  637.884;  184.846;  180.277
511.246;  552.871; -493.150; -357.730
511.529;  264.391; -482.145;  -83.739
511.812;  377.214; -250.134;   10.241
512.095;  265.908; -740.151; -396.728
512.378;   70.722; -317.147; -245.736
512.661;   27.234; -703.137; -623.753
512.944;   27.014; -750.142; -637.744
513.227;   61.231; -170.137; -171.752
513.510;   31.099; -479.144; -671.741
513.793;   44.156; -485.140; -435.747
514.076;  148.701;  -43.127;  -39.771
514.359;  105.956; -294.149; -135.732
514.642;  101.567; -442.142; -567.744
514.925;  729.030;  581.860;  561.253
515.208; 1001.436; -498.134; -443.758
515.491;  656.825; -276.133; -182.761
515.773;  361.953; -410.143; -337.742
516.056; 2106.191;  249.864;  409.246
516.339; 2834.845; -754.136; -652.755
516.622; 1934.619; -518.150; -488.730
516.904; 1290.360;  882.857;  975.257
517.187;  602.855; -730.138; -523.752
517.470;  406.459; -568.143; -510.743
517.752;  428.523; -624.136; -470.756
518.035;  332.217; -708.139; -725.749
518.318;  367.470; -799.136; -744.755
518.600; 2411.728; -300.132; -325.762
518.883; 3400.866;  310.858;   88.256
519.165; 1605.898; -585.138; -426.751
519.448;  390.178;  -61.132;  -19.762
519.730;  216.108; -573.126; -415.773
520.013;  303.621;  588.867;  664.240
520.295;  865.141;  -94.134;  -15.759
520.578; 1956.267; -335.131; -305.764
520.860; 2172.653; -254.132;   56.238
521.143; 1112.825; -763.135; -584.756
521.425;  474.447; -251.125; -279.775
521.707;  688.176; -622.127; -380.771
521.990; 1803.177; -199.127;  167.229
522.272; 2041.258; -116.140;   -4.748
522.554;  929.429; -237.143; -157.742
522.836;  369.964;  -24.134;   99.241
523.119;  209.365; -496.148; -189.734
523.401;  191.799; -448.130; -314.766
523.683;   87.710; -865.137; -693.753
523.965;  260.803;  408.862;  260.248
524.247;  282.394;   54.878;  170.220
524.529;  198.641; -451.134; -367.759
524.812;  345.326;   -3.130;  191.234
525.094;  855.527; -773.138; -631.751
525.376; 1369.056; -143.124;   78.223
525.658;  817.267; -441.136; -339.754
525.940;   29.888; -805.131; -671.764
526.222;   49.646; -188.136;  -88.755
526.504;  124.411; -190.131;   32.237
526.786;  196.444; -960.133; -647.760
527.068;  347.537; -124.123;  -67.778
527.349;  142.964; -865.137; -774.754
527.631;  145.953; -137.132;   22.238
527.913;  159.825; -664.127; -450.771
528.195;  178.764; -761.125; -639.774
528.477;  254.136;  -93.134;  -30.758
528.759;  126.400; -648.130; -522.766
529.040;   51.335; -569.123; -293.778
529.322;   53.217; -235.125;  -10.774
529.604;  143.478;  -47.130;   93.233
529.886;  126.408; -546.126; -302.773
530.167;  112.269;  232.870;  192.235
530.449;   40.322;    1.853;   63.265
530.731;   26.493; -572.122; -459.779
531.012;   63.489; -513.120; -216.784
531.294;   68.779; -118.116;  -43.792
531.575;  144.122;  290.875;  538.225
531.857;   54.731; -548.135; -266.757
532.138;  103.700; -113.141;   40.254
532.420;  177.027;  294.865;  403.244
532.701;  234.221; -722.133; -751.760
532.983;  353.674;  232.867;  182.239
533.264;  134.156; -243.126;  175.228
533.546;  -24.580; -491.136; -508.755
533.827;   63.017;  173.867;   -1.759
534.109;   57.455; -352.135;  -80.757
534.390;  102.332; -725.132; -582.762
534.671;  261.826; -270.135;  -82.756
534.953;  151.913; -751.123; -611.779
535.234;   19.289; -426.117; -255.789
535.515;  -66.702; -891.119; -735.785
535.796;  -13.879; -431.128; -193.770
536.078; -108.194;-1050.124; -904.777
536.359;    2.939;  -22.123;    3.221
536.640;  -12.359; -480.125; -197.774
536.921;  166.033;  225.871;  143.232
537.202;  392.949;  -87.138;  -16.751
537.483;  449.441;  251.869;  377.236
537.764;  167.444;   17.870;   98.235
538.045;  -40.690; -543.134; -371.758
538.326;  -22.840; -596.129; -447.768
538.607;   17.402; -686.127; -476.771
538.888;  177.205;   98.879;    5.218
539.169;  185.099; -704.122; -535.781
539.450;  320.907;  236.871;   16.233
539.731;  221.634; -361.121; -182.783
540.012;  135.039;  199.880;  412.216
540.293;  101.750;   82.876;  158.224
540.574;   19.876; -895.113; -717.796
540.855;  466.532;  435.879;  377.218
541.136;  523.421;   47.878;  139.220
541.416;  275.851; -161.130; -220.766
541.697;  203.212; -274.131; -170.763
541.978; 1038.279; -270.135; -315.757
542.259; 1342.852; -211.127; -236.771
542.539;  628.023; -191.116; -186.790
542.820;  197.796;  461.875;  480.225
543.101;  130.562;  -52.145;  -77.738
543.381;   44.376; -638.127; -591.771
543.662;  273.349;  159.873; -254.771
543.942;  596.897; -751.127; -830.770
544.223; 1072.673;  193.878;  161.219
544.504;  686.205; -275.124; -182.777
544.784;  579.883; -592.126; -408.773
545.065; 1664.702;  104.884; -254.791
545.345; 1979.448;  227.881;   14.215
545.626; 1282.425;  -14.113; -108.796
545.906;  889.294;   77.869;   98.235
546.186;  367.413;   92.874;  -95.773
546.467;  194.283;   99.877;  -95.778
546.747;  339.698;  264.884;  327.210
547.027;  361.779;   91.876;  111.223
547.308;  347.171; -376.127; -530.770
547.588;  396.461;  299.871;  371.232
547.868;  192.720;  458.870;  588.235
548.149;  196.384;  609.885;  593.207
548.429;  131.250; -347.127; -299.771
548.709;  194.739; -645.120; -461.784
548.989;  482.883;   84.882;   88.213
549.269; 2084.977;   10.868;  139.239
549.550; 4894.712;  215.877;  117.222
549.830; 4308.318; -758.111; -556.799
550.110;  868.051; -468.110; -320.801
550.390;  814.393; -128.122;  -56.779
550.670; 1163.270; -868.114; -783.795
550.950;  788.782; -509.121; -471.782
551.230;  187.003;  549.879;  460.218
551.510;   -2.994; -381.121; -326.782
551.790;   23.859; -173.109; -127.803
552.070;  247.008;  940.877; 1181.223
552.350;  412.427; -492.119; -377.786
552.630;  594.651;   -2.121;   77.219
552.909;  363.752;  181.884;   73.209
553.189;  228.808;  -49.132;   33.237
553.469;  207.477; -703.119; -514.786
553.749;  211.678; -469.127; -357.772
554.029;  166.218;   33.883;  -24.790
554.308;  146.564; -154.115;  -37.794
554.588;   67.595; -196.128; -204.770
554.868;   62.233; -366.121;  -47.782
555.147;  156.661; -114.115;  -46.793
555.427;  581.680; -260.116; -250.792
555.707; 3915.134; -284.115; -200.793
555.986; 4764.872; -719.111; -538.800
556.266; 2452.346;   23.884;   72.210
556.546;  121.781; -888.121; -675.782
556.825;  255.768; -657.114; -556.794
557.105; 1801.818; -125.128;   17.230
557.384; 2118.026;  122.884;  187.209
557.664;  800.354; -717.116; -508.792
557.943;  126.057; -557.121; -411.782
558.222;  173.511; -345.118; -344.788
558.502;  269.387; -116.115;  -76.793
558.781;  492.808;  194.885;  499.208
559.061;  426.386; -232.118; -227.788
559.340;  281.491;  302.883;  353.211
559.619;  711.871;   93.884;  148.210
559.899; 1035.318; -239.117; -266.789
560.178;  930.262; -778.115; -593.793
560.457; 3131.194; -623.117; -562.790
560.736; 4453.248; -472.111; -482.800
561.015; 2932.791; -500.128; -502.769
561.295;  380.205;  180.893;  215.193
561.574;  328.434;  119.885;  116.207
561.853;  500.438;  274.891;  303.197
562.132;  500.639;  -45.114;  182.206
562.411;  434.951;  396.879;  553.219
562.690;  128.557; -592.115; -458.792
562.969;  140.732;  472.888;  630.203
563.248;  440.324; 2966.878; 2487.219
563.527;  291.622; -290.111; -408.800
563.806;  384.300; -650.127; -521.771
564.085;  423.245; -297.105; -206.810
564.364;  245.696; -594.117; -405.790
564.643;  504.502; -276.121; -223.781
564.922; 1897.807;  221.890;  397.198
565.201; 1928.161; -640.109; -700.803
565.479;  819.931; -297.115; -219.792
565.758;  343.993; -810.128; -712.770
566.037;  483.987; -155.109; -100.803
566.316;  237.877; -286.116;  -28.791
566.595;   60.484;  -17.115;  -12.793
566.873;   89.649; -166.111;  -79.801
567.152;  -42.268; -490.113; -590.797
567.431;   15.397; -113.116;    6.210
567.709;   12.455; -344.107; -212.807
567.988;  252.468; -810.114; -769.794
568.266;  540.609; -160.115;  -68.793
568.545;  374.994; -644.100; -514.819
568.824;  578.930;  160.885;  356.208
569.102;  560.368; -351.114; -235.794
569.381;  211.830; -492.116; -407.792
569.659;  -46.672; -553.113; -553.796
569.938;   47.247; -743.122; -465.780
570.216;  105.815; -225.109; -225.804
570.494;  -12.354; -632.114; -572.795
570.773;   33.331;  202.879;  114.218
571.051;    4.836; -373.123; -357.778
571.330;   60.650; -221.113; -174.796
571.608;   31.337; -181.098; -173.823
571.886;  -71.084; -671.111; -581.799
572.164;  -63.617; -739.121; -621.782
572.443;  -53.626; -562.105; -512.811
572.721;  -31.881; -399.117; -289.790
572.999;  -25.712; -280.117; -168.788
573.277;   82.417;  379.894;  620.191
573.555;  267.394;   94.894;   37.190
573.834; 1338.662;  -86.117; -114.788
574.112; 1577.307;  880.893;  811.193
574.390;  470.048; -143.111;  -96.801
574.668;    4.183;  -91.112;  -61.797
574.946;   -7.580; -165.106; -187.810
575.224;    8.986;   71.891;  -16.803
575.502;  -10.926; -200.116; -204.791
575.780;  -89.016; -767.112; -829.798
576.058;  225.098; 1589.889; 1004.200
576.336;  -17.397; -210.110; -129.801
576.614;  -52.741; -511.112; -340.798
576.891;   59.563; -711.115; -823.794
577.169;  491.573; -158.108; -285.805
577.447;  574.407;  169.893;  202.193
577.725;  250.839;  629.888;  854.201
578.003;   16.687;  -71.112; -371.798
578.280;   78.858; -208.104; -242.812
578.558;   61.087; -450.115; -422.793
578.836;  136.921; -210.114; -145.795
579.114;   63.282; -630.112; -670.797
579.391;   67.639;   -6.117;  -18.789
579.669;  -44.286; -595.114; -704.794
579.947;  166.053; -326.107; -127.806
580.224;  318.703; -692.107; -524.806
580.502;  327.132;  127.893;   76.193
580.779;   26.145;  -42.117;   75.210
581.057;  -71.885; -584.109; -470.804
581.334;  -91.426; -726.102; -695.815
581.612;   29.271;   54.895;  511.190
581.889;  -38.613;  -83.101; -129.818
582.167;  -32.073; -298.099; -190.821
582.444;  -92.518; -845.102; -814.817
582.721;   96.257;  657.899;  715.183
582.999;   53.274; -326.100; -167.821
583.276;  512.540; -812.123; -713.779
583.553;  712.802; -364.102; -294.816
583.831;  229.455; -607.104; -631.812
584.108;   57.596;  349.892;  174.195
584.385;    4.948; -122.102;  -98.815
584.662;  -60.850; -651.111; -828.801
584.940;   37.249;  204.889;  204.199
585.217;  -28.947;  -73.113; -303.796
585.494;   43.183;   71.890;  118.198
585.771;  200.541; -250.109; -354.804
586.048;  517.752; -196.113;  -76.796
586.325;  317.802; -721.110; -773.801
586.602;   93.859;  230.896;  213.188
586.879;   -1.904; -499.100; -580.820
587.156;   51.421; -156.105; -331.810
587.433;  -37.795; -701.102; -667.817
587.710;   62.510;  152.888;  234.202
587.987;  295.077; -264.105; -236.811
588.264;  795.761;  315.888;  387.202
588.541; 1342.461;  -61.104;   26.187
588.818; 2716.343;   72.892;  171.196
589.095; 2342.882; -163.104; -174.812
589.371;  352.664; -459.109; -414.804
589.648;   20.557; -581.107; -437.807
589.925;   31.947; -517.114; -621.795
590.202;   22.634; -741.112; -607.798
590.478;  110.504; -166.105;  -73.811
590.755;  257.099; -241.108; -132.806
591.032; 2450.280; -741.110; -699.802
591.308; 3478.328; -732.094; -790.831
591.585; 1755.579; -573.110; -560.802
591.862;  153.531;-1056.102; -950.817
592.138;   53.422; -475.108; -474.805
592.415;  144.459; -486.104; -495.813
592.691; 1476.182;  460.896;  518.188
592.968; 1915.414; -208.098; -123.824
593.244;  900.423; -695.116; -595.790
593.521;   71.781; -105.102;  -42.817
593.797;  -15.881; -810.122; -720.780
594.074;  342.402; -611.096; -588.826
594.350;  657.288;  828.905;  729.172
594.626;  304.800; -303.111; -283.801
594.903;  107.382; -643.101; -645.817
595.179;  183.938;  243.896;  418.187
595.455;   13.083; -136.107; -150.807
595.731;    6.590;  -19.103;  -38.814
596.008;  -35.206; -464.111; -434.800
596.284;   29.423; -187.100; -242.820
596.560;   58.935; -501.093; -493.833
596.836;  201.623; -173.105;  -70.810
597.112;  336.848; -582.108; -437.805
597.388;  275.675;  -49.097;  -48.826
597.665;  114.080;  437.887;  530.203
597.941;  -60.860; -572.089; -658.839
598.217;   14.633; -323.110; -293.802
598.493;  262.768;   61.891; -204.804
598.769;  500.967; -175.100;  -50.819
599.045;  304.901; -490.108; -562.806
599.321;   59.222; -193.100; -261.820
599.597;  134.467; -355.109; -476.804
599.872;  476.136;  409.896;  429.187
600.148;  353.851;  -61.097; -172.826
600.424;  297.431;   91.893;  202.193
600.700;  237.683; -170.107; -280.807
600.976;  117.395; -442.097; -464.825
601.252;  264.763; -226.109; -272.803
601.527;  207.512; -833.104; -840.813
601.803;  158.004; -453.105; -404.812
602.079;  158.317; -124.100; -118.819
602.354;  556.670; -620.092; -531.835
602.630;  810.128; -140.113; -482.796
602.906; 2229.837; -910.101; -863.818
603.181; 6754.127; -627.119; -534.786
603.457; 5711.824;   98.903; -278.826
603.733;  811.785; -605.120; -626.783
604.008;  939.145; -245.106; -164.810
604.284; 3069.108; -636.101; -580.817
604.559; 2623.314;   -3.112;  -42.799
604.835;  479.723; -163.105; -225.810
605.110;  415.227; -732.099; -892.821
605.385;  687.038;  224.907;  267.167
605.661;  631.791; -625.095; -729.829
605.936; 1179.026; -664.108; -737.806
606.211;  974.097;  -17.103; -170.815
606.487;  202.766; -329.114; -376.794
606.762;   18.477; -791.119; -745.786
607.037;  -31.252; -501.105; -433.810
607.313;  -49.941; -589.096; -574.828
607.588;   -5.655; -375.106; -137.810
607.863;   24.487;  -28.101; -143.818
608.138;  178.181;  513.890;  516.198
608.413;   37.531; -576.099; -592.822
608.688;   27.122; -203.108; -267.805
608.964;  214.589; -509.106; -218.809
609.239;  243.396; -107.105; -212.810
609.514;  237.029;  281.895;  240.188
609.789;  632.883; -187.104; -716.812
610.064;  866.808; -435.096; -609.827
610.339;  848.639; -855.109; -799.804
610.614; 1195.772; -131.100; -315.820
610.889;  643.629;  215.895;  107.188
611.163;   46.730; -407.104; -591.812
611.438;   87.018;   81.886; -167.794
611.713;    8.833; -467.101; -499.817
611.988;   56.961; -144.101; -328.818
612.263;  -11.051; -771.102; -717.815
612.538;  196.127;  385.887;  251.204
612.812;  191.374; -832.100; -911.820
613.087;  127.537; -358.098; -338.823
613.362;  -45.667; -497.107; -557.807
613.637;   41.268;  261.897;  138.186
613.911;  -17.454; -256.092; -345.835
614.186;  109.432; -249.107; -292.807
614.460;  678.967; -842.081; -758.854
614.735;  790.964;  -55.087;  -17.843
615.010;  152.154;   43.912;  -82.841
615.284;  233.597;  360.892;  246.195
615.559;  373.419; -792.092; -955.835
615.833;  284.829;  -76.099;  -87.822
616.108;   10.382; -225.090; -390.837
616.382;  140.716;  274.913;  402.156
616.656;  179.907; -241.090; -232.837
616.931;  497.505; -785.099; -700.822
617.205; 1071.737; -973.104; -979.813
617.480;  962.844;  -91.125;    6.225
617.754;  165.517; -396.125; -128.774
618.028;    8.187; -369.129; -382.768
618.302;   71.270;   73.892;  -25.805
618.577;  -47.081; -371.103; -518.815
618.851;  -57.865; -399.109; -600.803
619.125;  -41.209; -335.134; -378.759
619.399;  -22.062; -244.104; -374.813
619.673;  -54.419; -330.115; -515.792
619.947;  -57.304; -333.114; -448.795
620.222;  -15.749; -198.110; -204.801
620.496;    3.032;  -47.121;  -96.782
620.770;    5.774; -187.122;  -93.781
621.044;  205.321;  323.895;  346.190
621.318;  734.685; -653.120; -614.783
621.592;  661.233; -430.121; -409.783
621.866;  361.115; -476.112; -572.799
622.140;   13.399; -207.116; -356.791
622.413;   56.444;  138.889;  112.200
622.687;  -23.241; -746.101; -492.817
622.961;   13.270; -130.108; -143.805
623.235;  -59.805; -633.111; -661.800
623.509; -104.547; -816.105; -848.811
623.783;    6.704;  -12.107;   48.193
624.056;  -22.664; -254.120; -280.783
624.330;   39.483;   63.888;   -3.797
624.604;   51.996; -271.116; -355.790
624.877;   63.805;  180.890;   26.198
625.151;   30.615; -249.114; -238.794
625.425;  -37.335; -150.103; -283.814
625.698;  -51.429; -367.119; -374.785
625.972;  -86.092; -799.110; -765.802
626.245;   74.173;  685.884;  484.210
626.519;  -58.209; -426.120; -340.784
626.792;  -36.817; -192.107; -380.807
627.066;  -81.008; -485.122; -662.779
627.339;  -95.146; -736.110; -663.802
627.613;   57.639;  351.880;  148.216
627.886;   36.160;  187.891; -612.803
628.160;  -17.390;  312.880; -161.783
628.433; -100.303; -695.125; -703.775
628.706;  -79.059; -517.120; -615.784
628.979;   27.729;  296.876;  117.223
629.253;  -92.649; -785.119; -833.786
629.526;  349.281; -334.126; -253.772
629.799;  351.486; -641.123; -479.778
630.072;  157.363; -497.128; -516.769
630.346;  -63.727;-1115.116;-1080.790
630.619;  446.209; -467.107; -545.808
630.892;  613.545;  709.889;  593.200
631.165;  320.863;  790.896;  679.187
631.438;  -71.888;-1092.112;-1055.798
631.711;   43.390;  453.877;  257.221
631.984;  -60.332; -523.117; -624.789
632.257;  -73.536; -636.117; -681.789
632.530;  -57.229; -412.119; -433.785
632.803;   17.163; -109.115;    7.207
633.076;  -81.517; -360.123; -422.777
633.349;    5.667;  173.872;  121.231
633.622;  -32.380; -187.119; -240.785
633.895; -132.339; -903.120; -823.783
634.167;  -65.467; -496.126; -525.773
634.440;    3.654;  -19.116; -137.792
634.713;   -9.225;  -22.119; -120.786
634.986;   72.232;  593.871;  453.233
635.258;  -66.264; -507.115; -597.793
635.531;   84.785;  742.882; -343.788
635.804;  -19.383; -303.117; -318.789
636.077;  -86.350; -830.116; -852.791
636.349;   -6.865; -586.115; -474.793
636.622;  380.181; 1695.874; 1392.228
636.894;  236.716; -474.120; -909.784
637.167;  158.524; -836.127; -789.771
637.439;   35.171; -278.128; -213.770
637.712;  -45.243; -312.126; -293.772
637.984;  -74.199; -635.116; -707.791
638.257;  357.633;  515.877;  488.222
638.529;  580.298; -881.125; -924.776
638.802;  256.613; -508.128; -449.769
639.074; -112.402; -927.122; -952.781
639.346; -117.443; -942.135; -930.757
639.619;    2.890;  -79.142; -319.744
639.891;   -4.958;  -83.122; -168.779
640.163;  -75.981; -689.122; -756.780
640.435;   31.945;  273.878;  103.220
640.708;    3.272;  -72.122; -132.780
640.980;  -31.476; -366.122; -362.781
641.252;  179.801;  -25.121;  -71.781
641.524; 1777.103;  580.879;  573.219
641.796; 1863.255;-1094.121; -907.782
642.068;  327.432; -191.121; -300.782
642.340;  -59.991; -486.121; -566.783
642.613;   28.510;  294.880;  323.217
642.885;  -97.413; -787.120; -878.783
643.157;  -45.636; -810.120; -658.784
643.428;   59.491;  170.880;  218.216
643.700;  -68.532; -498.120; -425.784
643.972;  -33.780;  -16.119; -133.785
644.244;  -85.103; -474.119; -559.785
644.516;  -60.726; -250.119; -114.786
644.788;   48.201;  662.881;  548.214
645.060;  -15.548;  -12.119; -124.786
645.332;  -96.671; -525.118; -535.787
645.603;   24.406;  479.882;  342.213
645.875;  -65.767; -334.118; -369.787
646.147;  154.710; 1487.882; 1242.212
646.418;  -64.988; -931.117; -918.788
646.690;  134.039; -714.117; -715.789
646.962;   33.541; -413.117; -451.789
647.233;  -28.583;   15.883;   11.211
647.505; -114.031; -595.117; -475.790
647.776;   23.396;  328.884;  229.210
648.048;   -6.727; -248.116; -418.790
648.320;  -78.075; -752.116; -679.791
648.591; -144.898;-1055.116; -958.791
648.862;  -78.571; -505.116; -577.792
649.134;    0.756;  115.885;  198.208
649.405;  -51.643; -661.115; -618.792
649.677;  -45.816; -475.115; -598.793
649.948;  -12.614; -181.115; -296.793
650.219;   -4.037;  -37.115; -147.793
650.491;  -83.760; -431.114; -520.794
650.762; -119.558; -705.114; -731.794
651.033;  -96.706; -437.114; -424.795
651.304; -100.529; -743.114; -728.795
651.576;  -61.352; -680.114; -645.795
651.847;  -41.001; -250.113; -140.796
652.118;  -22.924;  -32.113; -189.796
652.389; -104.722; -639.113; -722.796
652.660;  -44.245; -147.113;  -89.797
652.931; -128.093; -897.112; -871.797
653.202;  -79.141; -382.112; -541.798
653.473;  -78.539; -633.112; -533.798
653.744;  145.763; -595.112; -590.798
654.015;  134.289; -356.112; -303.799
654.286;  -74.484; -642.111; -663.799
654.557;  -63.407; -586.111; -521.799
654.828; -153.580;-1114.111;-1088.800
655.099;  -84.178; -404.111; -291.800
655.370;  -91.676; -427.111; -543.801
655.641; -140.549; -656.110; -714.801
655.911; -112.347; -618.110; -638.801
656.182;   36.205;  437.890;  387.198
656.453;   84.831;  830.890;  746.198
656.724;  -83.342; -466.110; -426.802
656.994;  -85.640; -553.109; -568.803
657.265; -110.763; -862.109; -873.803
657.536;  -80.311; -500.109; -377.804
657.806; -103.484; -561.109; -593.804
658.077; -128.757; -866.109; -950.804
658.347;  -96.755; -523.108; -598.805
658.618; -106.054; -646.108; -694.805
658.888;  -42.152;  -41.108;  112.195
659.159;  -69.525; -432.108; -548.806
659.429;  -22.173; -292.108; -349.806
659.700;   23.304; -435.107; -390.807
659.970;  -11.894; -370.107; -359.807
660.241;    3.108; -754.107; -921.807
660.511;  508.160; -147.107; -174.808
660.781;   94.137; -793.106; -748.808
661.052;  -39.712; -222.106; -381.808
661.322;  -29.160;   21.894;   -9.809
661.592;    5.217;  257.894;  148.191
661.862;  -68.306; -369.106; -382.810
662.133;  -93.279; -551.105; -502.810
662.403; -119.652; -770.105; -676.810
662.673;  -56.800; -256.105; -213.811
662.943;  -93.273; -612.105; -551.811
663.213;   -6.947;  -85.105;  -81.811
663.483;  -77.645; -593.104; -568.812
663.753;  -60.793; -194.104; -152.812
664.023;  -15.066;   68.896;  -32.813
664.293;  -55.739; -319.104; -126.813
664.563; -107.787; -694.104; -648.813
664.833; -123.635; -743.103; -608.814
665.103; -120.283; -730.103; -793.814
665.373; -125.606; -766.103; -806.814
665.643;  -81.355; -863.103; -918.815
665.913;   37.247; -534.103; -714.815
666.182;  140.074; -685.102; -719.816
666.452;  246.726;  -22.102;  -89.816
666.722;  -31.472; -724.102; -784.816
666.992; -125.045; -948.102; -921.817
667.261;  -98.418; -824.102; -808.817
667.531;  200.209;  134.899;   45.183
667.801;  559.760; -440.101; -412.818
668.070;  236.012;  714.899;  697.182
668.340; -106.411; -883.101; -840.819
668.609;   93.541;  588.900;  301.181
668.879;  -84.432; -490.100; -558.819
669.149;  -67.655; -539.100; -516.820
669.418; -100.528; -698.100; -726.820
669.688;  -33.676; -482.100; -666.820
669.957;   78.151; -423.099; -546.821
670.226;  -32.598; -268.099; -331.821
670.496; -105.671; -431.099; -635.822
670.765;  -88.619; -418.099; -501.822
671.034; -137.067; -872.099; -828.822
671.304;  -11.865;   55.902; -111.823
671.573; -141.138;-1085.098; -957.823
671.842;   73.489; -380.098; -294.823
672.112;   34.266; -692.098; -586.824
672.381;  -16.508; -239.098; -214.824
672.650; -120.231;-1005.097;-1021.825
672.919;  -86.804; -631.097; -507.825
673.188;  -95.352; -681.097; -878.825
673.457; -145.250;-1101.097;-1143.826
673.726;  -70.348; -579.096; -646.826
673.995;  -44.796; -533.096; -479.826
674.265;  -19.419; -263.096; -333.827
674.534;   16.907; -183.096; -235.827
674.802;    5.309; -618.096; -703.828
675.071;  908.986; -886.095; -801.828
675.340; 3958.838; -464.095; -339.828
675.609; 1292.590;  103.905;   82.171
675.878;   60.217; -949.095; -893.829
676.147;   21.419;  -26.095;   -8.829
676.416;   62.721; -210.094; -294.830
676.685;  731.523; 1000.906; -622.830
676.953;   96.349; -603.094; -452.831
677.222;  -44.549; -193.094; -273.831
677.491;  -20.197;  -24.094; -127.831
677.759;  -30.145;   11.907;  172.168
678.028;  -22.643; -279.093; -222.832
678.297;   -3.566;   71.907;  197.168
678.565; -132.589; -898.093; -944.833
678.834;  -62.112; -311.093; -268.833
679.102;  -76.861; -411.092; -391.834
679.371; -133.009; -898.092; -727.834
679.639; -134.707; -797.092; -786.834
679.908; -119.780; -794.092; -724.835
680.176; -142.528; -895.091; -941.835
680.445;  -79.726; -346.091; -352.835
680.713;  -29.399;  -58.091;  -23.836
680.982;  -88.122; -523.091; -525.836
681.250;  -89.720; -578.091; -507.837
681.518; -100.394; -534.090; -751.837
681.787;  -17.117; -204.090; -167.837
682.055;  -61.240; -490.090; -422.838
682.323; -140.813; -993.090; -992.838
682.591;   23.839; -216.090; -538.838
682.859;   78.191;    9.911;  -35.839
683.128;   19.318;  232.911;  497.161
683.396; -157.205;-1102.089;-1122.840
683.664;  -57.504; -241.089;   21.160
683.932;   -3.377;  144.911;  -76.840
684.200;  -91.375; -576.088; -320.841
684.468;  -14.173;  -73.088; -124.841
684.736;  -32.071; -214.088; -175.841
685.004; -122.419;-1024.088; -982.842
685.272;  -39.867; -880.088; -774.842
685.540;  -64.365; -499.087; -557.843
685.808;  -72.963; -651.087; -682.843
686.076; -107.437; -894.087; -969.843
686.343;  -51.310; -601.087; -815.844
686.611;   43.417; -195.087; -224.844
686.879;  402.769; -530.086; -553.844
687.147; 3311.896; -483.086; -480.845
687.414;  941.923;  -12.086; -169.845
687.682;    1.200; -658.086; -757.846
687.950;  303.152;  259.915;  263.154
688.217;   33.578; -792.085; -760.846
688.485;    7.080; -632.085; -636.847
688.753;  516.682;  -11.085; -102.847
689.020;  156.909; -820.085; -851.847
689.288;  -90.789; -853.084; -787.848
689.555;  -43.362; -195.084; -148.848
689.823;  -44.285; -241.084; -345.849
690.090;  -83.833; -546.084; -651.849
690.358; -156.506; -877.084; -897.849
690.625;    2.095;  120.917;   45.150
690.892;  -77.878; -403.083; -369.850
691.160;  -25.201;   72.917;  -35.850
691.427;   -5.474;  141.917;  130.149
691.694; -123.097; -855.083; -929.851
691.962; -144.595;-1177.082;-1060.852
692.229;   18.457;  127.918;   56.148
692.496;   77.309;  130.918;  -49.852
692.763;   19.560; -164.082; -201.853
693.031;  -47.313; -739.082; -716.853
693.298;  -37.836; -509.081; -368.853
693.565;  281.516; -155.081; -163.854
693.832; 1280.018;   -5.081;   -9.854
694.099;  156.645; -643.081; -642.855
694.366;  -65.953; -882.081; -896.855
694.633;  -34.926; -920.080; -633.855
694.900;  711.951; 4367.920; -114.856
695.167;  410.777; -214.080; -380.856
695.434;  112.629; -646.080; -623.856
695.701;  193.556;  121.921;  -61.857
695.968;  474.633; -365.079; -361.857
696.234;  943.710; -415.079; -646.858
696.501;10562.362; -776.079; -614.858
696.768; 5687.864; -554.079; -617.858
697.035;  336.241; -632.078; -667.859
697.302;   39.992; -448.078; -552.859
697.568;   15.169; -458.078; -497.859
697.835;  -29.529; -683.078; -624.860
698.102;  -17.727; -498.078; -407.860
698.368;   70.575;  384.923;  396.139
698.635;  -34.648;  -47.077; -424.861
698.901;  -13.296; -240.077; -348.861
699.168;   68.506; -534.077; -456.862
699.435;   79.633;  -72.077;  -13.862
699.701; -103.966; -868.076; -764.862
699.968;    7.011;  144.924; -441.863
700.234;  -96.162; -783.076; -822.863
700.500;  -54.660; -448.076; -539.864
700.767;   -3.783;   -1.075;   26.136
701.033; -124.781;-1015.075; -963.864
701.299;  -53.929; -450.075; -483.865
701.566;  111.748;  950.925;  763.135
701.832;   17.424;  -31.075;  -76.865
702.098; -100.524;-1054.074;-1034.866
702.365;  -85.072;-1098.074;-1030.866
702.631;  -24.370;-1038.074;-1063.867
702.897; 1319.257; -765.074; -676.867
703.163; 2322.784;  348.926;  254.133
703.429;  157.236; -256.073; -273.868
703.695;  -27.662; -796.073; -792.868
703.961;   22.714; -214.073; -210.868
704.227;  -52.784; -630.073; -725.869
704.493;  119.968;  613.927;  510.131
704.759;  -15.755; -565.072; -540.870
705.025;   22.472; -203.072; -194.870
705.291;    1.749; -666.072; -562.870
705.557;  198.126;  719.928;   34.129
705.823;   34.378; -742.072; -694.871
706.089;  153.655; -307.071; -326.871
706.355;  355.881; -315.071; -244.872
706.620; 5556.058; -776.071; -729.872
706.886; 8277.060; -309.071; -362.873
707.152;  783.737; -818.070; -973.873
707.418;    0.964;-1153.070;-1186.873
707.683;   -0.934; -550.070; -530.874
707.949;  -35.457; -547.070; -578.874
708.215;   11.545; -129.070; -207.874
708.480;  -24.404; -520.069; -420.875
708.746;   91.098;   68.931;   28.125
709.011;  -51.400; -578.069; -612.876
709.277;  -74.873; -538.069; -543.876
709.542;  -45.171; -428.069; -387.876
709.808;   -6.094;  -59.068;   89.123
710.073;  -71.867; -577.068; -695.877
710.339;  -17.540; -242.068; -228.877
710.604;   65.187; -780.068; -845.878
710.869;  347.188; -277.068; -366.878
711.135;  -62.610; -715.067; -628.879
711.400;  -79.783; -507.067; -608.879
711.665;  -73.481; -404.067; -479.879
711.931;  -85.054; -661.067; -677.880
712.196; -117.227; -876.067; -954.880
712.461;   99.225; -402.066; -490.880
712.726;  152.627; -727.066; -771.881
712.991;  -87.647; -647.066; -664.881
713.256;  -45.420; -350.066; -332.882
713.521;  -55.443; -417.065; -381.882
713.787;  -62.366; -454.065; -472.882
714.052;  -29.464; -214.065; -400.883
714.317;  -88.587;-1045.065; -981.883
714.581; 1015.265; -374.065; -268.883
714.846; 1510.592; -822.064; -888.884
715.111;  125.844;  261.936;  257.116
715.376;   -8.180;  -86.064; -223.885
715.641;  -15.028; -365.064; -367.885
715.906;  285.599;   15.936; -551.885
716.171;  136.151;  221.937;  209.114
716.436;   32.828;  -78.063; -104.886
716.700; -105.470; -818.063; -692.886
716.965; -114.418; -794.063; -807.887
717.230;  -85.241; -339.063; -392.887
717.494;  -14.065;  -40.062; -134.888
717.759;  -88.613; -784.062; -640.888
718.024;    8.364;  269.938;  250.112
718.288;   79.291;  685.938;  395.111
718.553; -133.057; -803.062; -977.889
718.817; -132.530; -883.061; -899.889
719.082;  -43.428; -115.061; -125.890
719.346; -127.726;-1000.061; -947.890
719.611;  -55.949; -300.061; -255.891
719.875;  -83.698; -568.060; -537.891
720.140;  -72.171; -453.060; -603.891
720.404;   18.131; -136.060; -249.892
720.668;  815.633; -475.060; -411.892
720.933;  329.635;  146.940;  137.108
721.197; -102.763; -667.059; -600.893
721.461; -138.111; -851.059; -826.893
721.725;  -20.909;  -21.059; -250.894
721.990;  -57.708; -284.059; -204.894
722.254;  -33.006;  -26.059; -108.894
722.518;  -68.004; -286.058; -442.895
722.782; -101.277; -743.058; -594.895
723.046;  112.750;  614.942;  570.105
723.310;   12.802;  374.942;  210.104
723.574; -107.571; -654.058; -614.896
723.838; -102.444; -576.057; -642.897
724.102;  -38.467; -226.057; -239.897
724.366; -137.741;-1032.057; -978.897
724.630;  -99.314; -749.057; -571.898
724.894;  -79.762; -722.057; -514.898
725.158;  -15.835;   38.944; -295.898
725.422;  -51.008; -394.056; -327.899
725.685;  -60.181; -441.056; -349.899
725.949;  -88.929; -566.056; -519.900
726.213;  -71.727; -732.056; -811.900
726.477;  157.449;-1020.055; -933.900
726.740;  150.751; -274.055; -104.901
727.004;  303.078; -384.055; -510.901
727.268; 3375.105; -442.055; -400.901
727.531; 1045.432; -961.055; -775.902
727.795;  -37.891; -713.054; -673.902
728.059;  -52.764; -552.054; -557.903
728.322;  -70.687; -841.054; -669.903
728.586;   20.715; -692.054; -701.903
728.849;  -74.234; -695.053; -756.904
729.112; -113.607; -812.053; -912.904
729.376; -129.330; -959.053; -905.904
729.639;  -77.903; -536.053; -536.905
729.903; -108.551; -733.053; -699.905
730.166;  -47.124; -437.052; -399.906
730.429;  -14.197; -317.052; -468.906
730.693;  -59.145; -355.052; -894.906
730.956;  194.831;  810.948;  651.093
731.219;  703.658; -310.052; -103.907
731.482;  120.710;-1003.051; -894.907
731.745;  122.762; -794.051; -935.908
732.009;   13.964;  -30.051;   50.092
732.272; -102.259; -904.051; -771.909
732.535;  -36.932; -300.051; -310.909
732.798; -153.130;-1083.050;-1166.909
733.061;  -52.904; -430.050; -456.910
733.324;    5.798;   31.950; -180.910
733.587;   48.825;  290.950;  365.090
733.850;  -63.648; -973.049;-1050.911
734.113;   27.529;   33.951;   32.089
734.376;   -2.219; -328.049; -447.912
734.639;  211.233; 1188.951; 1011.088
734.901;   61.460; -180.049; -402.912
735.164;  485.362; -883.048; -837.913
735.427; 1356.813; -166.048; -355.913
735.690;  122.065; -205.048; -234.913
735.952;  -26.058; -923.048; -925.914
736.215;  -27.981;-1113.048;-1009.914
736.478;   51.246; -771.047; -774.915
736.740;  223.323;   33.953;  129.085
737.003;  598.050; -658.047; -672.915
737.266; 4071.027;  -94.047;   46.084
737.528;  451.678; -682.047; -660.916
737.791;  316.630; -316.046; -327.916
738.053;  794.232;  465.954;  649.083
738.316;10662.084; -162.046; -136.917
738.578; 8360.911; -770.046; -736.918
738.841;  491.588; -382.046; -446.918
739.103;  185.440; -875.045; -777.918
739.365;  533.142;   79.955;  -69.919
739.628;    9.269; -884.045; -805.919
739.890;  -23.130; -758.045; -710.919
740.152;  -40.478; -692.044; -754.920
740.414;  -10.976; -408.044; -359.920
740.677;  -47.049; -785.044; -634.921
740.939;  -44.922; -587.044; -487.921
741.201;  259.805; -432.044; -572.921
741.463;   52.357; -689.043; -745.922
741.725;    5.209;  -21.043; -199.922
741.987;   56.010;  220.957;  116.078
742.249;   -0.038; -751.043; -859.923
742.511;  214.539; -703.043; -794.923
742.773;   17.216; -546.042; -546.924
743.035;  124.193;  796.958;  533.076
743.297;  -30.305; -963.042;-1013.924
743.559;  727.147; -278.042; -262.925
743.821;   84.099; -735.042; -744.925
744.083;    4.926;  -44.041; -149.925
744.345;  -85.273; -869.041; -892.926
744.607;   24.979;   75.959;  122.074
744.868;  -48.594; -490.041; -554.927
745.130; -110.042; -994.041;-1008.927
745.392;   32.035;   -1.040;  -44.927
745.653;   -9.388; -411.040; -378.928
745.915;  142.539;  896.960;  631.072
746.177;   53.841;   35.960;  -43.928
746.438;  -11.008; -428.040; -543.929
746.700;  -52.656; -947.039; -988.929
746.961;    4.396; -659.039; -740.930
747.223;  134.398; -190.039;  -74.930
747.484;   83.800; -391.039; -471.930
747.746;  156.702;  -23.038; -106.931
748.007;  128.679; -647.038; -689.931
748.269;  290.681; -468.038; -440.931
748.530;  510.133; -852.038; -638.932
748.791;  265.834; -354.038; -420.932
749.053;  430.786;  286.963;  163.067
749.314;  463.988; -236.037; -169.933
749.575;  527.190; -945.037; -905.933
749.836;  846.242; -217.037;   86.066
750.098; 2249.569;  -60.037;  -21.934
750.359;36124.546;  414.964;  555.066
750.620;10329.723; -121.036; -220.935
750.881; 1039.899; -585.036; -513.935
751.142; 1339.201; -950.036; -938.936
751.403;16271.228; -789.036; -705.936
751.664; 8193.580;-1034.035; -999.936
751.925;  497.082; -175.035; -262.937
752.186;  282.084; -298.035; -278.937
752.447;  138.636; -590.035; -445.937
752.708;   63.613; -532.035; -648.938
752.969;   18.240; -566.034; -576.938
753.230;  -12.534; -777.034; -672.939
753.491;   -4.607; -650.034; -631.939
753.751;   76.595;  109.966;   19.061
754.012;   86.522;  258.967;  181.060
754.273;   49.949; -174.033;  -71.940
754.534;   28.151; -487.033; -580.940
754.794;  -73.122; -926.033; -911.941
755.055;  136.555; 1051.967;  881.059
755.316;  -50.069; -700.032; -566.942
755.576;  -20.742; -606.032; -576.942
755.837;  -38.690; -527.032; -695.942
756.097;  -34.888; -530.032; -564.943
756.358;  -62.736; -725.032; -770.943
756.618;  -42.109; -705.031; -641.943
756.879;   19.293; -254.031; -349.944
757.139; -118.330;-1098.031;-1116.944
757.400;  -55.529; -538.031; -553.945
757.660;  -28.402; -365.031; -401.945
757.920;   11.550; -266.030; -228.945
758.181;  -21.773; -468.030; -351.946
758.441;  -78.471; -870.030; -809.946
758.701;  -33.819; -308.030; -215.946
758.961;   -9.267; -220.030; -278.947
759.222;  -55.290; -574.029; -502.947
759.482;  -88.888; -683.029; -723.948
759.742;  -83.712; -706.029; -547.948
760.002;    5.615;  -83.029; -143.948
760.262;   26.042;   50.972;  182.051
760.522;  -36.381; -498.028; -574.949
760.782;  -47.854; -738.028; -612.949
761.042;  -27.352; -618.028; -573.950
761.302;   50.325;   55.972;  -18.950
761.562;   68.377; -164.027; -154.951
761.822;   81.578; -710.027; -551.951
762.082;  -38.070;-1104.027;-1093.951
762.342;   66.782; -328.027; -403.952
762.601;   80.359; -567.027; -506.952
762.861;  373.011; -281.026; -207.952
763.121;  429.713; -406.026; -411.953
763.381; 7345.615; -499.026; -485.953
763.640; 9211.817; -139.026; -307.954
763.900;  400.319; -242.026; -203.954
764.160;   99.620; -458.025; -491.954
764.419;   -0.603; -726.025; -782.955
764.679;  -69.701; -795.025; -726.955
764.939;   -7.949; -124.025; -210.955
765.198;  -70.072; -608.025; -563.956
765.458;  -77.220; -710.024; -612.956
765.717;  -72.443; -454.024; -590.957
765.976;  -63.941; -428.024; -411.957
766.236;  -63.265; -475.024; -610.957
766.495;   19.812;  260.977;   73.042
766.755;  -88.886;-1090.023; -987.958
767.014;   15.441; -594.023; -665.958
767.273;  -56.557; -373.023; -397.959
767.533;  -42.830; -228.023; -307.959
767.792;  -39.728; -151.022; -188.960
768.051;  -37.551; -228.022; -276.960
768.310;  -89.499; -546.022; -650.960
768.569;  -18.723; -161.022;    4.039
768.828;  -27.396; -285.022; -363.961
769.088; -119.844;-1050.021; -942.961
769.347;  -89.517; -755.021; -599.962
769.606;  -87.790; -876.021; -857.962
769.865; -135.063;-1016.021;-1033.963
770.124;   -1.861; -411.021; -336.963
770.383;  -44.434; -778.020; -910.963
770.641;    0.142; -398.020; -400.964
770.900;  -50.031; -953.020; -846.964
771.159;  -40.254; -851.020; -951.964
771.418;   -8.402; -917.020; -779.965
771.677;  142.300; -224.019; -293.965
771.936;  152.902; -794.019; -865.966
772.194; 1960.979; -465.019; -437.966
772.453;11843.856; -213.019; -391.966
772.712;  852.933;  416.982;  329.033
772.970;  117.934;   32.982;   63.033
773.229;   81.286;  -22.018;  102.033
773.488;  -62.462; -814.018; -770.968
773.746;   54.140;  296.982;  335.032
774.005;   -9.508;  190.983;  -22.969
774.263;    2.044;  243.983;  177.031
774.522;  -42.579; -422.017; -548.969
774.780;  -83.402; -484.017; -417.970
775.039;  -88.376; -551.017; -531.970
775.297;  -28.899; -135.016; -351.970
775.555; -108.247; -489.016; -612.971
775.814; -126.145; -618.016; -570.971
776.072; -121.868; -749.016; -740.971
776.330;  -91.741; -630.016; -520.972
776.589; -107.289; -703.015; -721.972
776.847; -126.112; -645.015; -624.973
777.105; -167.610;-1016.015;-1032.973
777.363;  -80.959; -459.015; -454.973
777.621; -141.207; -660.015; -717.974
777.879;  -36.905;  -42.014;   32.026
778.138; -101.703; -554.014; -717.974
778.396; -101.301; -585.014; -526.975
778.654; -162.449;-1015.014; -970.975
778.912;  -58.347; -269.014; -371.976
779.170; -137.745; -880.013; -803.976
779.427; -153.219; -922.013; -897.976
779.685; -144.442; -880.013; -832.977
779.943;  -84.515; -654.013; -593.977
780.201; -164.713; -964.012; -883.978
780.459; -118.711; -651.012; -610.978
780.717;  -92.609; -440.012; -390.978
780.974;  -91.582; -449.012; -490.979
781.232;  -83.680; -358.012; -338.979
781.490;  -93.828; -551.011; -472.979
781.747; -102.502; -555.011; -476.980
782.005;    3.200;  462.989;  254.020
782.263; -162.623; -542.011;-1004.981
782.520;  -84.446; -326.011; -501.981
782.778; -160.794;-1013.010;-1051.981
783.035; -166.067; -962.010; -938.982
783.293;  -55.615; -248.010; -206.982
783.550;  -51.138; -134.010; -198.982
783.808; -135.212; -764.010; -776.983
784.065; -164.735; -745.009; -874.983
784.322;  -48.858;   25.991;  -86.984
784.580; -141.981; -915.009; -771.984
784.837;  -98.904; -392.009; -466.984
785.094; -135.702; -783.009; -762.985
785.352;  -78.100; -304.008; -404.985
785.609;  -98.398; -934.008; -839.985
785.866;  -96.647; -345.008; -401.986
786.123;  -63.695; -639.008; -583.986
786.380; -101.343; -665.008; -604.987
786.637;  -43.241; -225.007; -380.987
786.895;  -34.314; -456.007; -543.987
787.152;  -54.887; -135.007; -267.988
787.409;  -40.760; -123.007; -225.988
787.666;  -84.483; -299.006; -378.988
787.923; -113.031; -616.006; -695.989
788.179; -105.755; -551.006; -584.989
788.436; -104.378; -585.006; -585.990
788.693;  -34.901;  -92.006;  -87.990
788.950;  116.901; -125.005; -112.990
789.207;  240.253; -381.005; -372.991
789.464;  -45.070; -161.005; -301.991
789.720;  -15.418;  150.995;  110.009
789.977; -165.291;-1003.005; -671.992
790.234;  -30.365;   44.996;  -66.992
790.490; -149.338; -884.004;-1031.993
790.747;  -22.136;  -85.004;   22.007
791.004;  -18.084; -426.004; -348.993
791.260;  -77.232; -430.004; -560.994
791.517; -101.155; -843.003; -788.994
791.773;  -45.578; -379.003; -342.994
792.030; -110.151; -596.003; -660.995
792.286;  -99.424; -686.003; -636.995
792.543;  -28.023;  -74.002; -159.995
792.799;  -54.071; -584.002; -382.996
793.055; -149.719;-1179.002;-1210.996
793.312;  -87.492; -827.002; -816.997
793.568;  -56.840; -746.002; -599.997
793.824;    2.187; -226.001; -284.997
794.081;   23.314; -447.001; -508.998
794.337;   79.116; -664.001; -561.998
794.593; 1180.917; -319.001; -271.999
794.849; 7080.569; -746.001; -772.999
795.105;  406.146; -270.000; -261.999
795.361;   21.273; -490.000; -457.000
795.617;  -60.275; -875.000; -945.000
795.873;  -57.150; -360.000; -407.000
796.129;  -45.050; -368.000; -306.000
796.385;  -34.750; -124.000; -156.000
796.641;   61.150;  412.000;  550.000
796.897;  -88.500; -666.000; -635.000
797.153;   60.750;  453.000;  357.000
797.409; -104.150; -785.000; -868.000
797.665;  -75.150; -625.000; -732.000
797.921;  -74.125; -775.000; -762.000
798.176;  -55.225; -744.000; -747.000
798.432;  -42.025; -824.000; -596.000
798.688;  -62.625;-1174.000;-1078.000
798.943;   75.975; -165.000; -147.000
799.199;   16.250;-1005.000; -959.000
799.455;  246.700;  369.000;  316.000
799.710;  147.125; -813.000; -380.000
799.966;  313.850; -162.000; -160.000
800.221;  473.350; -638.000; -721.000
800.477; 9849.500; -743.000; -710.000
800.732;10481.150; -773.000; -800.000
800.988;  678.650;  205.000;  -19.000
801.243; 1668.175; -454.000; -344.000
801.498; 8506.700; -814.000; -739.000
801.754;  533.750; -289.000; -163.000
802.009;   95.625; -257.000; -335.000
802.264;  -36.775; -967.000;-1033.000
802.520;   22.350;  222.000;   -3.000
802.775;  -61.225; -524.000; -359.000
803.030;   46.450;  395.000;  356.000
803.285; -126.425; -840.000; -903.000
803.540;  -58.125; -686.000; -699.000
803.795;  -46.700; -648.000; -583.000
804.051;  -42.025; -279.000; -346.000
804.306;   11.175;  168.000;  128.000
804.561;  136.450;  451.000;  362.000
804.816;  120.200;  714.000;  861.000
805.071;  -13.175; -185.000; -280.000
805.325;  212.025; -257.000; -427.000
805.580;  -90.150; -841.000; -877.000
805.835;  -17.775; -204.000; -297.000
806.090;  -86.325; -760.000; -676.000
806.345;  -16.675; -344.000; -264.000
806.600;  -30.850; -549.000; -632.000
806.854;  -24.550; -408.000; -538.000
807.109;   -3.900; -493.000; -577.000
807.364;   16.325; -407.000; -328.000
807.618;   -1.750; -415.000; -381.000
807.873;   45.550; -470.000; -494.000
808.128;  105.850; -257.000; -518.000
808.382;  119.375; -224.000; -332.000
808.637;   87.825; -440.000; -511.000
808.891;  198.650; -257.000; -180.000
809.146;  106.850; -902.000; -794.000
809.400;  268.525; -848.000; -923.000
809.654;  362.300; -779.000; -551.000
809.909;  503.775; -841.000; -927.000
810.163; 5962.050; -813.000; -651.000
810.418;18362.500; -940.000; -861.000
810.672; 1176.100; -685.000; -690.000
810.926;  765.650; -993.000; -973.000
811.180; 1410.000; -439.000; -372.000
811.434;31905.975;  240.000;  135.000
811.689;15521.700; -231.000; -365.000
811.943;  734.250; -936.000; -953.000
812.197;  372.525; -893.000; -671.000
812.451;  139.600; -379.000; -514.000
812.705;    0.475; -809.000; -619.000
812.959;    9.350; -263.000; -388.000
813.213;    2.200; -283.000; -209.000
813.467;   79.925;  470.000;  253.000
813.721;  -80.625; -764.000; -792.000
813.975;  -94.050; -826.000; -877.000
814.229;   42.875;  430.000;  353.000
814.482;  -77.125; -517.000; -566.000
814.736; -112.875; -766.000; -744.000
814.990; -132.475; -779.000; -872.000
815.244;  -47.650; -228.000; -285.000
815.497;  -86.700; -636.000; -601.000
815.751;  -14.975; -141.000;   82.000
816.005;  -77.175; -470.000; -586.000
816.258;  -65.425; -510.000; -363.000
816.512; -113.925; -693.000; -610.000
816.766;    6.850;  121.000;  157.000
817.019;   10.900;  148.000;  149.000
817.273; -111.750;-1000.000; -802.000
817.526;  -45.275; -206.000; -173.000
817.779;  -52.200;-1049.000; -960.000
818.033;  -57.475; -693.000; -807.000
818.286; -127.875; -725.000; -792.000
818.540;  -86.000; -403.000; -403.000
818.793;  -72.700; -402.000; -489.000
819.046; -100.825; -582.000; -520.000
819.299;  -41.475; -157.000; -166.000
819.553; -114.775; -552.000; -592.000
819.806; -155.750;-1016.000; -838.000
820.059;  -69.225; -334.000; -354.000
820.312;   10.625;  152.000;  185.000
820.565;  -14.125;  110.000;  -27.000
820.818;  -57.425;  -59.000; -173.000
821.071; -165.550;-1041.000; -957.000
821.324; -107.800; -536.000; -540.000
821.577; -102.450; -457.000; -483.000
821.830;  -68.025; -270.000; -172.000
822.083; -125.425; -733.000; -288.000
822.336;  -58.675; -261.000; -167.000
822.589; -130.600; -805.000; -688.000
822.842; -139.825; -875.000; -770.000
823.094; -171.100;-1076.000;-1114.000
823.347; -128.400; -925.000; -729.000
823.600;   -0.200;  402.000;  187.000
823.853;  -47.300; -311.000; -267.000
824.105;  -70.775; -331.000; -575.000
824.358; -107.225; -617.000; -716.000
824.611;   26.525;  234.000;   40.000
824.863;  -38.075; -612.000; -591.000
825.116;   45.700;  -33.000;   27.000
825.368;   72.375; -366.000; -372.000
825.621;  162.775; -186.000; -240.000
825.873;   80.250; -704.000; -737.000
826.126;  515.050; -669.000; -641.000
826.378;11343.450; -389.000; -505.000
826.630; 3501.150; -890.000; -898.000
826.883;   52.275; -754.000; -693.000
827.135;   41.150; -279.000; -270.000
827.387;  -89.625; -893.000; -839.000
827.639;  -27.400;  -86.000;   32.000
827.892; -120.225; -742.000; -582.000
828.144; -151.900; -848.000; -804.000
828.396;  -40.450;  104.000;  -80.000
828.648; -105.000; -440.000; -333.000
828.900; -146.500; -702.000; -795.000
829.152; -107.700; -684.000; -683.000
829.404;  -65.000; -215.000; -267.000
829.656;   -8.550;  321.000;  214.000
829.908;  -16.525;  393.000;  229.000
830.160; -171.650;-1064.000;-1047.000
830.412;  -96.950; -481.000; -430.000
830.664; -124.350; -557.000; -665.000
830.916;  -77.450; -268.000; -206.000
831.167; -174.225;-1073.000; -951.000
831.419; -103.700; -623.000; -566.000
831.671; -144.850; -764.000; -809.000
831.923;  -89.825; -311.000; -447.000
832.174;  -86.125; -273.000; -331.000
832.426; -117.125; -493.000; -582.000
832.678; -174.875;-1043.000;-1091.000
832.929; -165.525; -947.000; -935.000
833.181;  -73.650; -575.000; -677.000
833.432;  -49.175;  -59.000; -186.000
833.684;  -29.600;  112.000;  -27.000
833.935; -117.950; -610.000; -566.000
834.187; -128.250; -829.000; -823.000
834.438;  -52.650;  -58.000;  -25.000
834.689;  -58.475; -255.000; -123.000
834.941;  -65.100; -343.000; -244.000
835.192; -104.025; -590.000; -533.000
835.443; -103.425; -419.000; -506.000
835.695;  -20.725;  138.000;  -16.000
835.946;  -84.150; -608.000; -378.000
836.197; -103.150; -599.000; -622.000
836.448; -105.800; -528.000; -395.000
836.699;  -63.100; -253.000; -341.000
836.950;  -21.450;   72.000;    7.000
837.201; -152.025;-1003.000; -987.000
837.452;  -52.350; -356.000; -170.000
837.703; -110.500; -791.000; -737.000
837.954;  -52.575; -205.000; -365.000
838.205;  -95.025;-1029.000;-1008.000
838.456;  174.150; -196.000; -282.000
838.707;   13.000; -423.000; -519.000
838.958;    6.050; -634.000; -647.000
839.209;  290.950;   18.000;   40.000
839.460;  130.450; -439.000; -201.000
839.710;  156.000; -135.000; -297.000
839.961;  418.200;  730.000;  612.000
840.212;  341.400; -382.000; -497.000
840.462; 1060.750; -328.000; -277.000
840.713;17239.150; -571.000; -536.000
840.964; 8576.250;  -62.000; -143.000
841.214;  559.300; -384.000; -624.000
841.465;  597.275; -214.000; -141.000
841.715;  541.700; -417.000; -380.000
841.966;  656.225; -746.000; -685.000
842.216; 7899.075; -330.000; -431.000
842.466;36385.350; -169.000; -313.000
842.717; 2518.950; -964.000; -952.000
842.967;  322.900; -635.000; -641.000
843.217;  293.675;   20.000;   28.000
843.468;   65.800; -104.000; -132.000
843.718;  -30.550; -718.000; -726.000
843.968;  -92.950; -837.000; -765.000
844.218;   19.700; -315.000; -262.000
844.469;  -30.775; -577.000; -561.000
844.719; -105.625; -537.000; -682.000
844.969;  -88.350; -550.000; -580.000
845.219; -147.275; -814.000; -862.000
845.469;  -81.150; -392.000; -342.000
845.719; -136.475; -792.000; -884.000
845.969;  -17.100;  119.000;  174.000
846.219; -110.875; -738.000; -720.000
846.469;   22.650;  464.000;  432.000
846.718;  -64.225; -115.000;   31.000
846.968; -122.575; -827.000; -827.000
847.218;  -47.725; -224.000; -371.000
847.468; -113.625; -586.000; -555.000
847.718; -145.975; -827.000; -798.000
847.967; -141.150; -826.000; -915.000
848.217;  -86.850; -449.000; -569.000
848.467;  -69.575; -405.000; -376.000
848.716; -116.950; -708.000; -725.000
848.966;  -18.050; -372.000; -358.000
849.215;  -62.225; -428.000; -419.000
849.465;  -95.175; -785.000; -615.000
849.714; -145.475;-1132.000;-1150.000
849.964;  -71.825; -551.000; -613.000
850.213;  -18.550; -393.000; -355.000
850.463;   69.100;  137.000;  340.000
850.712;   -3.425; -542.000; -567.000
850.961;   28.325; -739.000; -678.000
851.211;  110.250; -513.000; -504.000
851.460;  175.075; -635.000; -650.000
851.709;  550.350;  -25.000;   18.000
851.958; 9592.875; -912.000; -750.000
852.208;14337.550; -859.000; -879.000
852.457;  556.600; -181.000;  -13.000
852.706;   78.450; -791.000; -823.000
852.955;   22.700; -507.000; -528.000
853.204;  -60.125; -521.000; -461.000
853.453;  -80.475; -418.000; -458.000
853.702; -137.350; -660.000; -750.000
853.951; -103.850; -532.000; -520.000
854.200; -114.175; -613.000; -562.000
854.449; -145.400; -695.000; -661.000
854.698;  -88.775; -340.000; -279.000
854.946;  -76.325; -181.000; -284.000
855.195; -159.800; -843.000; -868.000
855.444; -103.500; -395.000; -420.000
855.693; -119.700; -345.000; -432.000
855.941; -107.575; -387.000; -516.000
856.190;  -63.425; -256.000; -382.000
856.439; -136.925; -652.000; -703.000
856.687;  -62.075;  -99.000;  -72.000
856.936; -114.250; -621.000; -323.000
857.184; -179.150;-1067.000;-1020.000
857.433; -108.775; -423.000; -512.000
857.681; -162.450; -989.000; -953.000
857.930;  -87.850; -282.000; -433.000
858.178; -156.350; -856.000; -929.000
858.427; -160.100; -802.000; -781.000
858.675; -122.800; -377.000; -544.000
858.923; -106.025; -527.000; -819.000
859.172; -190.175;-1094.000;-1070.000
859.420;  -87.675; -339.000; -239.000
859.668; -136.975; -624.000; -628.000
859.916;  -39.800;  109.000;  115.000
860.164; -119.700; -699.000; -603.000
860.413;  239.250; -878.000; -696.000
860.661;  254.275; -709.000; -577.000
860.909;  -89.375; -339.000; -325.000
861.157;  -91.900; -277.000; -444.000
861.405; -127.725; -534.000; -670.000
861.653;    5.100;  310.000;  310.000
861.901;  142.075; -543.000; -613.000
862.149;   18.325; -801.000; -824.000
862.396;  -75.925; -297.000; -187.000
862.644; -100.150; -368.000; -347.000
862.892;  -29.500;   98.000;  138.000
863.140; -121.575; -549.000; -530.000
863.388; -152.150; -815.000; -759.000
863.635; -132.500; -642.000; -601.000
863.883;  -27.100;  231.000;  190.000
864.131;  -92.725; -288.000; -357.000
864.378; -150.125; -675.000; -540.000
864.626; -104.050; -347.000; -415.000
864.873; -130.325; -556.000; -505.000
865.121; -152.525; -714.000; -799.000
865.368;  -63.625; -173.000;   75.000
865.616;  -47.250;  -33.000;  -40.000
865.863;  -70.025; -462.000; -506.000
866.111; -110.900; -795.000; -824.000
866.358;   27.275; -426.000; -420.000
866.605; 2134.725;  -64.000; -804.000
866.853; 2656.300; -621.000; -537.000
867.100;  -22.600; -728.000; -775.000
867.347;  -96.525; -672.000; -611.000
867.594;  -97.975; -740.000; -714.000
867.841;   94.625;   97.000;   17.000
868.089; -150.150; -746.000; -698.000
868.336; -102.875; -477.000; -420.000
868.583; -133.325; -637.000; -741.000
868.830;  -49.900; -131.000; -170.000
869.077; -166.425; -859.000; -787.000
869.324; -123.725; -502.000; -458.000
869.571; -134.100; -398.000; -430.000
869.818; -127.975; -485.000; -439.000
870.065; -111.975; -439.000; -513.000
870.311; -117.000; -456.000; -542.000
870.558; -114.475; -332.000; -311.000
870.805;  -91.175; -320.000; -384.000
871.052; -113.400; -494.000; -369.000
871.298;  -79.550; -204.000; -131.000
871.545;  -70.800; -151.000; -185.000
871.792; -108.575; -173.000; -222.000
872.038;  -72.375;   43.000; -126.000
872.285; -123.700; -496.000; -387.000
872.532; -102.450; -357.000; -387.000
872.778;    6.450;  556.000;  403.000
873.025;  -98.600; -384.000; -359.000
873.271;    5.325;  501.000;  578.000
873.517;  -26.950; -133.000; -209.000
873.764;  -38.900; -193.000;  -80.000
874.010;  -66.975; -143.000; -230.000
874.257;  -53.050;  123.000;   90.000
874.503; -126.075; -579.000; -479.000
874.749;  -73.000;   31.000;  275.000
874.995;  -67.825;  -80.000;  -20.000
875.242; -118.700; -540.000; -478.000
875.488; -109.825; -414.000; -439.000
875.734;  -70.400; -106.000; -234.000
875.980;  162.975; -872.000;-1032.000
876.226;  408.900; -157.000; -255.000
876.472;  -13.725;  343.000;  237.000
876.718;  -51.325;  184.000;  158.000
876.964;  -30.400;   56.000;   55.000
877.210; -156.475; -547.000; -677.000
877.456; -130.950; -630.000; -557.000
877.702; -191.000; -821.000; -832.000
877.948; -107.750; -377.000; -497.000
878.193;  -16.875;  361.000;  255.000
878.439;  -97.825; -487.000; -472.000
878.685; -112.575; -272.000; -343.000
878.931; -136.575; -618.000; -676.000
879.176;  -85.750; -201.000; -201.000
879.422; -171.225; -933.000; -820.000
879.668;   41.800;   10.000;   79.000
879.913;  156.600;   53.000;  137.000
880.159;  -51.925; -112.000;  -17.000
880.404;  -63.950; -152.000; -162.000
880.650;  -61.325;   91.000;  141.000
880.895; -161.000; -670.000; -710.000
881.141; -127.375; -454.000; -428.000
881.386; -142.200; -503.000; -658.000
881.631;  -97.025; -311.000; -166.000
881.877;  -31.100;  112.000;  -13.000
882.122; -144.650; -684.000; -600.000
882.367; -108.425; -136.000; -186.000
882.612;  -79.600;  -80.000; -176.000
882.858; -170.950; -877.000; -823.000
883.103; -111.600; -297.000; -267.000
883.348; -143.150; -759.000; -852.000
883.593; -151.575; -677.000; -602.000
883.838;  -66.450; -311.000;  -24.000
884.083;   14.825;  353.000;  288.000
884.328;  -82.725; -564.000; -545.000
884.573;  -68.325; -196.000; -143.000
884.818;  166.275; -694.000; -531.000
885.063;  208.725; -348.000; -315.000
885.308; -104.125; -475.000; -398.000
885.553;  -36.300;  245.000;  325.000
885.797; -131.925; -545.000; -615.000
886.042;  -61.425;    8.000;   58.000
886.287;  -91.050; -253.000; -211.000
886.532;  -51.375;   26.000;  204.000
886.776; -106.650; -407.000; -525.000
887.021; -145.175; -621.000; -574.000
887.265; -165.450; -685.000; -689.000
887.510; -137.350; -557.000; -496.000
887.755;  -85.125; -194.000; -164.000
887.999; -149.200; -552.000; -575.000
888.244;  -60.975;  -58.000;  161.000
888.488;  -11.125;  371.000;  393.000
888.732; -124.425; -368.000; -520.000
888.977; -143.625; -622.000; -567.000
889.221; -148.125; -683.000; -659.000
889.465; -133.175; -422.000; -566.000
889.710;  -91.975;  -56.000; -299.000
889.954;   -2.675;  579.000;  467.000
890.198; -162.375; -584.000; -707.000
890.442; -159.000; -716.000; -712.000
890.687; -171.975; -800.000; -753.000
890.931; -102.975; -273.000; -210.000
891.175; -142.775; -502.000; -500.000
891.419;  -87.650; -105.000; -110.000
891.663; -102.875; -239.000; -112.000
891.907; -165.650; -801.000; -545.000
892.151; -173.300; -920.000; -815.000
892.395; -111.425; -274.000; -387.000
892.638;  -39.350;  408.000;  291.000
892.882; -184.650; -780.000; -867.000
893.126;   10.225;  758.000;  558.000
893.370;  -98.350; -167.000; -168.000
893.614; -149.650; -714.000; -715.000
893.857; -114.400; -183.000; -197.000
894.101; -143.200; -527.000; -631.000
894.345;  -60.750;  300.000;  150.000
894.588;   -4.725;  569.000;  380.000
894.832; -104.900; -178.000;  -84.000
895.075;  -91.975;   15.000;  -92.000
895.319; -134.600; -552.000; -420.000
895.563; -122.175; -413.000; -353.000
895.806; -157.275; -628.000; -741.000
896.049;  -70.775; -576.000; -368.000
896.293;   79.100;  527.000;  405.000
896.536;  -73.400; -465.000; -468.000
896.779;  -60.575; -149.000;   -1.000
897.023; -136.325; -751.000; -714.000
897.266;  -26.275;  325.000;  269.000
897.509; -185.625; -900.000; -901.000
897.752;  -43.400;  149.000;  171.000
897.996; -192.975; -972.000; -864.000
898.239;  -38.850;  168.000;  102.000
898.482; -129.075; -431.000; -453.000
898.725;  -47.300;  101.000;   53.000
898.968; -157.875; -609.000; -744.000
899.211; -116.575; -513.000; -361.000
899.454; -137.575; -633.000; -539.000
899.697;  -65.100;   90.000;  -43.000
899.940; -162.800; -761.000; -757.000
900.182; -102.750; -335.000; -405.000
900.425; -102.600; -150.000; -298.000
900.668;  -33.875;  491.000;  350.000
900.911; -119.400; -292.000; -345.000
901.154;  -53.750;  141.000;   -3.000
901.396; -142.550; -407.000; -412.000
901.639; -146.575; -430.000; -496.000
901.882; -176.850; -790.000; -809.000
902.124;  -93.200;  -29.000; -143.000
902.367; -115.200; -315.000; -361.000
902.609; -134.025; -476.000; -453.000
902.852;  -86.075; -108.000; -260.000
903.094; -125.675; -458.000; -337.000
903.337;  -59.025;  -26.000;   53.000
903.579; -110.075; -228.000; -441.000
903.821; -148.350; -597.000; -744.000
904.064;  -66.925;   85.000;  127.000
904.306;  -97.100; -126.000; -166.000
904.548; -118.350; -152.000; -366.000
904.790;  -97.750; -195.000; -340.000
905.033; -134.925; -625.000; -577.000
905.275; -127.700; -513.000; -524.000
905.517;   17.525;  468.000;  256.000
905.759;  -65.325; -667.000; -761.000
906.001;  -88.525; -322.000; -369.000
906.243;  -60.725; -162.000; -224.000
906.485;   81.050; -265.000; -207.000
906.727;  115.700; -499.000; -542.000
906.969;  -36.575;  -30.000; -135.000
907.211;   82.225; -316.000; -382.000
907.453;  275.800; -188.000; -237.000
907.695;   16.800; -158.000; -385.000
907.936;   27.025;  818.000;  706.000
908.178;  -57.600;   92.000; -135.000
908.420;  -78.175; -111.000; -162.000
908.662; -134.075; -633.000; -682.000
908.903;  -84.700; -208.000; -123.000
909.145;  -66.300; -240.000; -305.000
909.386;    2.800;  315.000;  280.000
909.628;   42.700;  363.000;  397.000
909.870;    3.000;   29.000;  264.000
910.111; -103.300; -809.000; -949.000
910.353;   29.975; -123.000; -161.000
910.594;   -2.225; -574.000; -606.000
910.835;   91.375; -265.000; -326.000
911.077;  157.125; -503.000; -604.000
911.318;  308.025; -505.000; -471.000
911.559;  489.025; -577.000; -880.000
911.801; 1355.375; -284.000; -280.000
912.042; 9829.850;  -50.000; -159.000
912.283;29123.800;  404.000;  371.000
912.524; 5349.500; -396.000; -457.000
912.765;  570.500; -193.000;   79.000
913.006;  266.450; -307.000; -338.000
913.247;   63.800; -270.000; -290.000
913.488;   -4.475;  -43.000;   30.000
913.729;  -78.925; -373.000; -373.000
913.970;  -59.625;  -96.000; -292.000
914.211;  -85.200; -160.000; -198.000
914.452;  -56.500; -118.000;  -11.000
914.693;    3.325;  510.000;  592.000
914.934;    6.475;  510.000;  440.000
915.175;  -67.450;   53.000;  -95.000
915.415;  -85.275; -137.000;   27.000
915.656;  -71.025;  -28.000;  192.000
915.897;  -80.600; -252.000;  -82.000
916.137;  -70.975;   74.000;   -9.000
916.378; -141.075; -573.000; -517.000
916.619;  -92.650; -159.000;  -63.000
916.859;  -47.275;  303.000;  330.000
917.100;  112.300; 1655.000; 1070.000
917.340;   39.750;  930.000;  728.000
917.581;   41.125;  965.000;  789.000
917.821;  -28.750; -171.000;  143.000
918.061;   18.050; -199.000;  -72.000
918.302;  -50.575; -152.000; -211.000
918.542;  -22.150;  -22.000;    3.000
918.782;   32.850;  369.000;  377.000
919.023;  109.575;  360.000;  427.000
919.263; 1251.300; 8131.000;  202.000
919.503; 1165.275; -137.000;  -54.000
919.743;  634.100;  390.000;  266.000
919.983;  292.600; -134.000;  -26.000
920.223;   85.950;  135.000;   14.000
920.463;  143.150;  631.000;  554.000
920.703;  136.525;   84.000;   39.000
920.943;  163.150; -110.000;   90.000
921.183;  242.475; -414.000; -405.000
921.423;  508.300;  307.000;  546.000
921.663;  762.175; -174.000; -257.000
921.903; 1551.750;  237.000;  173.000
922.143; 8248.475;  372.000;  389.000
922.383;33990.375;  158.000;  115.000
922.622;13769.475; -120.000;  -15.000
922.862; 1426.500;  796.000;  785.000
923.102;  513.525;  -51.000;   33.000
923.341;  217.500;   59.000;   74.000
923.581;   76.725;  450.000;  360.000
923.821;   24.000;  301.000;  398.000
924.060;   13.275;  351.000;  193.000
924.300;  -58.700;  -16.000; -128.000
924.539;  -12.825;  584.000;  473.000
924.779;   -4.175;  812.000;  597.000
925.018;  -47.200;  247.000;  353.000
925.257;    3.400;  595.000;  666.000
925.497;  -37.150;  447.000;  412.000
925.736;  -75.500;  -35.000;  102.000
925.975;   -9.450;  687.000;  669.000
926.214;   25.250;  907.000;  850.000
926.454;    9.000;  706.000;  757.000
926.693;  -50.975;  419.000;  543.000
926.932;   35.900; 1021.000;  825.000
927.171;   53.425; 1107.000; 1044.000
927.410;   54.950; 1144.000;  967.000
927.649;   16.550;  924.000;  742.000
927.888;    0.400;  590.000;  564.000
928.127;   -2.725;  680.000;  678.000
928.366;   26.175;  842.000;  826.000
928.605;   24.175;  831.000;  737.000
928.844;  205.050; 1451.000; 1393.000
929.083;  582.225;  770.000;  613.000
929.321;  368.600; 1335.000; 1359.000
929.560;   89.775; 1158.000; 1122.000
929.799;  -22.350;  574.000;  475.000
930.038;   71.050; 1025.000; 1394.000
930.276;  -51.625;  334.000;  397.000
930.515;   -6.075;  827.000;  681.000
930.753;  -20.550;  614.000;  589.000
930.992;  -22.000;  664.000;  717.000
931.230;   11.925;  847.000;  847.000
931.469;  173.150; 2162.000;  892.000
931.707;   69.325;  840.000;  751.000
931.946;   54.475; 1278.000; 1344.000
932.184;   45.025; 1437.000; 1175.000
932.423;   35.475; 1265.000;  963.000
932.661;   87.400; 1296.000; 1428.000
932.899;   25.400;  987.000;  821.000
933.137;   10.100;  754.000;  564.000
933.376;  122.525; 1664.000; 1335.000
933.614;  164.700; 1759.000; 1196.000
933.852;   52.075; 1357.000; 1171.000
934.090;  121.950; 1722.000; 1747.000
934.328;   92.950; 1252.000; 1457.000
934.566;   98.800; 1431.000; 1110.000
934.804;  141.025; 1263.000; 1309.000
935.042;  452.950; 1861.000; 1850.000
935.280; 1734.950; 2088.000; 2063.000
935.518; 1893.975; 2113.000; 2007.000
935.756;  396.525; 2481.000; 2316.000
935.994;  158.525; 1808.000; 1751.000
936.231;  331.225; 2890.000; 2950.000
936.469;  191.125; 2367.000; 2378.000
936.707;  151.800; 2220.000; 2167.000
936.945;  224.400; 2825.000; 2882.000
937.182;  207.650; 2679.000; 2741.000
937.420;  297.350; 3602.000; 3031.000
937.657;  402.250; 3365.000; 3478.000
937.895;  351.350; 3331.000; 3488.000
938.133;  307.075; 3540.000; 3528.000
938.370;  328.600; 3896.000; 4191.000
938.607;  392.525; 4488.000; 4205.000
938.845;  533.425; 5587.000; 5549.000
939.082;  472.375; 5387.000; 5177.000
939.320;  521.600; 5799.000; 5728.000
939.557;  648.400; 6549.000; 6491.000
939.794;  709.050; 7285.000; 7097.000
940.031;  888.425; 8421.000; 8368.000
940.269; 1101.925; 9552.000; 9107.000
940.506; 1123.450;10901.000;10507.000

