
Integration time [ms]: 200.000
Averaging Nr. [scans]: 10
Smoothing Nr. [pixels]: 0
Data measured with spectrometer [name]: 2101013U2
Wave   ;Sample   ;Dark     ;Reference
[nm]   ;[counts] ;[counts] ;[counts] 

394.013;   67.358; -450.257; -315.536
394.305;  423.454; -461.258; -419.536
394.596; 1940.588; -676.269; -527.514
394.887; 4320.615; -796.268; -654.518
395.178; 1744.364;  145.736;   11.476
395.470;  156.282; -210.263; -356.526
395.761;  421.539;  305.734;  394.479
396.052;  676.286; -545.284; -306.489
396.343;  701.598; -557.276; -454.503
396.634;  213.848; -200.279; -290.497
396.926;  191.310; -618.268; -565.517
397.217;  203.906;   11.725;  -17.504
397.508;   97.631; -366.273; -154.507
397.799;   49.348; -555.279; -571.497
398.090;  -59.461; -973.280; -902.495
398.381;  249.564;   11.708;  -11.473
398.672;  -30.334; -585.292; -742.473
398.963;   74.158; -348.279; -373.498
399.254;  204.681;   54.709; -209.475
399.545;  -82.967;-1017.266; -883.520
399.836;  119.181; -407.277; -343.501
400.127;  102.426; -205.295; -209.468
400.418;   94.622; -423.274; -392.506
400.709;  114.518; -359.281; -333.493
401.000;  117.987; -268.291; -309.476
401.290;  247.524;  225.698;  115.545
401.581;  129.758; -166.286; -228.485
401.872;   28.981; -542.298; -486.462
402.163;   95.714; -313.296; -252.467
402.454;  178.682; -123.291; -163.475
402.744;  114.300; -844.297; -813.465
403.035;  688.150; -226.293;  -86.471
403.326;  910.071; -366.292; -384.474
403.617;  667.672;  204.701;  165.539
403.907;  410.695; -593.283; -679.490
404.198; 4014.049; -545.307; -599.446
404.489;10152.903; -618.283; -588.491
404.779; 3493.129; -618.302; -660.456
405.070;  414.995;  -67.304; -174.451
405.360;  555.253; -259.293; -238.472
405.651;  647.247;  125.699;   98.542
405.942;  339.750;  209.714;  127.516
406.232;  447.974; -432.285; -413.487
406.523;  883.642;  641.706;  758.530
406.813;  141.654; -579.286; -644.484
407.104;  625.463;  261.708;  144.527
407.394;  316.674; -604.299; -591.462
407.685;  255.272;  336.715;  222.513
407.975;  136.700; -400.283; -382.490
408.265;  228.805; -134.289; -190.478
408.556;   97.777; -472.291; -459.475
408.846;  337.043;  474.706;  429.530
409.137;  178.019;   -1.288; -216.480
409.427;   92.973; -193.285; -271.487
409.717;   18.736; -776.273; -692.508
410.007;  255.763;    4.715; -170.486
410.298;  154.630; -360.295; -342.469
410.588;  125.569; -495.285; -510.486
410.878;   43.337; -792.287; -873.482
411.168;  181.885; -481.298; -478.463
411.459;  209.892; -295.283; -242.489
411.749;   93.975; -609.292; -507.474
412.039;  112.216; -755.289; -386.480
412.329;  368.369;   40.722;  132.501
412.619;  357.554;  -62.286; -148.485
412.909;  667.210;  639.711;  594.521
413.199;  576.739; -130.280; -251.495
413.490;  704.094;  521.710;  352.523
413.780;  195.146;-1013.279; -913.496
414.070;  601.300;  -46.276;  235.497
414.360;  584.163; -729.278; -666.498
414.650;  640.530; -726.288; -688.482
414.940;  862.645; -538.280; -441.496
415.230; 1496.026;   50.712;   74.519
415.520;10312.787;  155.730;   66.486
415.809;38960.717; -305.281; -125.493
416.099;30804.084; -388.277; -229.501
416.389; 8347.619;  435.726;  236.494
416.679; 5127.888;   91.738;   85.473
416.969;  887.744; -527.287; -503.483
417.259; 1005.049;  341.721;  171.503
417.549; 1179.515;  522.718;  318.508
417.838; 2798.714; -205.268; -147.518
418.128; 8909.603;  650.710;  492.522
418.418; 7518.347; -491.272; -579.509
418.708; 5232.719;    9.726;  -48.506
418.997;18761.012; -474.275; -480.505
419.287;19795.930; -733.273; -790.507
419.577;18877.791; -160.283; -123.489
419.866;59281.881; -588.277; -498.501
420.156;60588.780; -242.270;  -55.513
420.446;11768.376; -112.263;  -26.526
420.735; 1494.070; -376.271; -446.512
421.025; 1544.162; 1830.722;  315.502
421.314; 1222.967; -203.271; -226.512
421.604; 2412.802;   89.732;  233.484
421.893; 1368.561; -705.271; -602.511
422.183;  435.376; -487.263; -461.526
422.472;  705.664;  -36.271; -107.511
422.762;  791.143; -416.266; -379.521
423.051;  395.401; -916.276; -916.503
423.341;  542.533; -491.273; -439.507
423.630;  720.953; -121.265;   15.477
423.919;  644.811;   58.725;   49.495
424.209;  602.385;  -31.263;   56.473
424.498;  795.310;   68.732;  161.483
424.787; 1791.320; -535.267; -601.518
425.077; 5501.150;   34.735;   29.478
425.366; 7707.894; -734.262; -744.528
425.655;16435.734;  639.727;  259.493
425.945;34047.302; -313.247; -268.554
426.234;19738.631;  117.741;  300.467
426.523; 8353.139;  -86.259; -350.534
426.812;11616.936;  107.734;  159.480
427.101;16823.696; -127.269; -323.515
427.390;20988.086;  -55.270;  -86.514
427.680; 4912.671; -624.257; -411.538
427.969;  918.288; -330.255; -301.540
428.258;  544.657; -385.257; -477.536
428.547;  947.053;  449.728;  397.490
428.836; 2084.914; -421.253; -398.543
429.125; 2962.842; -199.259;  -72.534
429.414; 1416.851; -330.251; -294.548
429.703; 5271.351; -231.251; -213.548
429.992;15114.057; -938.250; -828.549
430.281;10231.265; -397.264; -331.524
430.570; 1066.936;  -21.252;   32.454
430.859; 1027.338;  279.741;  352.466
431.148;  862.896;  636.752;  631.446
431.437;  596.035;  391.748;  367.454
431.725;  259.860; -544.257; -481.536
432.014;  168.126; -845.253; -756.545
432.303;  619.718; -149.239; -105.569
432.592; 1048.975; -460.263; -178.525
432.881; 1763.097; -601.248; -437.554
433.169;10285.490; -343.255;  -61.540
433.458;20097.872;  445.765;  540.424
433.747; 8701.203; -397.261; -289.529
434.036; 1502.779; -275.242; -280.564
434.324; 3509.477; -395.249; -379.551
434.613; 5910.768;   40.757;  159.437
434.902; 2165.002;  333.760;  439.433
435.190; 1001.416;   75.761;  295.431
435.479;  572.739;  -52.245;   83.441
435.767;  198.652; -411.244; -427.561
436.056;  347.972; -340.242; -294.563
436.345;  644.106; -372.240; -223.568
436.633;  706.069;   60.750;  383.450
436.922;  502.409;  208.760;  414.432
437.210; 1071.656; -194.236;    1.426
437.499; 3260.869; -583.235; -432.576
437.787; 3589.556; -339.236;  -10.574
438.075;  980.725;   56.761;  162.430
438.364; 1249.329;  -44.238;  250.429
438.652;  760.898; -286.226; -138.592
438.941;  293.740;    3.770;  269.415
439.229;   28.931; -665.252; -466.545
439.517;   87.883; -160.234;  -85.577
439.806;  -17.477; -501.225; -290.595
440.094;  327.195;  377.766;  650.421
440.382;  277.601; -653.233; -302.580
440.670;  355.869; -361.235; -285.576
440.959;   55.151; -347.223; -170.599
441.247;  128.358; -151.229; -109.587
441.535;  180.080; -266.235;   31.423
441.823;   57.491; -497.234; -305.578
442.111;  334.065;  173.771;  327.412
442.400;  892.938; -628.245; -335.559
442.688; 2310.595; -111.234; -620.579
442.976; 1703.893; -786.213; -450.617
443.264;  186.434; -324.224; -364.597
443.552;  171.300; -258.226;   51.408
443.840;  347.678;  602.765;  876.423
444.128;  246.400;  265.767;  269.420
444.416;    8.069; -694.228; -312.588
444.704;   41.199; -465.219;  -92.605
444.992;  173.004;   -0.226;  240.407
445.280;   95.241; -517.230;  -94.585
445.568;   53.999; -694.212; -396.618
445.856;  631.374; -174.221;  357.398
446.143; 1264.393;  -54.220;   -7.604
446.431; 1136.575;  -25.228;  625.411
446.719;  491.830;  489.783;  675.391
447.007;  368.232;  481.769;  705.416
447.295;  380.447;  597.777;  871.402
447.583;  119.255; -464.229;  -34.587
447.870;  263.269; -434.221; -202.601
448.158;  744.239; -104.230;  129.415
448.446;  494.595; -800.219; -338.604
448.733;  327.236;   13.776;  269.403
449.021;  445.098;   60.788;  341.382
449.309;  313.822; -296.210;  208.379
449.596;  396.924;  128.783;   59.392
449.884;  235.058; -571.222; -325.600
450.172;  251.084; -756.227; -406.590
450.459;  773.466;  645.786;  780.387
450.747; 3979.122; -411.218; -147.608
451.034;12180.277;  493.772;  889.411
451.322;10180.271; -413.214; -170.614
451.609;  964.239;  292.777;  508.403
451.897;  988.024; -550.203; -183.634
452.184; 2832.547; -622.223; -400.598
452.472; 2810.057;   97.792;  269.375
452.759;  701.096;  512.781;  864.395
453.047;  212.794; -407.212; -125.617
453.334;  158.509; -732.219; -216.606
453.621;  192.775; -438.214; -161.615
453.909;  269.911;   13.796;  384.368
454.196;  181.484; -299.199; -123.641
454.483;  407.245;  317.798;  540.364
454.771;  278.462; -215.208;  196.374
455.058;   84.667; -316.207;  102.374
455.345;  224.673;   71.807;  344.347
455.632;  177.172; -128.207;  235.373
455.919;   97.821;  -82.196;  182.354
456.207; -126.508; -774.198; -450.642
456.494;   -6.336; -475.200;  -66.639
456.781;    9.238; -399.202; -198.635
457.068;  110.883; -253.206;  -29.628
457.355;  -12.315; -698.206; -401.629
457.642;   -6.507; -552.205; -290.630
457.929;   13.059; -778.194; -417.651
458.216;  107.995; -575.212; -354.617
458.503;  434.866; -173.193;  -19.652
458.790;  330.258; -864.208; -630.625
459.077;  461.046;  -77.202;  110.364
459.364; 1394.347; -350.195; -210.649
459.651; 2717.680;  -46.206;  220.372
459.938; 1248.443; -864.209; -665.623
460.225;  272.551;  132.799;  276.363
460.512; -120.684; -836.197; -688.645
460.799;  213.620;  -32.218;  320.392
461.086;  127.772; -370.200; -251.640
461.372;   83.892; -509.198; -279.642
461.659;  254.923; -165.196;  108.354
461.946;   92.764; -445.193;  -54.651
462.233;  460.368;  842.800;  888.361
462.519;  596.263; -814.201; -464.639
462.806; 1626.617; -768.197; -497.645
463.093; 1403.797; -445.191;  -66.656
463.380;  -41.936; -920.186; -824.664
463.666;  112.720; -259.197;  -18.646
463.953;  179.939; -406.195; -243.648
464.239;  350.239; -173.195;  -77.648
464.526;  718.656;  413.806;  743.350
464.813;  613.316; -565.190; -304.658
465.099;  661.466;  606.807;  607.348
465.386;  626.372;  903.807;  921.348
465.672;   45.717; -694.197; -522.645
465.959;   49.145; -598.188; -520.662
466.245;   57.172; -468.193; -359.652
466.532;  202.536; -109.195;   63.352
466.818;  177.863; -357.186; -216.664
467.104;    4.728; -488.182; -415.672
467.391;  -23.681; -628.189; -459.658
467.677;   98.369; -289.186;    9.335
467.964;   33.530; -682.189; -471.660
468.250;  121.274; -331.186; -160.665
468.536;  178.621;   90.811;  180.341
468.822;  -91.207; -821.184; -574.668
469.109;  287.458;  351.827;  471.311
469.395;  404.388;  729.808;  787.346
469.681;  366.926;   46.811;  156.341
469.967; 2069.833; -699.188; -382.660
470.254; 4318.946; -494.188; -306.662
470.540; 2898.520; -601.196; -476.646
470.826;  416.746; -488.181; -397.675
471.112;  563.498;  288.816;  113.331
471.398;  197.206; -253.183;  -58.670
471.684;   69.192; -626.177; -447.680
471.970;  -62.448; -918.180; -981.675
472.256;   66.486; -521.192; -441.654
472.542;   19.976; -499.171; -434.691
472.828;   -6.778; -743.182; -607.672
473.114;   63.546; -380.166; -283.700
473.400;   19.518; -504.175; -293.684
473.686;   56.156; -452.166; -400.701
473.972;  110.242; -230.174; -131.687
474.258;  -95.341; -925.173; -843.689
474.544;  325.179; -183.178;   -2.679
474.830;  516.221;  -65.175;   45.316
475.116;  834.919; -123.190; -196.658
475.401; 1035.256; -558.180; -467.676
475.687;  318.254; -725.180; -718.676
475.973;   13.235; -673.181; -770.673
476.259;  471.725;  736.825;  764.315
476.544;  605.405; -539.176; -437.682
476.830; 1343.670; -398.172; -322.690
477.116; 1109.903; -430.177; -336.682
477.401;  308.155;  346.820;  358.324
477.687;   -4.181; -289.175; -405.684
477.973;  108.440;   21.819;   28.326
478.258;    5.689; -448.163; -348.706
478.544;  133.182;   21.815;   61.334
478.829;  -83.115; -818.171; -738.692
479.115;  -72.331; -749.172; -651.690
479.401;    1.035; -444.174; -449.686
479.686;  116.053; -253.180;  -74.676
479.972;  -50.613; -886.178; -776.680
480.257;  102.249; -258.166;  -65.700
480.542;  -13.909; -614.170; -469.693
480.828;  483.116; 1288.824; 1392.317
481.113;  -46.688; -464.176; -426.683
481.399;   17.628; -236.161; -202.711
481.684;  -63.852; -620.166; -462.700
481.969;   51.249; -158.159;  -73.713
482.255;    5.809; -439.169; -285.695
482.540;    2.887; -569.178; -441.680
482.825;   18.256; -395.187; -404.663
483.110;  194.114;  -85.169; -105.696
483.396;  318.384; -840.157; -652.718
483.681;  850.742;  543.826;  730.313
483.966;  264.540; -696.160; -700.712
484.251;   59.541; -404.174; -310.687
484.536;    9.965; -356.165; -378.703
484.822;   42.445; -205.173; -218.687
485.107;  -25.254; -599.152; -502.726
485.392;  287.574;  662.836;  541.296
485.677;  159.530;  354.832;  163.302
485.962;  241.880;  160.843;  270.283
486.247;  186.902;  -14.162;   -8.707
486.532;   76.550; -178.166; -325.701
486.817;  305.819;  381.839;  431.291
487.102;  238.118; -453.154; -514.722
487.387; 1129.187; -637.156; -652.718
487.672; 1888.283; -154.164;  -38.705
487.957; 1224.830; -394.160; -286.711
488.241;  345.173; -290.150; -314.729
488.526; 1260.548; -280.152; -148.726
488.811; 1894.190; -881.177; -818.680
489.096; 1471.623; -666.154; -702.723
489.381;  867.742;    3.847;  162.275
489.666;  609.527; -428.161; -510.710
489.950;  378.128;  558.846;  627.277
490.235;  -50.835; -480.151; -458.728
490.520;  -57.074; -756.161; -723.710
490.804;  -83.510; -827.156; -736.719
491.089;    4.398; -469.149; -299.732
491.374;  111.980; -132.164;  -75.704
491.658;  -12.884; -817.147; -717.735
491.943;  293.255; -657.152; -609.727
492.227;  413.012; -178.155;  -38.721
492.512;  115.079; -294.157; -341.717
492.797; -105.112; -713.149; -716.731
493.081;  -94.479; -588.147; -598.735
493.366;  -53.772; -751.161; -635.711
493.650;  461.107;  831.859;  917.254
493.935;   37.416; -648.147; -447.734
494.219;  -58.014; -778.142; -687.743
494.503;  -72.420; -585.150; -487.730
494.788;   90.466;   46.842;   74.285
495.072;  218.475;  184.850;  434.271
495.356;  318.203; -463.148; -343.733
495.641;  768.332; -812.146; -736.736
495.925;  692.298; -976.156; -903.719
496.209;  101.197; -599.149; -451.732
496.494;  -67.213; -763.142; -544.744
496.778;   49.618; -364.154; -360.722
497.062; -103.602; -819.156; -627.719
497.346;  -71.667; -869.160; -640.711
497.631;  308.409;  580.852;  560.266
497.915;  167.448;  -64.145;  175.261
498.199;  121.084; -341.157; -277.718
498.483;   62.745; -562.152; -508.725
498.767;  395.977;  301.850;  300.271
499.051;  319.293; -126.149; -100.732
499.335;   47.690; -693.149; -739.731
499.619;  -30.430; -381.129; -423.767
499.903;  105.709; -272.155;  -65.721
500.187;   87.530; -588.153; -316.724
500.471;   13.554; -796.152; -595.727
500.755;  224.926;   62.839;  -96.710
501.039;   69.610; -270.155; -357.721
501.323;  192.609;  -21.141;  264.254
501.607;   86.290; -447.163; -503.706
501.891;  -18.713; -607.156; -512.718
502.174;  -44.533; -726.144; -585.741
502.458;  162.860;   89.849;  370.273
502.742;  107.048; -180.138; -191.751
503.026;  191.015; -412.147; -254.734
503.310;  315.448; -437.159; -375.713
503.593;  219.918; -464.147; -325.735
503.877;  206.613; -232.133; -156.760
504.161;  311.534;    2.847;  -50.724
504.444;  210.670; -841.158; -710.716
504.728;  778.879; -487.164; -522.704
505.012; 1174.672; -257.150;  -76.729
505.295;  964.428; -417.161; -212.711
505.579;  902.097; -256.156; -496.719
505.862; 1276.643; -555.145; -333.738
506.146; 1200.852; -681.159; -758.714
506.429;  759.452;  568.841;  461.286
506.713;  123.767; -732.151; -667.728
506.996;  571.317;   90.846;  295.278
507.280;  568.771; -633.165; -474.703
507.563;  424.907; -469.155; -261.721
507.847;  168.831; -423.153; -112.724
508.130;  140.829; -665.161; -456.711
508.413;  216.342; -758.167; -577.700
508.697;  403.842; -151.167;   12.300
508.980;  284.333; -422.153; -312.724
509.263;   18.801; -466.155; -450.720
509.547;   78.171; -124.150;   82.271
509.830;  106.332; -172.160;  140.289
510.113;  192.197;  128.844;  298.281
510.396;   76.043; -530.152; -300.725
510.680;  279.645; -818.145; -812.738
510.963; 1135.925;  184.846;  180.277
511.246;  900.184; -493.150; -357.730
511.529;  481.753; -482.145;  -83.739
511.812;  648.407; -250.134;   10.241
512.095;  477.562; -740.151; -396.728
512.378;  161.324; -317.147; -245.736
512.661;   11.260; -703.137; -623.753
512.944;   40.389; -750.142; -637.744
513.227;  123.056; -170.137; -171.752
513.510;   27.366; -479.144; -671.741
513.793;   42.816; -485.140; -435.747
514.076;  257.703;  -43.127;  -39.771
514.359;  195.298; -294.149; -135.732
514.642;  145.394; -442.142; -567.744
514.925; 1379.414;  581.860;  561.253
515.208; 1623.101; -498.134; -443.758
515.491; 1097.424; -276.133; -182.761
515.773;  679.872; -410.143; -337.742
516.056; 3591.370;  249.864;  409.246
516.339; 4522.077; -754.136; -652.755
516.622; 3350.980; -518.150; -488.730
516.904; 2213.884;  882.857;  975.257
517.187; 1024.554; -730.138; -523.752
517.470;  756.682; -568.143; -510.743
517.752;  708.381; -624.136; -470.756
518.035;  574.833; -708.139; -725.749
518.318;  665.677; -799.136; -744.755
518.600; 4111.729; -300.132; -325.762
518.883; 5243.293;  310.858;   88.256
519.165; 2765.542; -585.138; -426.751
519.448;  671.129;  -61.132;  -19.762
519.730;  320.815; -573.126; -415.773
520.013;  588.717;  588.867;  664.240
520.295; 1572.010;  -94.134;  -15.759
520.578; 3202.150; -335.131; -305.764
520.860; 3616.329; -254.132;   56.238
521.143; 1885.385; -763.135; -584.756
521.425;  851.836; -251.125; -279.775
521.707; 1224.504; -622.127; -380.771
521.990; 2973.504; -199.127;  167.229
522.272; 3313.919; -116.140;   -4.748
522.554; 1611.474; -237.143; -157.742
522.836;  665.306;  -24.134;   99.241
523.119;  385.513; -496.148; -189.734
523.401;  277.461; -448.130; -314.766
523.683;  148.661; -865.137; -693.753
523.965;  528.450;  408.862;  260.248
524.247;  495.570;   54.878;  170.220
524.529;  350.210; -451.134; -367.759
524.812;  640.064;   -3.130;  191.234
525.094; 1450.949; -773.138; -631.751
525.376; 2190.551; -143.124;   78.223
525.658; 1434.472; -441.136; -339.754
525.940;   68.444; -805.131; -671.764
526.222;   64.778; -188.136;  -88.755
526.504;  229.641; -190.131;   32.237
526.786;  343.914; -960.133; -647.760
527.068;  544.059; -124.123;  -67.778
527.349;  204.467; -865.137; -774.754
527.631;  248.529; -137.132;   22.238
527.913;  232.102; -664.127; -450.771
528.195;  241.825; -761.125; -639.774
528.477;  444.202;  -93.134;  -30.758
528.759;  258.164; -648.130; -522.766
529.040;  119.957; -569.123; -293.778
529.322;   96.129; -235.125;  -10.774
529.604;  293.367;  -47.130;   93.233
529.886;  229.415; -546.126; -302.773
530.167;  247.954;  232.870;  192.235
530.449;  123.523;    1.853;   63.265
530.731;   33.769; -572.122; -459.779
531.012;  134.402; -513.120; -216.784
531.294;  156.365; -118.116;  -43.792
531.575;  357.836;  290.875;  538.225
531.857;   79.993; -548.135; -266.757
532.138;  267.207; -113.141;   40.254
532.420;  360.887;  294.865;  403.244
532.701;  379.818; -722.133; -751.760
532.983;  601.222;  232.867;  182.239
533.264;  238.112; -243.126;  175.228
533.546;  -33.022; -491.136; -508.755
533.827;  135.912;  173.867;   -1.759
534.109;   84.593; -352.135;  -80.757
534.390;  187.135; -725.132; -582.762
534.671;  437.387; -270.135;  -82.756
534.953;  207.162; -751.123; -611.779
535.234;   63.841; -426.117; -255.789
535.515; -128.484; -891.119; -735.785
535.796;  -17.004; -431.128; -193.770
536.078; -192.250;-1050.124; -904.777
536.359;   72.363;  -22.123;    3.221
536.640;   -1.173; -480.125; -197.774
536.921;  305.276;  225.871;  143.232
537.202;  694.144;  -87.138;  -16.751
537.483;  737.349;  251.869;  377.236
537.764;  333.054;   17.870;   98.235
538.045;  -50.700; -543.134; -371.758
538.326;  -46.021; -596.129; -447.768
538.607;   72.205; -686.127; -476.771
538.888;  324.288;   98.879;    5.218
539.169;  319.579; -704.122; -535.781
539.450;  576.074;  236.871;   16.233
539.731;  372.894; -361.121; -182.783
540.012;  254.602;  199.880;  412.216
540.293;  193.641;   82.876;  158.224
540.574;  -10.102; -895.113; -717.796
540.855;  866.792;  435.879;  377.218
541.136;  896.875;   47.878;  139.220
541.416;  500.265; -161.130; -220.766
541.697;  342.042; -274.131; -170.763
541.978; 1792.591; -270.135; -315.757
542.259; 2136.805; -211.127; -236.771
542.539; 1079.255; -191.116; -186.790
542.820;  370.235;  461.875;  480.225
543.101;  205.147;  -52.145;  -77.738
543.381;   39.404; -638.127; -591.771
543.662;  517.800;  159.873; -254.771
543.942;  941.798; -751.127; -830.770
544.223; 1791.177;  193.878;  161.219
544.504; 1119.050; -275.124; -182.777
544.784; 1070.114; -592.126; -408.773
545.065; 2738.361;  104.884; -254.791
545.345; 3262.016;  227.881;   14.215
545.626; 2206.697;  -14.113; -108.796
545.906; 1472.153;   77.869;   98.235
546.186;  636.622;   92.874;  -95.773
546.467;  351.754;   99.877;  -95.778
546.747;  577.055;  264.884;  327.210
547.027;  654.647;   91.876;  111.223
547.308;  545.196; -376.127; -530.770
547.588;  752.580;  299.871;  371.232
547.868;  371.555;  458.870;  588.235
548.149;  438.673;  609.885;  593.207
548.429;  239.702; -347.127; -299.771
548.709;  359.102; -645.120; -461.784
548.989;  828.231;   84.882;   88.213
549.269; 3761.526;   10.868;  139.239
549.550; 7831.360;  215.877;  117.222
549.830; 7067.226; -758.111; -556.799
550.110; 1505.238; -468.110; -320.801
550.390; 1514.369; -128.122;  -56.779
550.670; 1804.990; -868.114; -783.795
550.950; 1304.391; -509.121; -471.782
551.230;  384.785;  549.879;  460.218
551.510;    5.389; -381.121; -326.782
551.790;   90.851; -173.109; -127.803
552.070;  540.654;  940.877; 1181.223
552.350;  695.822; -492.119; -377.786
552.630;  958.081;   -2.121;   77.219
552.909;  619.062;  181.884;   73.209
553.189;  458.937;  -49.132;   33.237
553.469;  330.622; -703.119; -514.786
553.749;  347.907; -469.127; -357.772
554.029;  337.548;   33.883;  -24.790
554.308;  276.880; -154.115;  -37.794
554.588;  100.894; -196.128; -204.770
554.868;  141.492; -366.121;  -47.782
555.147;  302.575; -114.115;  -46.793
555.427; 1193.066; -260.116; -250.792
555.707; 6676.472; -284.115; -200.793
555.986; 7395.331; -719.111; -538.800
556.266; 4237.153;   23.884;   72.210
556.546;  214.289; -888.121; -675.782
556.825;  486.987; -657.114; -556.794
557.105; 3134.691; -125.128;   17.230
557.384; 3411.160;  122.884;  187.209
557.664; 1380.665; -717.116; -508.792
557.943;  209.191; -557.121; -411.782
558.222;  287.436; -345.118; -344.788
558.502;  528.378; -116.115;  -76.793
558.781;  840.970;  194.885;  499.208
559.061;  672.436; -232.118; -227.788
559.340;  606.244;  302.883;  353.211
559.619; 1255.053;   93.884;  148.210
559.899; 1679.947; -239.117; -266.789
560.178; 1606.777; -778.115; -593.793
560.457; 5583.949; -623.117; -562.790
560.736; 6922.834; -472.111; -482.800
561.015; 4858.587; -500.128; -502.769
561.295;  706.183;  180.893;  215.193
561.574;  627.173;  119.885;  116.207
561.853;  860.958;  274.891;  303.197
562.132;  887.681;  -45.114;  182.206
562.411;  785.982;  396.879;  553.219
562.690;  240.070; -592.115; -458.792
562.969;  330.109;  472.888;  630.203
563.248; 1081.778; 2966.878; 2487.219
563.527;  455.432; -290.111; -408.800
563.806;  684.902; -650.127; -521.771
564.085;  720.907; -297.105; -206.810
564.364;  413.852; -594.117; -405.790
564.643;  929.983; -276.121; -223.781
564.922; 3227.348;  221.890;  397.198
565.201; 2948.254; -640.109; -700.803
565.479; 1429.068; -297.115; -219.792
565.758;  572.491; -810.128; -712.770
566.037;  758.756; -155.109; -100.803
566.316;  406.661; -286.116;  -28.791
566.595;  111.872;  -17.115;  -12.793
566.873;  207.636; -166.111;  -79.801
567.152;  -62.192; -490.113; -590.797
567.431;   16.654; -113.116;    6.210
567.709;   44.883; -344.107; -212.807
567.988;  468.286; -810.114; -769.794
568.266;  889.372; -160.115;  -68.793
568.545;  641.083; -644.100; -514.819
568.824; 1040.767;  160.885;  356.208
569.102;  898.186; -351.114; -235.794
569.381;  369.766; -492.116; -407.792
569.659;  -59.698; -553.113; -553.796
569.938;   55.075; -743.122; -465.780
570.216;  190.160; -225.109; -225.804
570.494;  -61.709; -632.114; -572.795
570.773;  107.089;  202.879;  114.218
571.051;   11.958; -373.123; -357.778
571.330;  121.098; -221.113; -174.796
571.608;  121.612; -181.098; -173.823
571.886; -117.377; -671.111; -581.799
572.164; -128.608; -739.121; -621.782
572.443;  -65.287; -562.105; -512.811
572.721;  -33.450; -399.117; -289.790
572.999;    1.439; -280.117; -168.788
573.277;  246.403;  379.894;  620.191
573.555;  540.506;   94.894;   37.190
573.834; 2268.739;  -86.117; -114.788
574.112; 2544.587;  880.893;  811.193
574.390;  877.134; -143.111;  -96.801
574.668;   39.310;  -91.112;  -61.797
574.946;   12.006; -165.106; -187.810
575.224;   38.854;   71.891;  -16.803
575.502;   -2.943; -200.116; -204.791
575.780; -147.289; -767.112; -829.798
576.058;  324.633; 1589.889; 1004.200
576.336;  -22.258; -210.110; -129.801
576.614;  -78.788; -511.112; -340.798
576.891;  117.779; -711.115; -823.794
577.169;  849.073; -158.108; -285.805
577.447; 1011.886;  169.893;  202.193
577.725;  527.419;  629.888;  854.201
578.003;   49.716;  -71.112; -371.798
578.280;  203.128; -208.104; -242.812
578.558;  125.178; -450.115; -422.793
578.836;  227.791; -210.114; -145.795
579.114;   57.809; -630.112; -670.797
579.391;  148.642;   -6.117;  -18.789
579.669; -134.219; -595.114; -704.794
579.947;  343.181; -326.107; -127.806
580.224;  549.281; -692.107; -524.806
580.502;  558.187;  127.893;   76.193
580.779;   65.251;  -42.117;   75.210
581.057; -127.940; -584.109; -470.804
581.334; -181.548; -726.102; -695.815
581.612;  105.708;   54.895;  511.190
581.889;  -33.427;  -83.101; -129.818
582.167;  -82.404; -298.099; -190.821
582.444; -176.436; -845.102; -814.817
582.721;  245.065;  657.899;  715.183
582.999;  106.992; -326.100; -167.821
583.276;  900.365; -812.123; -713.779
583.553; 1115.557; -364.102; -294.816
583.831;  389.922; -607.104; -631.812
584.108;  162.369;  349.892;  174.195
584.385;   39.951; -122.102;  -98.815
584.662;  -82.164; -651.111; -828.801
584.940;  107.135;  204.889;  204.199
585.217;  -14.799;  -73.113; -303.796
585.494;  107.149;   71.890;  118.198
585.771;  416.062; -250.109; -354.804
586.048;  786.301; -196.113;  -76.796
586.325;  523.940; -721.110; -773.801
586.602;  216.428;  230.896;  213.188
586.879;  -10.814; -499.100; -580.820
587.156;  106.309; -156.105; -331.810
587.433;  -68.639; -701.102; -667.817
587.710;  140.713;  152.888;  234.202
587.987;  558.517; -264.105; -236.811
588.264; 1296.115;  315.888;  387.202
588.541; 2489.532;  -61.104;   26.187
588.818; 4422.365;   72.892;  171.196
589.095; 3733.325; -163.104; -174.812
589.371;  683.358; -459.109; -414.804
589.648;   26.787; -581.107; -437.807
589.925;   82.192; -517.114; -621.795
590.202;   49.612; -741.112; -607.798
590.478;  188.920; -166.105;  -73.811
590.755;  502.275; -241.108; -132.806
591.032; 4387.244; -741.110; -699.802
591.308; 5406.476; -732.094; -790.831
591.585; 2941.743; -573.110; -560.802
591.862;  206.463;-1056.102; -950.817
592.138;  120.371; -475.108; -474.805
592.415;  234.930; -486.104; -495.813
592.691; 2576.626;  460.896;  518.188
592.968; 3078.315; -208.098; -123.824
593.244; 1501.455; -695.116; -595.790
593.521;  159.464; -105.102;  -42.817
593.797;   -0.829; -810.122; -720.780
594.074;  573.635; -611.096; -588.826
594.350; 1128.753;  828.905;  729.172
594.626;  562.536; -303.111; -283.801
594.903;  161.265; -643.101; -645.817
595.179;  368.836;  243.896;  418.187
595.455;   49.189; -136.107; -150.807
595.731;   85.538;  -19.103;  -38.814
596.008;  -63.773; -464.111; -434.800
596.284;  102.290; -187.100; -242.820
596.560;  118.586; -501.093; -493.833
596.836;  353.512; -173.105;  -70.810
597.112;  599.872; -582.108; -437.805
597.388;  521.832;  -49.097;  -48.826
597.665;  283.505;  437.887;  530.203
597.941; -104.966; -572.089; -658.839
598.217;   33.349; -323.110; -293.802
598.493;  506.364;   61.891; -204.804
598.769;  876.980; -175.100;  -50.819
599.045;  469.877; -490.108; -562.806
599.321;  134.088; -193.100; -261.820
599.597;  259.063; -355.109; -476.804
599.872;  847.732;  409.896;  429.187
600.148;  608.934;  -61.097; -172.826
600.424;  546.685;   91.893;  202.193
600.700;  451.888; -170.107; -280.807
600.976;  207.725; -442.097; -464.825
601.252;  449.257; -226.109; -272.803
601.527;  326.534; -833.104; -840.813
601.803;  256.221; -453.105; -404.812
602.079;  297.880; -124.100; -118.819
602.354;  987.502; -620.092; -531.835
602.630; 1380.901; -140.113; -482.796
602.906; 4197.773; -910.101; -863.818
603.181;10749.422; -627.119; -534.786
603.457; 9217.530;   98.903; -278.826
603.733; 1425.395; -605.120; -626.783
604.008; 1872.007; -245.106; -164.810
604.284; 4864.067; -636.101; -580.817
604.559; 4344.619;   -3.112;  -42.799
604.835;  849.812; -163.105; -225.810
605.110;  707.497; -732.099; -892.821
605.385; 1178.491;  224.907;  267.167
605.661; 1178.457; -625.095; -729.829
605.936; 1869.277; -664.108; -737.806
606.211; 1650.749;  -17.103; -170.815
606.487;  334.384; -329.114; -376.794
606.762;   24.322; -791.119; -745.786
607.037;  -32.288; -501.105; -433.810
607.313;  -76.154; -589.096; -574.828
607.588;   27.507; -375.106; -137.810
607.863;   89.172;  -28.101; -143.818
608.138;  358.347;  513.890;  516.198
608.413;   40.003; -576.099; -592.822
608.688;   58.471; -203.108; -267.805
608.964;  376.997; -509.106; -218.809
609.239;  422.008; -107.105; -212.810
609.514;  504.521;  281.895;  240.188
609.789; 1163.428; -187.104; -716.812
610.064; 1344.244; -435.096; -609.827
610.339; 1486.658; -855.109; -799.804
610.614; 1919.689; -131.100; -315.820
610.889; 1128.721;  215.895;  107.188
611.163;   94.722; -407.104; -591.812
611.438;  145.186;   81.886; -167.794
611.713;    9.667; -467.101; -499.817
611.988;  108.270; -144.101; -328.818
612.263;  -65.648; -771.102; -717.815
612.538;  428.200;  385.887;  251.204
612.812;  284.591; -832.100; -911.820
613.087;  229.611; -358.098; -338.823
613.362;  -53.111; -497.107; -557.807
613.637;  125.342;  261.897;  138.186
613.911;  -12.697; -256.092; -345.835
614.186;  250.786; -249.107; -292.807
614.460; 1116.655; -842.081; -758.854
614.735; 1254.571;  -55.087;  -17.843
615.010;  268.755;   43.912;  -82.841
615.284;  470.970;  360.892;  246.195
615.559;  591.701; -792.092; -955.835
615.833;  538.400;  -76.099;  -87.822
616.108;   36.620; -225.090; -390.837
616.382;  315.774;  274.913;  402.156
616.656;  285.321; -241.090; -232.837
616.931;  800.001; -785.099; -700.822
617.205; 1747.334; -973.104; -979.813
617.480; 1607.732;  -91.125;    6.225
617.754;  315.128; -396.125; -128.774
618.028;   54.481; -369.129; -382.768
618.302;  173.468;   73.892;  -25.805
618.577;  -63.755; -371.103; -518.815
618.851;  -79.447; -399.109; -600.803
619.125;  -53.290; -335.134; -378.759
619.399;  -12.265; -244.104; -374.813
619.673;  -42.833; -330.115; -515.792
619.947;  -36.609; -333.114; -448.795
620.222;  -13.062; -198.110; -204.801
620.496;   29.692;  -47.121;  -96.782
620.770;  102.079; -187.122;  -93.781
621.044;  428.209;  323.895;  346.190
621.318; 1249.196; -653.120; -614.783
621.592; 1135.693; -430.121; -409.783
621.866;  590.220; -476.112; -572.799
622.140;   71.157; -207.116; -356.791
622.413;  164.427;  138.889;  112.200
622.687;  -50.833; -746.101; -492.817
622.961;   53.368; -130.108; -143.805
623.235;  -99.972; -633.111; -661.800
623.509; -177.980; -816.105; -848.811
623.783;   62.182;  -12.107;   48.193
624.056;    0.598; -254.120; -280.783
624.330;  126.110;   63.888;   -3.797
624.604;   78.152; -271.116; -355.790
624.877;  175.445;  180.890;   26.198
625.151;  100.382; -249.114; -238.794
625.425;  -19.362; -150.103; -283.814
625.698;  -87.187; -367.119; -374.785
625.972; -166.551; -799.110; -765.802
626.245;  175.455;  685.884;  484.210
626.519;  -60.495; -426.120; -340.784
626.792;  -22.912; -192.107; -380.807
627.066; -145.933; -485.122; -662.779
627.339; -178.058; -736.110; -663.802
627.613;   90.702;  351.880;  148.216
627.886;  141.552;  187.891; -612.803
628.160;  -19.404;  312.880; -161.783
628.433; -152.963; -695.125; -703.775
628.706; -111.495; -517.120; -615.784
628.979;   91.947;  296.876;  117.223
629.253; -164.879; -785.119; -833.786
629.526;  646.112; -334.126; -253.772
629.799;  513.059; -641.123; -479.778
630.072;  295.683; -497.128; -516.769
630.346; -124.645;-1115.116;-1080.790
630.619;  794.790; -467.107; -545.808
630.892; 1075.129;  709.889;  593.200
631.165;  597.235;  790.896;  679.187
631.438; -171.484;-1092.112;-1055.798
631.711;  127.364;  453.877;  257.221
631.984;  -98.853; -523.117; -624.789
632.257;  -97.458; -636.117; -681.789
632.530;  -58.786; -412.119; -433.785
632.803;   94.179; -109.115;    7.207
633.076; -120.646; -360.123; -422.777
633.349;   76.090;  173.872;  121.231
633.622;  -21.888; -187.119; -240.785
633.895; -231.402; -903.120; -823.783
634.167;  -93.185; -496.126; -525.773
634.440;   36.565;  -19.116; -137.792
634.713;   16.419;  -22.119; -120.786
634.986;  200.574;  593.871;  453.233
635.258; -133.824; -507.115; -597.793
635.531;  224.835;  742.882; -343.788
635.804;  -55.755; -303.117; -318.789
636.077; -134.741; -830.116; -852.791
636.349;   -4.927; -586.115; -474.793
636.622;  762.711; 1695.874; 1392.228
636.894;  395.705; -474.120; -909.784
637.167;  226.301; -836.127; -789.771
637.439;   30.195; -278.128; -213.770
637.712;  -57.586; -312.126; -293.772
637.984;  -99.940; -635.116; -707.791
638.257;  726.754;  515.877;  488.222
638.529;  855.439; -881.125; -924.776
638.802;  392.983; -508.128; -449.769
639.074; -215.023; -927.122; -952.781
639.346; -226.704; -942.135; -930.757
639.619;   31.391;  -79.142; -319.744
639.891;   23.467;  -83.122; -168.779
640.163; -130.830; -689.122; -756.780
640.435;  102.073;  273.878;  103.220
640.708;   45.076;  -72.122; -132.780
640.980;  -41.321; -366.122; -362.781
641.252;  421.482;  -25.121;  -71.781
641.524; 3114.685;  580.879;  573.219
641.796; 2896.388;-1094.121; -907.782
642.068;  578.591; -191.121; -300.782
642.340;  -79.506; -486.121; -566.783
642.613;  166.297;  294.880;  323.217
642.885; -167.801; -787.120; -878.783
643.157;  -49.098; -810.120; -658.784
643.428;  164.005;  170.880;  218.216
643.700; -106.692; -498.120; -425.784
643.972;  -32.489;  -16.119; -133.785
644.244; -126.986; -474.119; -559.785
644.516;  -32.683; -250.119; -114.786
644.788;  189.620;  662.881;  548.214
645.060;    3.923;  -12.119; -124.786
645.332; -171.674; -525.118; -535.787
645.603;  137.129;  479.882;  342.213
645.875;  -94.968; -334.118; -369.787
646.147;  351.235; 1487.882; 1242.212
646.418; -108.262; -931.117; -918.788
646.690;  222.541; -714.117; -715.789
646.962;   78.444; -413.117; -451.789
647.233;   27.547;   15.883;   11.211
647.505; -159.050; -595.117; -475.790
647.776;  112.652;  328.884;  229.210
648.048;   13.655; -248.116; -418.790
648.320; -147.442; -752.116; -679.791
648.591; -265.939;-1055.116; -958.791
648.862; -125.036; -505.116; -577.792
649.134;   87.767;  115.885;  198.208
649.405;  -57.330; -661.115; -618.792
649.677;  -95.527; -475.115; -598.793
649.948;  -16.624; -181.115; -296.793
650.219;   24.579;  -37.115; -147.793
650.491; -135.018; -431.114; -520.794
650.762; -210.315; -705.114; -731.794
651.033; -111.912; -437.114; -424.795
651.304; -155.809; -743.114; -728.795
651.576;  -76.506; -680.114; -645.795
651.847;  -38.703; -250.113; -140.796
652.118;    6.500;  -32.113; -189.796
652.389; -171.198; -639.113; -722.796
652.660;   -2.295; -147.113;  -89.797
652.931; -254.992; -897.112; -871.797
653.202;  -96.989; -382.112; -541.798
653.473;  -90.986; -633.112; -533.798
653.744;  231.817; -595.112; -590.798
654.015;  229.720; -356.112; -303.799
654.286;  -96.777; -642.111; -663.799
654.557; -109.574; -586.111; -521.799
654.828; -281.071;-1114.111;-1088.800
655.099; -150.568; -404.111; -291.800
655.370; -145.965; -427.111; -543.801
655.641; -216.862; -656.110; -714.801
655.911; -144.359; -618.110; -638.801
656.182;  143.344;  437.890;  387.198
656.453;  238.347;  830.890;  746.198
656.724; -103.850; -466.110; -426.802
656.994; -145.448; -553.109; -568.803
657.265; -184.545; -862.109; -873.803
657.536; -133.142; -500.109; -377.804
657.806; -154.539; -561.109; -593.804
658.077; -224.836; -866.109; -950.804
658.347; -130.033; -523.108; -598.805
658.618; -174.730; -646.108; -694.805
658.888;  -44.427;  -41.108;  112.195
659.159; -129.524; -432.108; -548.806
659.429;    4.979; -292.108; -349.806
659.700;   41.682; -435.107; -390.807
659.970;  -30.215; -370.107; -359.807
660.241;   31.288; -754.107; -921.807
660.511;  823.891; -147.107; -174.808
660.781;  128.694; -793.106; -748.808
661.052;  -65.703; -222.106; -381.808
661.322;    3.900;   21.894;   -9.809
661.592;   84.702;  257.894;  148.191
661.862; -114.695; -369.106; -382.810
662.133; -151.792; -551.105; -502.810
662.403; -206.089; -770.105; -676.810
662.673;  -71.786; -256.105; -213.811
662.943; -174.683; -612.105; -551.811
663.213;  -13.180;  -85.105;  -81.811
663.483; -138.577; -593.104; -568.812
663.753;  -53.974; -194.104; -152.812
664.023;   35.429;   68.896;  -32.813
664.293;  -59.368; -319.104; -126.813
664.563; -182.865; -694.104; -648.813
664.833; -206.662; -743.103; -608.814
665.103; -238.759; -730.103; -793.814
665.373; -187.556; -766.103; -806.814
665.643; -172.353; -863.103; -918.815
665.913;   51.250; -534.103; -714.815
666.182;  271.053; -685.102; -719.816
666.452;  425.955;  -22.102;  -89.816
666.722;  -53.142; -724.102; -784.816
666.992; -220.839; -948.102; -921.817
667.261; -161.836; -824.102; -808.817
667.531;  388.767;  134.899;   45.183
667.801;  901.170; -440.101; -412.818
668.070;  466.073;  714.899;  697.182
668.340; -170.224; -883.101; -840.819
668.609;  233.479;  588.900;  301.181
668.879; -112.718; -490.100; -558.819
669.149; -108.315; -539.100; -516.820
669.418; -150.612; -698.100; -726.820
669.688;  -28.909; -482.100; -666.820
669.957;  121.394; -423.099; -546.821
670.226;  -28.603; -268.099; -331.821
670.496; -141.700; -431.099; -635.822
670.765; -110.697; -418.099; -501.822
671.034; -222.595; -872.099; -828.822
671.304;   22.708;   55.902; -111.823
671.573; -260.289;-1085.098; -957.823
671.842;  154.614; -380.098; -294.823
672.112;   30.617; -692.098; -586.824
672.381;   27.520; -239.098; -214.824
672.650; -230.377;-1005.097;-1021.825
672.919; -155.074; -631.097; -507.825
673.188; -150.971; -681.097; -878.825
673.457; -253.868;-1101.097;-1143.826
673.726; -118.565; -579.096; -646.826
673.995;  -37.462; -533.096; -479.826
674.265;  -12.759; -263.096; -333.827
674.534;   44.144; -183.096; -235.827
674.802;   24.847; -618.096; -703.828
675.071; 1762.550; -886.095; -801.828
675.340; 6127.553; -464.095; -339.828
675.609; 2181.855;  103.905;   82.171
675.878;  139.558; -949.095; -893.829
676.147;  112.261;  -26.095;   -8.829
676.416;  219.864; -210.094; -294.830
676.685; 1319.767; 1000.906; -622.830
676.953;  186.270; -603.094; -452.831
677.222;   10.473; -193.094; -273.831
677.491;  -21.124;  -24.094; -127.831
677.759;   29.879;   11.907;  172.168
678.028;    5.382; -279.093; -222.832
678.297;   21.685;   71.907;  197.168
678.565; -254.912; -898.093; -944.833
678.834;  -70.409; -311.093; -268.833
679.102;  -87.406; -411.092; -391.834
679.371; -229.603; -898.092; -727.834
679.639; -214.800; -797.092; -786.834
679.908; -202.597; -794.092; -724.835
680.176; -264.395; -895.091; -941.835
680.445;  -84.592; -346.091; -352.835
680.713;   27.611;  -58.091;  -23.836
680.982; -148.586; -523.091; -525.836
681.250; -184.483; -578.091; -507.837
681.518; -150.280; -534.090; -751.837
681.787;  -18.877; -204.090; -167.837
682.055;  -84.974; -490.090; -422.838
682.323; -266.871; -993.090; -992.838
682.591;  121.932; -216.090; -538.838
682.859;  153.735;    9.911;  -35.839
683.128;   85.938;  232.911;  497.161
683.396; -304.359;-1102.089;-1122.840
683.664;  -17.656; -241.089;   21.160
683.932;   48.247;  144.911;  -76.840
684.200; -111.250; -576.088; -320.841
684.468;    2.353;  -73.088; -124.841
684.736;   15.556; -214.088; -175.841
685.004; -191.542;-1024.088; -982.842
685.272;  -89.139; -880.088; -774.842
685.540;  -95.636; -499.087; -557.843
685.808; -148.833; -651.087; -682.843
686.076; -183.830; -894.087; -969.843
686.343;  -78.827; -601.087; -815.844
686.611;   77.776; -195.087; -224.844
686.879;  906.979; -530.086; -553.844
687.147; 5289.282; -483.086; -480.845
687.414; 1529.085;  -12.086; -169.845
687.682;   -5.712; -658.086; -757.846
687.950;  543.291;  259.915;  263.154
688.217;   -0.606; -792.085; -760.846
688.485;   24.997; -632.085; -636.847
688.753;  908.700;  -11.085; -102.847
689.020;  219.203; -820.085; -851.847
689.288; -148.494; -853.084; -787.848
689.555;   -1.192; -195.084; -148.848
689.823;  -49.089; -241.084; -345.849
690.090; -135.086; -546.084; -651.849
690.358; -269.983; -877.084; -897.849
690.625;   54.320;  120.917;   45.150
690.892; -119.677; -403.083; -369.850
691.160;   22.326;   72.917;  -35.850
691.427;   78.629;  141.917;  130.149
691.694; -192.068; -855.083; -929.851
691.962; -265.865;-1177.082;-1060.852
692.229;   65.038;  127.918;   56.148
692.496;  190.041;  130.918;  -49.852
692.763;   56.644; -164.082; -201.853
693.031; -110.653; -739.082; -716.853
693.298;  -50.650; -509.081; -368.853
693.565;  603.153; -155.081; -163.854
693.832; 1997.456;   -5.081;   -9.854
694.099;  236.558; -643.081; -642.855
694.366;  -88.839; -882.081; -896.855
694.633;  -75.736; -920.080; -633.855
694.900; 1562.067; 4367.920; -114.856
695.167;  708.970; -214.080; -380.856
695.434;  148.373; -646.080; -623.856
695.701;  393.376;  121.921;  -61.857
695.968;  823.079; -365.079; -361.857
696.234; 1906.082; -415.079; -646.858
696.501;17749.285; -776.079; -614.858
696.768; 8461.488; -554.079; -617.858
697.035;  577.191; -632.078; -667.859
697.302;   91.994; -448.078; -552.859
697.568;   53.897; -458.078; -497.859
697.835;  -43.700; -683.078; -624.860
698.102;   -9.697; -498.078; -407.860
698.368;  179.806;  384.923;  396.139
698.635;  -33.592;  -47.077; -424.861
698.901;    5.811; -240.077; -348.861
699.168;  168.414; -534.077; -456.862
699.435;  167.617;  -72.077;  -13.862
699.701; -225.380; -868.076; -764.862
699.968;  -31.877;  144.924; -441.863
700.234; -121.474; -783.076; -822.863
700.500;  -74.271; -448.076; -539.864
700.767;   31.832;   -1.075;   26.136
701.033; -210.865;-1015.075; -963.864
701.299;  -67.762; -450.075; -483.865
701.566;  275.041;  950.925;  763.135
701.832;  123.844;  -31.075;  -76.865
702.098; -177.753;-1054.074;-1034.866
702.365; -151.150;-1098.074;-1030.866
702.631;  -23.447;-1038.074;-1063.867
702.897; 2382.056; -765.074; -676.867
703.163; 3631.459;  348.926;  254.133
703.429;  274.961; -256.073; -273.868
703.695;  -68.736; -796.073; -792.868
703.961;   57.667; -214.073; -210.868
704.227;  -42.530; -630.073; -725.869
704.493;  285.073;  613.927;  510.131
704.759;    5.276; -565.072; -540.870
705.025;  116.179; -203.072; -194.870
705.291;   -3.418; -666.072; -562.870
705.557;  425.185;  719.928;   34.129
705.823;   75.488; -742.072; -694.871
706.089;  271.491; -307.071; -326.871
706.355;  752.294; -315.071; -244.872
706.620;10274.297; -776.071; -729.872
706.886;12919.400; -309.071; -362.873
707.152; 1221.703; -818.070; -973.873
707.418;  -61.594;-1153.070;-1186.873
707.683;   14.509; -550.070; -530.874
707.949;  -46.589; -547.070; -578.874
708.215;   44.014; -129.070; -207.874
708.480;   20.117; -520.069; -420.875
708.746;  211.620;   68.931;   28.125
709.011;  -76.777; -578.069; -612.876
709.277; -103.174; -538.069; -543.876
709.542;  -34.971; -428.069; -387.876
709.808;   26.232;  -59.068;   89.123
710.073; -134.065; -577.068; -695.877
710.339;   -2.162; -242.068; -228.877
710.604;  132.641; -780.068; -845.878
710.869;  545.744; -277.068; -366.878
711.135; -109.053; -715.067; -628.879
711.400;  -91.650; -507.067; -608.879
711.665;  -60.847; -404.067; -479.879
711.931; -119.844; -661.067; -677.880
712.196; -203.041; -876.067; -954.880
712.461;  189.461; -402.066; -490.880
712.726;  234.364; -727.066; -771.881
712.991; -142.333; -647.066; -664.881
713.256;  -51.430; -350.066; -332.882
713.521;  -63.227; -417.065; -381.882
713.787;  -95.824; -454.065; -472.882
714.052;  -25.721; -214.065; -400.883
714.317; -150.318;-1045.065; -981.883
714.581; 1951.685; -374.065; -268.883
714.846; 2322.688; -822.064; -888.884
715.111;  293.191;  261.936;  257.116
715.376;  -30.506;  -86.064; -223.885
715.641;   19.897; -365.064; -367.885
715.906;  486.600;   15.936; -551.885
716.171;  312.103;  221.937;  209.114
716.436;  120.906;  -78.063; -104.886
716.700; -169.891; -818.063; -692.886
716.965; -207.188; -794.063; -807.887
717.230;  -80.586; -339.063; -392.887
717.494;  -26.883;  -40.062; -134.888
717.759; -121.080; -784.062; -640.888
718.024;   67.523;  269.938;  250.112
718.288;  199.026;  685.938;  395.111
718.553; -231.271; -803.062; -977.889
718.817; -242.768; -883.061; -899.889
719.082;   11.435; -115.061; -125.890
719.346; -230.062;-1000.061; -947.890
719.611;  -26.559; -300.061; -255.891
719.875; -132.356; -568.060; -537.891
720.140;  -87.953; -453.060; -603.891
720.404;   84.050; -136.060; -249.892
720.668; 1385.753; -475.060; -411.892
720.933;  596.856;  146.940;  137.108
721.197; -138.641; -667.059; -600.893
721.461; -208.438; -851.059; -826.893
721.725;   26.964;  -21.059; -250.894
721.990;  -47.433; -284.059; -204.894
722.254;  -42.030;  -26.059; -108.894
722.518;  -73.927; -286.058; -442.895
722.782; -122.524; -743.058; -594.895
723.046;  276.479;  614.942;  570.105
723.310;  105.182;  374.942;  210.104
723.574; -144.115; -654.058; -614.896
723.838; -147.312; -576.057; -642.897
724.102;  -28.709; -226.057; -239.897
724.366; -230.806;-1032.057; -978.897
724.630; -124.703; -749.057; -571.898
724.894; -113.000; -722.057; -514.898
725.158;    5.203;   38.944; -295.898
725.422;  -57.794; -394.056; -327.899
725.685;  -71.391; -441.056; -349.899
725.949; -138.688; -566.056; -519.900
726.213; -117.386; -732.056; -811.900
726.477;  254.317;-1020.055; -933.900
726.740;  287.620; -274.055; -104.901
727.004;  652.723; -384.055; -510.901
727.268; 5632.426; -442.055; -400.901
727.531; 1383.529; -961.055; -775.902
727.795;  -59.568; -713.054; -673.902
728.059;  -75.965; -552.054; -557.903
728.322; -116.262; -841.054; -669.903
728.586;   56.741; -692.054; -701.903
728.849; -119.656; -695.053; -756.904
729.112; -176.453; -812.053; -912.904
729.376; -223.350; -959.053; -905.904
729.639; -104.947; -536.053; -536.905
729.903; -182.244; -733.053; -699.905
730.166;  -25.841; -437.052; -399.906
730.429;  -34.538; -317.052; -468.906
730.693;  -66.436; -355.052; -894.906
730.956;  481.867;  810.948;  651.093
731.219; 1166.570; -310.052; -103.907
731.482;  230.073;-1003.051; -894.907
731.745;  142.176; -794.051; -935.908
732.009;   74.679;  -30.051;   50.092
732.272; -148.618; -904.051; -771.909
732.535;  -35.415; -300.051; -310.909
732.798; -272.212;-1083.050;-1166.909
733.061;  -87.009; -430.050; -456.910
733.324;   76.994;   31.950; -180.910
733.587;  190.397;  290.950;  365.090
733.850;  -94.100; -973.049;-1050.911
734.113;  122.303;   33.951;   32.089
734.376;   34.806; -328.049; -447.912
734.639;  494.409; 1188.951; 1011.088
734.901;  158.312; -180.049; -402.912
735.164;  936.215; -883.048; -837.913
735.427; 2119.217; -166.048; -355.913
735.690;  248.920; -205.048; -234.913
735.952;  -34.977; -923.048; -925.914
736.215;  -26.274;-1113.048;-1009.914
736.478;   70.729; -771.047; -774.915
736.740;  397.832;   33.953;  129.085
737.003; 1344.635; -658.047; -672.915
737.266; 6504.438;  -94.047;   46.084
737.528;  786.641; -682.047; -660.916
737.791;  589.244; -316.046; -327.916
738.053; 1575.647;  465.954;  649.083
738.316;19275.350; -162.046; -136.917
738.578;11952.853; -770.046; -736.918
738.841;  777.356; -382.046; -446.918
739.103;  371.159; -875.045; -777.918
739.365;  884.562;   79.955;  -69.919
739.628;   15.465; -884.045; -805.919
739.890;  -16.333; -758.045; -710.919
740.152;  -41.230; -692.044; -754.920
740.414;   22.273; -408.044; -359.920
740.677;  -40.824; -785.044; -634.921
740.939;  -34.621; -587.044; -487.921
741.201;  489.382; -432.044; -572.921
741.463;   96.985; -689.043; -745.922
741.725;   61.988;  -21.043; -199.922
741.987;  164.491;  220.957;  116.078
742.249;    7.994; -751.043; -859.923
742.511;  408.597; -703.043; -794.923
742.773;   65.300; -546.042; -546.924
743.035;  316.503;  796.958;  533.076
743.297;  -31.194; -963.042;-1013.924
743.559; 1239.809; -278.042; -262.925
743.821;  123.412; -735.042; -744.925
744.083;   87.115;  -44.041; -149.925
744.345; -125.383; -869.041; -892.926
744.607;  153.120;   75.959;  122.074
744.868;  -37.177; -490.041; -554.927
745.130; -159.874; -994.041;-1008.927
745.392;  159.129;   -1.040;  -44.927
745.653;   18.532; -411.040; -378.928
745.915;  383.035;  896.960;  631.072
746.177;  167.438;   35.960;  -43.928
746.438;   38.141; -428.040; -543.929
746.700;  -47.156; -947.039; -988.929
746.961;   75.347; -659.039; -740.930
747.223;  317.650; -190.039;  -74.930
747.484;  218.053; -391.039; -471.930
747.746;  304.556;  -23.038; -106.931
748.007;  217.659; -647.038; -689.931
748.269;  595.662; -468.038; -440.931
748.530;  749.865; -852.038; -638.932
748.791;  493.167; -354.038; -420.932
749.053;  869.070;  286.963;  163.067
749.314;  852.973; -236.037; -169.933
749.575;  859.576; -945.037; -905.933
749.836; 1562.379; -217.037;   86.066
750.098; 4838.682;  -60.037;  -21.934
750.359;59567.585;  414.964;  555.066
750.620;14161.788; -121.036; -220.935
750.881; 1852.791; -585.036; -513.935
751.142; 2511.694; -950.036; -938.936
751.403;29307.597; -789.036; -705.936
751.664;11387.600;-1034.035; -999.936
751.925;  924.403; -175.035; -262.937
752.186;  482.906; -298.035; -278.937
752.447;  312.109; -590.035; -445.937
752.708;  125.812; -532.035; -648.938
752.969;   57.215; -566.034; -576.938
753.230;   25.118; -777.034; -672.939
753.491;   46.520; -650.034; -631.939
753.751;  188.723;  109.966;   19.061
754.012;  240.926;  258.967;  181.060
754.273;  163.029; -174.033;  -71.940
754.534;   70.032; -487.033; -580.940
754.794; -137.465; -926.033; -911.941
755.055;  355.238; 1051.967;  881.059
755.316;  -15.259; -700.032; -566.942
755.576;    3.644; -606.032; -576.942
755.837;  -46.553; -527.032; -695.942
756.097;  -37.650; -530.032; -564.943
756.358;  -83.247; -725.032; -770.943
756.618;  -69.144; -705.031; -641.943
756.879;   76.659; -254.031; -349.944
757.139; -195.638;-1098.031;-1116.944
757.400;  -66.835; -538.031; -553.945
757.660;    4.868; -365.031; -401.945
757.920;   75.670; -266.030; -228.945
758.181;   24.273; -468.030; -351.946
758.441; -129.424; -870.030; -809.946
758.701;    1.879; -308.030; -215.946
758.961;   18.382; -220.030; -278.947
759.222;  -44.915; -574.029; -502.947
759.482;  -90.712; -683.029; -723.948
759.742; -102.609; -706.029; -547.948
760.002;   78.094;  -83.029; -143.948
760.262;   78.697;   50.972;  182.051
760.522;  -41.800; -498.028; -574.949
760.782;  -45.797; -738.028; -612.949
761.042;  -18.094; -618.028; -573.950
761.302;  123.909;   55.972;  -18.950
761.562;  140.212; -164.027; -154.951
761.822;  168.215; -710.027; -551.951
762.082;  -67.082;-1104.027;-1093.951
762.342;  169.820; -328.027; -403.952
762.601;  189.523; -567.027; -506.952
762.861;  689.826; -281.026; -207.952
763.121;  807.729; -406.026; -411.953
763.381;14086.232; -499.026; -485.953
763.640;13257.335; -139.026; -307.954
763.900;  719.138; -242.026; -203.954
764.160;  248.341; -458.025; -491.954
764.419;   11.444; -726.025; -782.955
764.679;  -68.853; -795.025; -726.955
764.939;   58.350; -124.025; -210.955
765.198; -100.347; -608.025; -563.956
765.458; -129.544; -710.024; -612.956
765.717;  -94.141; -454.024; -590.957
765.976;  -88.938; -428.024; -411.957
766.236;  -75.335; -475.024; -610.957
766.495;  115.168;  260.977;   73.042
766.755; -144.730;-1090.023; -987.958
767.014;   47.973; -594.023; -665.958
767.273;  -29.924; -373.023; -397.959
767.533;  -14.621; -228.023; -307.959
767.792;   22.482; -151.022; -188.960
768.051;  -39.715; -228.022; -276.960
768.310;  -89.612; -546.022; -650.960
768.569;   66.991; -161.022;    4.039
768.828;   -4.406; -285.022; -363.961
769.088; -196.403;-1050.021; -942.961
769.347; -138.200; -755.021; -599.962
769.606; -125.497; -876.021; -857.962
769.865; -208.594;-1016.021;-1033.963
770.124;   17.609; -411.021; -336.963
770.383;  -64.688; -778.020; -910.963
770.641;   48.515; -398.020; -400.964
770.900;  -83.682; -953.020; -846.964
771.159;  -52.179; -851.020; -951.964
771.418;   45.423; -917.020; -779.965
771.677;  288.326; -224.019; -293.965
771.936;  312.929; -794.019; -865.966
772.194; 4599.632; -465.019; -437.966
772.453;18299.735; -213.019; -391.966
772.712; 1411.838;  416.982;  329.033
772.970;  251.841;   32.982;   63.033
773.229;  239.644;  -22.018;  102.033
773.488; -122.753; -814.018; -770.968
773.746;  200.150;  296.982;  335.032
774.005;   73.153;  190.983;  -22.969
774.263;   82.456;  243.983;  177.031
774.522; -130.341; -422.017; -548.969
774.780; -101.838; -484.017; -417.970
775.039; -138.235; -551.017; -531.970
775.297;   49.668; -135.016; -351.970
775.555; -167.229; -489.016; -612.971
775.814; -155.027; -618.016; -570.971
776.072; -196.224; -749.016; -740.971
776.330; -114.321; -630.016; -520.972
776.589; -172.318; -703.015; -721.972
776.847; -197.715; -645.015; -624.973
777.105; -268.312;-1016.015;-1032.973
777.363; -122.409; -459.015; -454.973
777.621; -219.306; -660.015; -717.974
777.879;   12.397;  -42.014;   32.026
778.138; -153.000; -554.014; -717.974
778.396; -141.897; -585.014; -526.975
778.654; -259.794;-1015.014; -970.975
778.912;  -73.691; -269.014; -371.976
779.170; -202.588; -880.013; -803.976
779.427; -260.685; -922.013; -897.976
779.685; -200.282; -880.013; -832.977
779.943; -119.179; -654.013; -593.977
780.201; -268.877; -964.012; -883.978
780.459; -165.974; -651.012; -610.978
780.717; -120.471; -440.012; -390.978
780.974; -160.368; -449.012; -490.979
781.232;  -53.365; -358.012; -338.979
781.490;  -91.362; -551.011; -472.979
781.747; -135.259; -555.011; -476.980
782.005;  117.344;  462.989;  254.020
782.263; -270.453; -542.011;-1004.981
782.520; -112.850; -326.011; -501.981
782.778; -259.947;-1013.010;-1051.981
783.035; -309.244; -962.010; -938.982
783.293;  -36.741; -248.010; -206.982
783.550;  -51.038; -134.010; -198.982
783.808; -187.535; -764.010; -776.983
784.065; -243.332; -745.009; -874.983
784.322;   -8.329;   25.991;  -86.984
784.580; -206.627; -915.009; -771.984
784.837;  -90.824; -392.009; -466.984
785.094; -192.821; -783.009; -762.985
785.352;  -73.518; -304.008; -404.985
785.609; -172.915; -934.008; -839.985
785.866;  -90.712; -345.008; -401.986
786.123;  -90.809; -639.008; -583.986
786.380; -139.606; -665.008; -604.987
786.637;   -7.003; -225.007; -380.987
786.895;  -63.900; -456.007; -543.987
787.152;  -41.197; -135.007; -267.988
787.409;   -2.994; -123.007; -225.988
787.666; -109.391; -299.006; -378.988
787.923; -151.388; -616.006; -695.989
788.179; -145.085; -551.006; -584.989
788.436; -163.982; -585.006; -585.990
788.693;   36.321;  -92.006;  -87.990
788.950;  331.424; -125.005; -112.990
789.207;  352.026; -381.005; -372.991
789.464;  -40.971; -161.005; -301.991
789.720;   49.332;  150.995;  110.009
789.977; -277.165;-1003.005; -671.992
790.234;   -2.562;   44.996;  -66.992
790.490; -229.959; -884.004;-1031.993
790.747;   16.844;  -85.004;   22.007
791.004;   -9.753; -426.004; -348.993
791.260;  -88.350; -430.004; -560.994
791.517; -149.547; -843.003; -788.994
791.773;  -52.944; -379.003; -342.994
792.030; -138.741; -596.003; -660.995
792.286; -165.538; -686.003; -636.995
792.543;   15.265;  -74.002; -159.995
792.799;  -59.232; -584.002; -382.996
793.055; -249.829;-1179.002;-1210.996
793.312; -112.726; -827.002; -816.997
793.568;  -71.824; -746.002; -599.997
793.824;   60.879; -226.001; -284.997
794.081;   82.582; -447.001; -508.998
794.337;  205.485; -664.001; -561.998
794.593; 3025.488; -319.001; -271.999
794.849;11209.191; -746.001; -772.999
795.105;  597.694; -270.000; -261.999
795.361;   67.897; -490.000; -457.000
795.617;  -97.400; -875.000; -945.000
795.873;  -26.000; -360.000; -407.000
796.129;    1.300; -368.000; -306.000
796.385;   17.200; -124.000; -156.000
796.641;  210.400;  412.000;  550.000
796.897; -115.400; -666.000; -635.000
797.153;  206.800;  453.000;  357.000
797.409; -158.400; -785.000; -868.000
797.665;  -96.400; -625.000; -732.000
797.921;  -93.600; -775.000; -762.000
798.176;  -79.400; -744.000; -747.000
798.432;  -90.900; -824.000; -596.000
798.688; -108.900;-1174.000;-1078.000
798.943;  217.600; -165.000; -147.000
799.199;    8.000;-1005.000; -959.000
799.455;  510.900;  369.000;  316.000
799.710;  250.700; -813.000; -380.000
799.966;  530.100; -162.000; -160.000
800.221;  907.800; -638.000; -721.000
800.477;19417.800; -743.000; -710.000
800.732;14087.400; -773.000; -800.000
800.988; 1165.200;  205.000;  -19.000
801.243; 3955.400; -454.000; -344.000
801.498;13439.500; -814.000; -739.000
801.754;  796.800; -289.000; -163.000
802.009;  214.400; -257.000; -335.000
802.264;  -39.600; -967.000;-1033.000
802.520;  118.300;  222.000;   -3.000
802.775;  -38.800; -524.000; -359.000
803.030;  185.400;  395.000;  356.000
803.285; -203.800; -840.000; -903.000
803.540;  -66.400; -686.000; -699.000
803.795;  -33.200; -648.000; -583.000
804.051;  -19.900; -279.000; -346.000
804.306;   75.100;  168.000;  128.000
804.561;  335.400;  451.000;  362.000
804.816;  366.500;  714.000;  861.000
805.071;   89.400; -185.000; -280.000
805.325;  375.500; -257.000; -427.000
805.580; -142.300; -841.000; -877.000
805.835;   17.100; -204.000; -297.000
806.090; -114.900; -760.000; -676.000
806.345;   21.500; -344.000; -264.000
806.600;  -16.000; -549.000; -632.000
806.854;  -27.600; -408.000; -538.000
807.109;   47.500; -493.000; -577.000
807.364;   43.000; -407.000; -328.000
807.618;   52.800; -415.000; -381.000
807.873;  113.700; -470.000; -494.000
808.128;  205.300; -257.000; -518.000
808.382;  247.400; -224.000; -332.000
808.637;  178.800; -440.000; -511.000
808.891;  424.100; -257.000; -180.000
809.146;  186.800; -902.000; -794.000
809.400;  503.400; -848.000; -923.000
809.654;  609.500; -779.000; -551.000
809.909;  890.700; -841.000; -927.000
810.163;13157.400; -813.000; -651.000
810.418;27550.200; -940.000; -861.000
810.672; 1761.300; -685.000; -690.000
810.926; 1295.700; -993.000; -973.000
811.180; 2817.800; -439.000; -372.000
811.434;56957.700;  240.000;  135.000
811.689;18715.000; -231.000; -365.000
811.943; 1084.400; -936.000; -953.000
812.197;  626.500; -893.000; -671.000
812.451;  261.900; -379.000; -514.000
812.705;   12.200; -809.000; -619.000
812.959;   57.800; -263.000; -388.000
813.213;   46.200; -283.000; -209.000
813.467;  214.000;  470.000;  253.000
813.721; -137.500; -764.000; -792.000
813.975; -191.200; -826.000; -877.000
814.229;  181.900;  430.000;  353.000
814.482;  -95.000; -517.000; -566.000
814.736; -201.000; -766.000; -744.000
814.990; -201.200; -779.000; -872.000
815.244;  -18.600; -228.000; -285.000
815.497; -126.700; -636.000; -601.000
815.751;   38.600; -141.000;   82.000
816.005;  -64.500; -470.000; -586.000
816.258;  -85.200; -510.000; -363.000
816.512; -174.300; -693.000; -610.000
816.766;   99.000;  121.000;  157.000
817.019;  150.000;  148.000;  149.000
817.273; -185.300;-1000.000; -802.000
817.526;   -5.600; -206.000; -173.000
817.779;  -35.200;-1049.000; -960.000
818.033; -107.300; -693.000; -807.000
818.286; -174.800; -725.000; -792.000
818.540; -100.100; -403.000; -403.000
818.793;  -65.700; -402.000; -489.000
819.046; -123.400; -582.000; -520.000
819.299;  -11.700; -157.000; -166.000
819.553; -205.600; -552.000; -592.000
819.806; -246.700;-1016.000; -838.000
820.059;  -47.900; -334.000; -354.000
820.312;   98.400;  152.000;  185.000
820.565;    9.500;  110.000;  -27.000
820.818;  -40.800;  -59.000; -173.000
821.071; -268.300;-1041.000; -957.000
821.324; -133.800; -536.000; -540.000
821.577; -127.300; -457.000; -483.000
821.830;  -72.300; -270.000; -172.000
822.083; -201.100; -733.000; -288.000
822.336;  -40.300; -261.000; -167.000
822.589; -202.400; -805.000; -688.000
822.842; -221.000; -875.000; -770.000
823.094; -295.600;-1076.000;-1114.000
823.347; -226.600; -925.000; -729.000
823.600;   89.400;  402.000;  187.000
823.853;  -16.000; -311.000; -267.000
824.105; -115.100; -331.000; -575.000
824.358; -164.800; -617.000; -716.000
824.611;   82.400;  234.000;   40.000
824.863;  -51.200; -612.000; -591.000
825.116;  117.500;  -33.000;   27.000
825.368;  192.900; -366.000; -372.000
825.621;  290.600; -186.000; -240.000
825.873;  166.000; -704.000; -737.000
826.126; 1195.200; -669.000; -641.000
826.378;20678.900; -389.000; -505.000
826.630; 3925.700; -890.000; -898.000
826.883;   98.700; -754.000; -693.000
827.135;  144.300; -279.000; -270.000
827.387; -175.200; -893.000; -839.000
827.639;    5.500;  -86.000;   32.000
827.892; -196.200; -742.000; -582.000
828.144; -218.300; -848.000; -804.000
828.396;   13.100;  104.000;  -80.000
828.648; -110.500; -440.000; -333.000
828.900; -254.200; -702.000; -795.000
829.152; -164.400; -684.000; -683.000
829.404;  -60.800; -215.000; -267.000
829.656;   44.500;  321.000;  214.000
829.908;   16.400;  393.000;  229.000
830.160; -284.800;-1064.000;-1047.000
830.412; -103.300; -481.000; -430.000
830.664; -163.700; -557.000; -665.000
830.916;  -78.500; -268.000; -206.000
831.167; -267.600;-1073.000; -951.000
831.419; -168.100; -623.000; -566.000
831.671; -249.500; -764.000; -809.000
831.923; -113.500; -311.000; -447.000
832.174;  -66.100; -273.000; -331.000
832.426; -164.500; -493.000; -582.000
832.678; -317.600;-1043.000;-1091.000
832.929; -267.900; -947.000; -935.000
833.181;  -69.200; -575.000; -677.000
833.432;  -57.500;  -59.000; -186.000
833.684;   21.700;  112.000;  -27.000
833.935; -155.400; -610.000; -566.000
834.187; -178.900; -829.000; -823.000
834.438;  -22.100;  -58.000;  -25.000
834.689;  -30.300; -255.000; -123.000
834.941;  -34.100; -343.000; -244.000
835.192; -141.500; -590.000; -533.000
835.443;  -89.400; -419.000; -506.000
835.695;   52.800;  138.000;  -16.000
835.946; -106.400; -608.000; -378.000
836.197; -170.900; -599.000; -622.000
836.448; -122.700; -528.000; -395.000
836.699;  -68.900; -253.000; -341.000
836.950;   45.200;   72.000;    7.000
837.201; -242.000;-1003.000; -987.000
837.452;  -74.300; -356.000; -170.000
837.703; -168.600; -791.000; -737.000
837.954;  -19.800; -205.000; -365.000
838.205; -119.300;-1029.000;-1008.000
838.456;  305.800; -196.000; -282.000
838.707;   67.300; -423.000; -519.000
838.958;   67.500; -634.000; -647.000
839.209;  501.600;   18.000;   40.000
839.460;  234.400; -439.000; -201.000
839.710;  355.800; -135.000; -297.000
839.961;  812.600;  730.000;  612.000
840.212;  595.900; -382.000; -497.000
840.462; 2204.000; -328.000; -277.000
840.713;32596.400; -571.000; -536.000
840.964;10334.500;  -62.000; -143.000
841.214;  875.900; -384.000; -624.000
841.465; 1031.900; -214.000; -141.000
841.715;  892.300; -417.000; -380.000
841.966; 1200.900; -746.000; -685.000
842.216;18320.500; -330.000; -431.000
842.466;54551.100; -169.000; -313.000
842.717; 2281.100; -964.000; -952.000
842.967;  633.000; -635.000; -641.000
843.217;  500.000;   20.000;   28.000
843.468;  212.600; -104.000; -132.000
843.718;  -35.000; -718.000; -726.000
843.968; -125.400; -837.000; -765.000
844.218;   89.300; -315.000; -262.000
844.469;  -51.400; -577.000; -561.000
844.719; -139.000; -537.000; -682.000
844.969; -134.700; -550.000; -580.000
845.219; -209.300; -814.000; -862.000
845.469;  -77.400; -392.000; -342.000
845.719; -202.900; -792.000; -884.000
845.969;   48.600;  119.000;  174.000
846.219; -163.800; -738.000; -720.000
846.469;  114.000;  464.000;  432.000
846.718;  -35.100; -115.000;   31.000
846.968; -199.300; -827.000; -827.000
847.218;    0.200; -224.000; -371.000
847.468; -160.000; -586.000; -555.000
847.718; -224.000; -827.000; -798.000
847.967; -228.400; -826.000; -915.000
848.217;  -90.200; -449.000; -569.000
848.467;  -49.500; -405.000; -376.000
848.716; -155.900; -708.000; -725.000
848.966;   29.500; -372.000; -358.000
849.215;  -82.600; -428.000; -419.000
849.465; -102.200; -785.000; -615.000
849.714; -257.900;-1132.000;-1150.000
849.964;  -69.000; -551.000; -613.000
850.213;  -23.600; -393.000; -355.000
850.463;  215.200;  137.000;  340.000
850.712;   54.900; -542.000; -567.000
850.961;   67.600; -739.000; -678.000
851.211;  247.400; -513.000; -504.000
851.460;  302.700; -635.000; -650.000
851.709; 1070.200;  -25.000;   18.000
851.958;20042.500; -912.000; -750.000
852.208;19525.100; -859.000; -879.000
852.457;  799.700; -181.000;  -13.000
852.706;  125.800; -791.000; -823.000
852.955;   37.100; -507.000; -528.000
853.204;  -83.500; -521.000; -461.000
853.453;  -96.600; -418.000; -458.000
853.702; -192.000; -660.000; -750.000
853.951; -151.300; -532.000; -520.000
854.200; -131.700; -613.000; -562.000
854.449; -215.300; -695.000; -661.000
854.698;  -84.900; -340.000; -279.000
854.946;  -71.700; -181.000; -284.000
855.195; -215.800; -843.000; -868.000
855.444; -115.200; -395.000; -420.000
855.693; -173.400; -345.000; -432.000
855.941; -133.100; -387.000; -516.000
856.190;  -37.900; -256.000; -382.000
856.439; -208.600; -652.000; -703.000
856.687;  -23.400;  -99.000;  -72.000
856.936; -178.800; -621.000; -323.000
857.184; -280.200;-1067.000;-1020.000
857.433; -111.700; -423.000; -512.000
857.681; -241.800; -989.000; -953.000
857.930; -111.100; -282.000; -433.000
858.178; -257.700; -856.000; -929.000
858.427; -244.200; -802.000; -781.000
858.675; -179.400; -377.000; -544.000
858.923; -154.600; -527.000; -819.000
859.172; -285.900;-1094.000;-1070.000
859.420;  -83.600; -339.000; -239.000
859.668; -195.300; -624.000; -628.000
859.916;   30.100;  109.000;  115.000
860.164; -149.400; -699.000; -603.000
860.413;  582.400; -878.000; -696.000
860.661;  310.100; -709.000; -577.000
860.909; -110.700; -339.000; -325.000
861.157;  -97.500; -277.000; -444.000
861.405; -186.300; -534.000; -670.000
861.653;   99.900;  310.000;  310.000
861.901;  363.800; -543.000; -613.000
862.149;  -22.100; -801.000; -824.000
862.396;  -88.700; -297.000; -187.000
862.644; -116.800; -368.000; -347.000
862.892;   16.900;   98.000;  138.000
863.140; -182.000; -549.000; -530.000
863.388; -224.900; -815.000; -759.000
863.635; -195.200; -642.000; -601.000
863.883;   45.400;  231.000;  190.000
864.131; -119.100; -288.000; -357.000
864.378; -193.100; -675.000; -540.000
864.626; -126.900; -347.000; -415.000
864.873; -162.800; -556.000; -505.000
865.121; -196.100; -714.000; -799.000
865.368;  -57.200; -173.000;   75.000
865.616;    7.800;  -33.000;  -40.000
865.863;  -97.100; -462.000; -506.000
866.111; -154.400; -795.000; -824.000
866.358;  117.100; -426.000; -420.000
866.605; 4688.300;  -64.000; -804.000
866.853; 3685.800; -621.000; -537.000
867.100;  -53.600; -728.000; -775.000
867.347; -149.700; -672.000; -611.000
867.594; -101.800; -740.000; -714.000
867.841;  182.000;   97.000;   17.000
868.089; -252.000; -746.000; -698.000
868.336; -144.000; -477.000; -420.000
868.583; -223.700; -637.000; -741.000
868.830;  -28.300; -131.000; -170.000
869.077; -255.100; -859.000; -787.000
869.324; -209.000; -502.000; -458.000
869.571; -189.200; -398.000; -430.000
869.818; -197.900; -485.000; -439.000
870.065; -121.300; -439.000; -513.000
870.311; -149.700; -456.000; -542.000
870.558; -125.800; -332.000; -311.000
870.805;  -98.300; -320.000; -384.000
871.052; -154.200; -494.000; -369.000
871.298;  -22.000; -204.000; -131.000
871.545;  -82.000; -151.000; -185.000
871.792;  -95.700; -173.000; -222.000
872.038;  -43.800;   43.000; -126.000
872.285; -175.200; -496.000; -387.000
872.532;  -97.900; -357.000; -387.000
872.778;   94.200;  556.000;  403.000
873.025; -126.000; -384.000; -359.000
873.271;  123.800;  501.000;  578.000
873.517;   -9.100; -133.000; -209.000
873.764;   -5.400; -193.000;  -80.000
874.010;  -61.900; -143.000; -230.000
874.257;    0.500;  123.000;   90.000
874.503; -193.100; -579.000; -479.000
874.749;  -50.900;   31.000;  275.000
874.995;  -83.900;  -80.000;  -20.000
875.242; -169.000; -540.000; -478.000
875.488; -129.700; -414.000; -439.000
875.734;  -62.700; -106.000; -234.000
875.980;  422.100; -872.000;-1032.000
876.226;  612.000; -157.000; -255.000
876.472;   67.100;  343.000;  237.000
876.718;   14.400;  184.000;  158.000
876.964;  -11.100;   56.000;   55.000
877.210; -203.700; -547.000; -677.000
877.456; -221.600; -630.000; -557.000
877.702; -284.800; -821.000; -832.000
877.948; -133.800; -377.000; -497.000
878.193;  126.200;  361.000;  255.000
878.439; -131.800; -487.000; -472.000
878.685; -122.100; -272.000; -343.000
878.931; -218.100; -618.000; -676.000
879.176;  -78.000; -201.000; -201.000
879.422; -306.100; -933.000; -820.000
879.668;  243.200;   10.000;   79.000
879.913;  286.300;   53.000;  137.000
880.159;  -35.400; -112.000;  -17.000
880.404;  -47.400; -152.000; -162.000
880.650;   -0.100;   91.000;  141.000
880.895; -241.200; -670.000; -710.000
881.141; -179.400; -454.000; -428.000
881.386; -237.500; -503.000; -658.000
881.631; -129.300; -311.000; -166.000
881.877;   -1.800;  112.000;  -13.000
882.122; -210.100; -684.000; -600.000
882.367; -116.900; -136.000; -186.000
882.612;  -79.400;  -80.000; -176.000
882.858; -296.600; -877.000; -823.000
883.103; -121.100; -297.000; -267.000
883.348; -238.300; -759.000; -852.000
883.593; -213.600; -677.000; -602.000
883.838;  -55.000; -311.000;  -24.000
884.083;  108.700;  353.000;  288.000
884.328; -123.700; -564.000; -545.000
884.573;  -26.200; -196.000; -143.000
884.818;  459.600; -694.000; -531.000
885.063;  284.900; -348.000; -315.000
885.308; -138.500; -475.000; -398.000
885.553;   50.300;  245.000;  325.000
885.797; -189.000; -545.000; -615.000
886.042;  -12.600;    8.000;   58.000
886.287;  -96.200; -253.000; -211.000
886.532;  -27.400;   26.000;  204.000
886.776; -115.000; -407.000; -525.000
887.021; -205.300; -621.000; -574.000
887.265; -233.000; -685.000; -689.000
887.510; -208.200; -557.000; -496.000
887.755; -114.000; -194.000; -164.000
887.999; -192.800; -552.000; -575.000
888.244;  -38.500;  -58.000;  161.000
888.488;   78.800;  371.000;  393.000
888.732; -166.700; -368.000; -520.000
888.977; -203.800; -622.000; -567.000
889.221; -272.100; -683.000; -659.000
889.465; -180.000; -422.000; -566.000
889.710;  -72.300;  -56.000; -299.000
889.954;   89.400;  579.000;  467.000
890.198; -243.100; -584.000; -707.000
890.442; -227.000; -716.000; -712.000
890.687; -253.100; -800.000; -753.000
890.931;  -98.900; -273.000; -210.000
891.175; -214.100; -502.000; -500.000
891.419;  -62.300; -105.000; -110.000
891.663; -118.700; -239.000; -112.000
891.907; -263.600; -801.000; -545.000
892.151; -282.400; -920.000; -815.000
892.395; -156.500; -274.000; -387.000
892.638;   19.800;  408.000;  291.000
892.882; -269.200; -780.000; -867.000
893.126;  118.300;  758.000;  558.000
893.370;  -81.800; -167.000; -168.000
893.614; -200.500; -714.000; -715.000
893.857; -113.200; -183.000; -197.000
894.101; -183.100; -527.000; -631.000
894.345;  -31.300;  300.000;  150.000
894.588;  110.300;  569.000;  380.000
894.832;  -85.900; -178.000;  -84.000
895.075;  -84.700;   15.000;  -92.000
895.319; -178.300; -552.000; -420.000
895.563; -171.300; -413.000; -353.000
895.806; -216.700; -628.000; -741.000
896.049;  -56.300; -576.000; -368.000
896.293;  225.600;  527.000;  405.000
896.536;  -98.900; -465.000; -468.000
896.779;  -40.600; -149.000;   -1.000
897.023; -220.200; -751.000; -714.000
897.266;   33.900;  325.000;  269.000
897.509; -316.100; -900.000; -901.000
897.752;  -17.600;  149.000;  171.000
897.996; -310.600; -972.000; -864.000
898.239;   13.800;  168.000;  102.000
898.482; -201.200; -431.000; -453.000
898.725;   20.000;  101.000;   53.000
898.968; -223.500; -609.000; -744.000
899.211; -138.100; -513.000; -361.000
899.454; -181.300; -633.000; -539.000
899.697;  -59.200;   90.000;  -43.000
899.940; -246.100; -761.000; -757.000
900.182; -115.800; -335.000; -405.000
900.425; -120.800; -150.000; -298.000
900.668;   37.200;  491.000;  350.000
900.911; -118.000; -292.000; -345.000
901.154;  -24.800;  141.000;   -3.000
901.396; -202.400; -407.000; -412.000
901.639; -206.900; -430.000; -496.000
901.882; -297.200; -790.000; -809.000
902.124;  -83.700;  -29.000; -143.000
902.367; -138.400; -315.000; -361.000
902.609; -187.200; -476.000; -453.000
902.852;  -93.300; -108.000; -260.000
903.094; -174.600; -458.000; -337.000
903.337;  -17.300;  -26.000;   53.000
903.579; -136.900; -228.000; -441.000
903.821; -211.800; -597.000; -744.000
904.064;  -16.800;   85.000;  127.000
904.306;  -83.700; -126.000; -166.000
904.548; -135.700; -152.000; -366.000
904.790; -130.500; -195.000; -340.000
905.033; -181.300; -625.000; -577.000
905.275; -209.000; -513.000; -524.000
905.517;  173.300;  468.000;  256.000
905.759;  -75.800; -667.000; -761.000
906.001; -115.500; -322.000; -369.000
906.243;  -39.800; -162.000; -224.000
906.485;  309.400; -265.000; -207.000
906.727;  187.800; -499.000; -542.000
906.969;   18.900;  -30.000; -135.000
907.211;  288.600; -316.000; -382.000
907.453;  567.500; -188.000; -237.000
907.695;   44.500; -158.000; -385.000
907.936;  146.400;  818.000;  706.000
908.178;  -54.400;   92.000; -135.000
908.420;  -49.800; -111.000; -162.000
908.662; -204.100; -633.000; -682.000
908.903; -100.400; -208.000; -123.000
909.145;  -65.600; -240.000; -305.000
909.386;   90.700;  315.000;  280.000
909.628;  163.400;  363.000;  397.000
909.870;   91.300;   29.000;  264.000
910.111; -101.700; -809.000; -949.000
910.353;  121.400; -123.000; -161.000
910.594;   58.700; -574.000; -606.000
910.835;  225.000; -265.000; -326.000
911.077;  301.300; -503.000; -604.000
911.318;  609.100; -505.000; -471.000
911.559;  889.900; -577.000; -880.000
911.801; 2723.600; -284.000; -280.000
912.042;23213.700;  -50.000; -159.000
912.283;49739.700;  404.000;  371.000
912.524; 6156.400; -396.000; -457.000
912.765;  994.100; -193.000;   79.000
913.006;  533.200; -307.000; -338.000
913.247;  153.600; -270.000; -290.000
913.488;   47.900;  -43.000;   30.000
913.729;  -86.500; -373.000; -373.000
913.970;  -67.900;  -96.000; -292.000
914.211;  -73.200; -160.000; -198.000
914.452;  -74.200; -118.000;  -11.000
914.693;  116.000;  510.000;  592.000
914.934;  117.200;  510.000;  440.000
915.175;  -51.500;   53.000;  -95.000
915.415;  -50.400; -137.000;   27.000
915.656;  -42.400;  -28.000;  192.000
915.897; -107.800; -252.000;  -82.000
916.137;  -18.900;   74.000;   -9.000
916.378; -177.500; -573.000; -517.000
916.619;  -94.400; -159.000;  -63.000
916.859;    7.900;  303.000;  330.000
917.100;  387.900; 1655.000; 1070.000
917.340;  182.000;  930.000;  728.000
917.581;  192.200;  965.000;  789.000
917.821;   22.400; -171.000;  143.000
918.061;   80.600; -199.000;  -72.000
918.302;  -34.700; -152.000; -211.000
918.542;   17.400;  -22.000;    3.000
918.782;  196.200;  369.000;  377.000
919.023;  328.700;  360.000;  427.000
919.263; 2870.300; 8131.000;  202.000
919.503; 2009.900; -137.000;  -54.000
919.743; 1211.900;  390.000;  266.000
919.983;  471.700; -134.000;  -26.000
920.223;  231.800;  135.000;   14.000
920.463;  333.300;  631.000;  554.000
920.703;  322.400;   84.000;   39.000
920.943;  336.200; -110.000;   90.000
921.183;  481.100; -414.000; -405.000
921.423; 1041.900;  307.000;  546.000
921.663; 1424.900; -174.000; -257.000
921.903; 3187.000;  237.000;  173.000
922.143;18711.200;  372.000;  389.000
922.383;63022.600;  158.000;  115.000
922.622;17321.800; -120.000;  -15.000
922.862; 2176.100;  796.000;  785.000
923.102;  932.500;  -51.000;   33.000
923.341;  413.600;   59.000;   74.000
923.581;  219.500;  450.000;  360.000
923.821;  115.200;  301.000;  398.000
924.060;   72.400;  351.000;  193.000
924.300;  -47.200;  -16.000; -128.000
924.539;   71.300;  584.000;  473.000
924.779;   93.500;  812.000;  597.000
925.018;    1.000;  247.000;  353.000
925.257;   89.400;  595.000;  666.000
925.497;   24.500;  447.000;  412.000
925.736;  -72.200;  -35.000;  102.000
925.975;   81.100;  687.000;  669.000
926.214;  134.400;  907.000;  850.000
926.454;  121.600;  706.000;  757.000
926.693;   31.700;  419.000;  543.000
926.932;  156.500; 1021.000;  825.000
927.171;  231.100; 1107.000; 1044.000
927.410;  198.900; 1144.000;  967.000
927.649;  142.300;  924.000;  742.000
927.888;   65.800;  590.000;  564.000
928.127;   66.300;  680.000;  678.000
928.366;  137.700;  842.000;  826.000
928.605;  161.000;  831.000;  737.000
928.844;  588.200; 1451.000; 1393.000
929.083; 1259.700;  770.000;  613.000
929.321;  634.000; 1335.000; 1359.000
929.560;  266.100; 1158.000; 1122.000
929.799;   52.100;  574.000;  475.000
930.038;  289.900; 1025.000; 1394.000
930.276;  -26.200;  334.000;  397.000
930.515;   87.100;  827.000;  681.000
930.753;   76.800;  614.000;  589.000
930.992;   23.800;  664.000;  717.000
931.230;   96.900;  847.000;  847.000
931.469;  433.100; 2162.000;  892.000
931.707;  245.800;  840.000;  751.000
931.946;  229.200; 1278.000; 1344.000
932.184;  208.700; 1437.000; 1175.000
932.423;  194.100; 1265.000;  963.000
932.661;  281.600; 1296.000; 1428.000
932.899;  153.800;  987.000;  821.000
933.137;  129.500;  754.000;  564.000
933.376;  346.200; 1664.000; 1335.000
933.614;  398.200; 1759.000; 1196.000
933.852;  229.800; 1357.000; 1171.000
934.090;  413.100; 1722.000; 1747.000
934.328;  319.200; 1252.000; 1457.000
934.566;  295.600; 1431.000; 1110.000
934.804;  406.500; 1263.000; 1309.000
935.042; 1027.400; 1861.000; 1850.000
935.280; 3998.300; 2088.000; 2063.000
935.518; 3092.900; 2113.000; 2007.000
935.756;  743.600; 2481.000; 2316.000
935.994;  415.500; 1808.000; 1751.000
936.231;  765.400; 2890.000; 2950.000
936.469;  476.000; 2367.000; 2378.000
936.707;  453.100; 2220.000; 2167.000
936.945;  573.800; 2825.000; 2882.000
937.182;  502.900; 2679.000; 2741.000
937.420;  733.600; 3602.000; 3031.000
937.657;  922.100; 3365.000; 3478.000
937.895;  816.200; 3331.000; 3488.000
938.133;  704.300; 3540.000; 3528.000
938.370;  772.400; 3896.000; 4191.000
938.607;  882.400; 4488.000; 4205.000
938.845; 1240.200; 5587.000; 5549.000
939.082; 1121.500; 5387.000; 5177.000
939.320; 1195.500; 5799.000; 5728.000
939.557; 1398.600; 6549.000; 6491.000
939.794; 1513.000; 7285.000; 7097.000
940.031; 1944.200; 8421.000; 8368.000
940.269; 2303.000; 9552.000; 9107.000
940.506; 2317.500;10901.000;10507.000

