
Integration time [ms]: 100.000
Averaging Nr. [scans]: 40
Smoothing Nr. [pixels]: 0
Data measured with spectrometer [name]: 2101013U2
Wave   ;Sample   ;Dark     ;Reference
[nm]   ;[counts] ;[counts] ;[counts] 

394.013;   43.184; -450.257; -315.536
394.305;  229.131; -461.258; -419.536
394.596; 1162.252; -676.269; -527.514
394.887; 2891.544; -796.268; -654.518
395.178; 1096.250;  145.736;   11.476
395.470;   76.811; -210.263; -356.526
395.761;  189.859;  305.734;  394.479
396.052;  313.049; -545.284; -306.489
396.343;  291.170; -557.276; -454.503
396.634;  110.864; -200.279; -290.497
396.926;  100.066; -618.268; -565.517
397.217;   95.825;   11.725;  -17.504
397.508;   31.391; -366.273; -154.507
397.799;   38.764; -555.279; -571.497
398.090;    1.433; -973.280; -902.495
398.381;  103.173;   11.708;  -11.473
398.672;   -6.876; -585.292; -742.473
398.963;   59.120; -348.279; -373.498
399.254;   89.608;   54.709; -209.475
399.545;  -22.220;-1017.266; -883.520
399.836;   50.209; -407.277; -343.501
400.127;   57.574; -205.295; -209.468
400.418;   35.235; -423.274; -392.506
400.709;   69.070; -359.281; -333.493
401.000;   36.888; -268.291; -309.476
401.290;  102.959;  225.698;  115.545
401.581;   60.982; -166.286; -228.485
401.872;   24.396; -542.298; -486.462
402.163;   51.066; -313.296; -252.467
402.454;   90.184; -123.291; -163.475
402.744;   59.983; -844.297; -813.465
403.035;  394.714; -226.293;  -86.471
403.326;  506.477; -366.292; -384.474
403.617;  338.790;  204.701;  165.539
403.907;  250.005; -593.283; -679.490
404.198; 2553.313; -545.307; -599.446
404.489; 6572.185; -618.283; -588.491
404.779; 2092.713; -618.302; -660.456
405.070;  223.616;  -67.304; -174.451
405.360;  333.516; -259.293; -238.472
405.651;  369.299;  125.699;   98.542
405.942;  183.077;  209.714;  127.516
406.232;  227.742; -432.285; -413.487
406.523;  420.234;  641.706;  758.530
406.813;   78.129; -579.286; -644.484
407.104;  298.297;  261.708;  144.527
407.394;  142.216; -604.299; -591.462
407.685;  151.691;  336.715;  222.513
407.975;   52.034; -400.283; -382.490
408.265;  115.149; -134.289; -190.478
408.556;   62.606; -472.291; -459.475
408.846;  163.335;  474.706;  429.530
409.137;   83.607;   -1.288; -216.480
409.427;   49.742; -193.285; -271.487
409.717;   38.069; -776.273; -692.508
410.007;  137.535;    4.715; -170.486
410.298;   82.927; -360.295; -342.469
410.588;   68.889; -495.285; -510.486
410.878;   28.044; -792.287; -873.482
411.168;  125.223; -481.298; -478.463
411.459;  111.853; -295.283; -242.489
411.749;   63.330; -609.292; -507.474
412.039;   67.856; -755.289; -386.480
412.329;  201.127;   40.722;  132.501
412.619;  193.805;  -62.286; -148.485
412.909;  359.952;  639.711;  594.521
413.199;  328.708; -130.280; -251.495
413.490;  382.542;  521.710;  352.523
413.780;  145.287;-1013.279; -913.496
414.070;  335.646;  -46.276;  235.497
414.360;  352.573; -729.278; -666.498
414.650;  416.540; -726.288; -688.482
414.940;  567.336; -538.280; -441.496
415.230;  945.937;   50.712;   74.519
415.520; 6379.201;  155.730;   66.486
415.809;25086.869; -305.281; -125.493
416.099;19242.787; -388.277; -229.501
416.389; 5496.508;  435.726;  236.494
416.679; 3233.090;   91.738;   85.473
416.969;  555.473; -527.287; -503.483
417.259;  480.489;  341.721;  171.503
417.549;  713.418;  522.718;  318.508
417.838; 1739.668; -205.268; -147.518
418.128; 5830.147;  650.710;  492.522
418.418; 4845.326; -491.272; -579.509
418.708; 3277.733;    9.726;  -48.506
418.997;12399.529; -474.275; -480.505
419.287;12850.065; -733.273; -790.507
419.577;12293.728; -160.283; -123.489
419.866;40605.459; -588.277; -498.501
420.156;41070.847; -242.270;  -55.513
420.446; 7253.907; -112.263;  -26.526
420.735;  832.816; -376.271; -446.512
421.025;  819.647; 1830.722;  315.502
421.314;  634.364; -203.271; -226.512
421.604; 1225.511;   89.732;  233.484
421.893;  713.535; -705.271; -602.511
422.183;  230.107; -487.263; -461.526
422.472;  377.936;  -36.271; -107.511
422.762;  431.486; -416.266; -379.521
423.051;  241.947; -916.276; -916.503
423.341;  328.242; -491.273; -439.507
423.630;  392.167; -121.265;   15.477
423.919;  390.453;   58.725;   49.495
424.209;  379.438;  -31.263;   56.473
424.498;  523.915;   68.732;  161.483
424.787; 1140.947; -535.267; -601.518
425.077; 3472.766;   34.735;   29.478
425.366; 4687.668; -734.262; -744.528
425.655;10406.968;  639.727;  259.493
425.945;23796.875; -313.247; -268.554
426.234;12971.892;  117.741;  300.467
426.523; 5303.547;  -86.259; -350.534
426.812; 7222.482;  107.734;  159.480
427.101;10823.357; -127.269; -323.515
427.390;13384.726;  -55.270;  -86.514
427.680; 2840.992; -624.257; -411.538
427.969;  468.903; -330.255; -301.540
428.258;  314.983; -385.257; -477.536
428.547;  530.255;  449.728;  397.490
428.836; 1149.594; -421.253; -398.543
429.125; 1667.199; -199.259;  -72.534
429.414;  796.717; -330.251; -294.548
429.703; 3286.792; -231.251; -213.548
429.992; 9891.646; -938.250; -828.549
430.281; 6380.150; -397.264; -331.524
430.570;  554.308;  -21.252;   32.454
430.859;  516.721;  279.741;  352.466
431.148;  400.020;  636.752;  631.446
431.437;  285.907;  391.748;  367.454
431.725;  162.210; -544.257; -481.536
432.014;  138.177; -845.253; -756.545
432.303;  383.922; -149.239; -105.569
432.592;  571.907; -460.263; -178.525
432.881; 1069.896; -601.248; -437.554
433.169; 6608.804; -343.255;  -61.540
433.458;13374.257;  445.765;  540.424
433.747; 5458.899; -397.261; -289.529
434.036;  835.523; -275.242; -280.564
434.324; 2189.608; -395.249; -379.551
434.613; 3826.441;   40.757;  159.437
434.902; 1201.512;  333.760;  439.433
435.190;  478.996;   75.761;  295.431
435.479;  279.948;  -52.245;   83.441
435.767;   91.406; -411.244; -427.561
436.056;  196.468; -340.242; -294.563
436.345;  395.139; -372.240; -223.568
436.633;  380.479;   60.750;  383.450
436.922;  241.142;  208.760;  414.432
437.210;  473.596; -194.236;    1.426
437.499; 1511.829; -583.235; -432.576
437.787; 1668.296; -339.236;  -10.574
438.075;  448.452;   56.761;  162.430
438.364;  612.979;  -44.238;  250.429
438.652;  366.685; -286.226; -138.592
438.941;  121.399;    3.770;  269.415
439.229;    6.430; -665.252; -466.545
439.517;   40.938; -160.234;  -85.577
439.806;  -15.299; -501.225; -290.595
440.094;  179.346;  377.766;  650.421
440.382;  168.575; -653.233; -302.580
440.670;  167.529; -361.235; -285.576
440.959;   12.844; -347.223; -170.599
441.247;   57.836; -151.229; -109.587
441.535;   95.961; -266.235;   31.423
441.823;   30.943; -497.234; -305.578
442.111;  170.440;  173.771;  327.412
442.400;  444.472; -628.245; -335.559
442.688; 1149.120; -111.234; -620.579
442.976;  801.733; -786.213; -450.617
443.264;   84.608; -324.224; -364.597
443.552;   90.112; -258.226;   51.408
443.840;  159.485;  602.765;  876.423
444.128;  112.349;  265.767;  269.420
444.416;  -10.907; -694.228; -312.588
444.704;   34.824; -465.219;  -92.605
444.992;   74.089;   -0.226;  240.407
445.280;   39.375; -517.230;  -94.585
445.568;   24.087; -694.212; -396.618
445.856;  285.108; -174.221;  357.398
446.143;  644.095;  -54.220;   -7.604
446.431;  520.421;  -25.228;  625.411
446.719;  217.444;  489.783;  675.391
447.007;  164.019;  481.769;  705.416
447.295;  178.416;  597.777;  871.402
447.583;   89.133; -464.229;  -34.587
447.870;  132.055; -434.221; -202.601
448.158;  366.848; -104.230;  129.415
448.446;  283.446; -800.219; -338.604
448.733;  161.010;   13.776;  269.403
449.021;  233.636;   60.788;  341.382
449.309;  180.327; -296.210;  208.379
449.596;  207.565;  128.783;   59.392
449.884;  152.998; -571.222; -325.600
450.172;  178.077; -756.227; -406.590
450.459;  456.666;  645.786;  780.387
450.747; 2583.913; -411.218; -147.608
451.034; 8274.822;  493.772;  889.411
451.322; 6698.369; -413.214; -170.614
451.609;  566.211;  292.777;  508.403
451.897;  634.541; -550.203; -183.634
452.184; 1917.691; -622.223; -400.598
452.472; 1752.923;   97.792;  269.375
452.759;  352.272;  512.781;  864.395
453.047;  108.309; -407.212; -125.617
453.334;   58.030; -732.219; -216.606
453.621;   57.897; -438.214; -161.615
453.909;  114.832;   13.796;  384.368
454.196;   96.328; -299.199; -123.641
454.483;  203.054;  317.798;  540.364
454.771;  121.776; -215.208;  196.374
455.058;   48.180; -316.207;  102.374
455.345;  108.109;   71.807;  344.347
455.632;   93.158; -128.207;  235.373
455.919;   58.101;  -82.196;  182.354
456.207;  -48.417; -774.198; -450.642
456.494;  -21.534; -475.200;  -66.639
456.781;    9.074; -399.202; -198.635
457.068;   53.590; -253.206;  -29.628
457.355;   -2.184; -698.206; -401.629
457.642;   -0.479; -552.205; -290.630
457.929;   11.075; -778.194; -417.651
458.216;   62.309; -575.212; -354.617
458.503;  264.430; -173.193;  -19.652
458.790;  254.474; -864.208; -630.625
459.077;  271.179;  -77.202;  110.364
459.364;  837.293; -350.195; -210.649
459.651; 1815.663;  -46.206;  220.372
459.938;  822.765; -864.209; -665.623
460.225;  137.308;  132.799;  276.363
460.512;  -43.427; -836.197; -688.645
460.799;   99.412;  -32.218;  320.392
461.086;   57.796; -370.200; -251.640
461.372;   17.558; -509.198; -279.642
461.659;   92.228; -165.196;  108.354
461.946;   58.154; -445.193;  -54.651
462.233;  231.743;  842.800;  888.361
462.519;  354.590; -814.201; -464.639
462.806; 1059.299; -768.197; -497.645
463.093;  900.825; -445.191;  -66.656
463.380;  -29.483; -920.186; -824.664
463.666;   48.201; -259.197;  -18.646
463.953;   86.538; -406.195; -243.648
464.239;  203.838; -173.195;  -77.648
464.526;  382.074;  413.806;  743.350
464.813;  328.711; -565.190; -304.658
465.099;  336.205;  606.807;  607.348
465.386;  316.709;  903.807;  921.348
465.672;   15.174; -694.197; -522.645
465.959;   21.105; -598.188; -520.662
466.245;   12.684; -468.193; -359.652
466.532;   74.436; -109.195;   63.352
466.818;   50.466; -357.186; -216.664
467.104;   -0.793; -488.182; -415.672
467.391;  -31.912; -628.189; -459.658
467.677;   33.395; -289.186;    9.335
467.964;   -4.155; -682.189; -471.660
468.250;   48.098; -331.186; -160.665
468.536;   70.415;   90.811;  180.341
468.822;  -30.340; -821.184; -574.668
469.109;  135.139;  351.827;  471.311
469.395;  180.994;  729.808;  787.346
469.681;  186.368;   46.811;  156.341
469.967; 1324.522; -699.188; -382.660
470.254; 2860.480; -494.188; -306.662
470.540; 1801.201; -601.196; -476.646
470.826;  252.743; -488.181; -397.675
471.112;  316.388;  288.816;  113.331
471.398;   82.768; -253.183;  -58.670
471.684;   45.597; -626.177; -447.680
471.970;  -12.178; -918.180; -981.675
472.256;   29.743; -521.192; -441.654
472.542;    3.800; -499.171; -434.691
472.828;   13.478; -743.182; -607.672
473.114;   23.869; -380.166; -283.700
473.400;   17.164; -504.175; -293.684
473.686;   14.226; -452.166; -400.701
473.972;   58.879; -230.174; -131.687
474.258;  -42.086; -925.173; -843.689
474.544;  207.589; -183.178;   -2.679
474.830;  329.340;  -65.175;   45.316
475.116;  539.838; -123.190; -196.658
475.401;  727.024; -558.180; -467.676
475.687;  204.048; -725.180; -718.676
475.973;   -8.464; -673.181; -770.673
476.259;  226.468;  736.825;  764.315
476.544;  371.880; -539.176; -437.682
476.830;  926.821; -398.172; -322.690
477.116;  788.879; -430.177; -336.682
477.401;  149.324;  346.820;  358.324
477.687;  -25.711; -289.175; -405.684
477.973;   38.115;   21.819;   28.326
478.258;  -22.554; -448.163; -348.706
478.544;   49.553;   21.815;   61.334
478.829;  -47.019; -818.171; -738.692
479.115;  -46.704; -749.172; -651.690
479.401;  -17.051; -444.174; -449.686
479.686;   37.748; -253.180;  -74.676
479.972;  -34.081; -886.178; -776.680
480.257;   38.646; -258.166;  -65.700
480.542;   -2.740; -614.170; -469.693
480.828;  209.012; 1288.824; 1392.317
481.113;  -28.590; -464.176; -426.683
481.399;   -0.905; -236.161; -202.711
481.684;  -61.180; -620.166; -462.700
481.969;    9.234; -158.159;  -73.713
482.255;  -11.430; -439.169; -285.695
482.540;   -9.981; -569.178; -441.680
482.825;    2.336; -395.187; -404.663
483.110;  102.999;  -85.169; -105.696
483.396;  216.681; -840.157; -652.718
483.681;  523.729;  543.826;  730.313
483.966;  179.178; -696.160; -700.712
484.251;   12.828; -404.174; -310.687
484.536;    8.506; -356.165; -378.703
484.822;    0.906; -205.173; -218.687
485.107;  -27.480; -599.152; -502.726
485.392;  137.012;  662.836;  541.296
485.677;   75.259;  354.832;  163.302
485.962;   88.003;  160.843;  270.283
486.247;   78.279;  -14.162;   -8.707
486.532;   45.497; -178.166; -325.701
486.817;  152.590;  381.839;  431.291
487.102;  134.152; -453.154; -514.722
487.387;  739.258; -637.156; -652.718
487.672; 1294.892; -154.164;  -38.705
487.957;  807.997; -394.160; -286.711
488.241;  226.687; -290.150; -314.729
488.526;  780.896; -280.152; -148.726
488.811; 1329.921; -881.177; -818.680
489.096;  955.130; -666.154; -702.723
489.381;  534.017;    3.847;  162.275
489.666;  425.645; -428.161; -510.710
489.950;  181.558;  558.846;  627.277
490.235;  -35.593; -480.151; -458.728
490.520;  -35.781; -756.161; -723.710
490.804;  -50.790; -827.156; -736.719
491.089;    1.878; -469.149; -299.732
491.374;   40.891; -132.164;  -75.704
491.658;   -2.361; -817.147; -717.735
491.943;  159.200; -657.152; -609.727
492.227;  241.548; -178.155;  -38.721
492.512;   32.153; -294.157; -341.717
492.797;  -56.354; -713.149; -716.731
493.081;  -41.983; -588.147; -598.735
493.366;  -37.279; -751.161; -635.711
493.650;  204.271;  831.859;  917.254
493.935;   43.214; -648.147; -447.734
494.219;  -35.917; -778.142; -687.743
494.503;  -26.109; -585.150; -487.730
494.788;   42.794;   46.842;   74.285
495.072;  105.938;  184.850;  434.271
495.356;  163.656; -463.148; -343.733
495.641;  478.874; -812.146; -736.736
495.925;  441.290; -976.156; -903.719
496.209;   35.852; -599.149; -451.732
496.494;  -47.042; -763.142; -544.744
496.778;   17.752; -364.154; -360.722
497.062;  -53.311; -819.156; -627.719
497.346;  -43.726; -869.160; -640.711
497.631;  149.734;  580.852;  560.266
497.915;   77.159;  -64.145;  175.261
498.199;   49.706; -341.157; -277.718
498.483;   44.469; -562.152; -508.725
498.767;  211.614;  301.850;  300.271
499.051;  200.550; -126.149; -100.732
499.335;   46.223; -693.149; -739.731
499.619;  -30.502; -381.129; -423.767
499.903;   24.722; -272.155;  -65.721
500.187;   30.285; -588.153; -316.724
500.471;   15.250; -796.152; -595.727
500.755;  103.869;   62.839;  -96.710
501.039;   21.097; -270.155; -357.721
501.323;   86.973;  -21.141;  264.254
501.607;   32.547; -447.163; -503.706
501.891;    6.282; -607.156; -512.718
502.174;  -37.879; -726.144; -585.741
502.458;   71.204;   89.849;  370.273
502.742;   34.322; -180.138; -191.751
503.026;  108.538; -412.147; -254.734
503.310;  201.783; -437.159; -375.713
503.593;  131.465; -464.147; -325.735
503.877;  116.488; -232.133; -156.760
504.161;  183.962;    2.847;  -50.724
504.444;  138.497; -841.158; -710.716
504.728;  500.465; -487.164; -522.704
505.012;  773.161; -257.150;  -76.729
505.295;  562.995; -417.161; -212.711
505.579;  558.139; -256.156; -496.719
505.862;  820.356; -555.145; -333.738
506.146;  831.260; -681.159; -758.714
506.429;  440.186;  568.841;  461.286
506.713;   71.958; -732.151; -667.728
506.996;  358.377;   90.846;  295.278
507.280;  382.260; -633.165; -474.703
507.563;  271.845; -469.155; -261.721
507.847;  115.486; -423.153; -112.724
508.130;   90.171; -665.161; -456.711
508.413;  122.541; -758.167; -577.700
508.697;  258.516; -151.167;   12.300
508.980;  171.012; -422.153; -312.724
509.263;    2.567; -466.155; -450.720
509.547;   31.761; -124.150;   82.271
509.830;   63.048; -172.160;  140.289
510.113;   77.489;  128.844;  298.281
510.396;   31.018; -530.152; -300.725
510.680;  126.282; -818.145; -812.738
510.963;  519.082;  184.846;  180.277
511.246;  420.693; -493.150; -357.730
511.529;  253.837; -482.145;  -83.739
511.812;  409.059; -250.134;   10.241
512.095;  312.405; -740.151; -396.728
512.378;   89.544; -317.147; -245.736
512.661;   29.955; -703.137; -623.753
512.944;   40.985; -750.142; -637.744
513.227;   77.802; -170.137; -171.752
513.510;   37.646; -479.144; -671.741
513.793;   14.927; -485.140; -435.747
514.076;  143.119;  -43.127;  -39.771
514.359;  125.303; -294.149; -135.732
514.642;   87.188; -442.142; -567.744
514.925;  819.900;  581.860;  561.253
515.208; 1107.931; -498.134; -443.758
515.491;  738.095; -276.133; -182.761
515.773;  402.974; -410.143; -337.742
516.056; 2285.836;  249.864;  409.246
516.339; 3074.565; -754.136; -652.755
516.622; 1907.991; -518.150; -488.730
516.904; 1098.231;  882.857;  975.257
517.187;  490.650; -730.138; -523.752
517.470;  415.230; -568.143; -510.743
517.752;  480.593; -624.136; -470.756
518.035;  378.413; -708.139; -725.749
518.318;  426.815; -799.136; -744.755
518.600; 2685.898; -300.132; -325.762
518.883; 3670.962;  310.858;   88.256
519.165; 1773.318; -585.138; -426.751
519.448;  404.648;  -61.132;  -19.762
519.730;  199.177; -573.126; -415.773
520.013;  312.591;  588.867;  664.240
520.295;  714.036;  -94.134;  -15.759
520.578; 1579.036; -335.131; -305.764
520.860; 1808.748; -254.132;   56.238
521.143;  998.395; -763.135; -584.756
521.425;  492.440; -251.125; -279.775
521.707;  724.245; -622.127; -380.771
521.990; 1929.720; -199.127;  167.229
522.272; 2243.629; -116.140;   -4.748
522.554;  950.075; -237.143; -157.742
522.836;  345.584;  -24.134;   99.241
523.119;  224.037; -496.148; -189.734
523.401;  179.993; -448.130; -314.766
523.683;   91.755; -865.137; -693.753
523.965;  302.623;  408.862;  260.248
524.247;  302.137;   54.878;  170.220
524.529;  220.686; -451.134; -367.759
524.812;  361.970;   -3.130;  191.234
525.094;  952.398; -773.138; -631.751
525.376; 1513.674; -143.124;   78.223
525.658;  909.287; -441.136; -339.754
525.940;   37.508; -805.131; -671.764
526.222;   48.716; -188.136;  -88.755
526.504;   99.530; -190.131;   32.237
526.786;  165.213; -960.133; -647.760
527.068;  277.905; -124.123;  -67.778
527.349;  105.309; -865.137; -774.754
527.631;  130.523; -137.132;   22.238
527.913;  159.219; -664.127; -450.771
528.195;  206.283; -761.125; -639.774
528.477;  279.331;  -93.134;  -30.758
528.759;  156.320; -648.130; -522.766
529.040;   89.279; -569.123; -293.778
529.322;   49.361; -235.125;  -10.774
529.604;  138.147;  -47.130;   93.233
529.886;  112.427; -546.126; -302.773
530.167;  116.039;  232.870;  192.235
530.449;   44.568;    1.853;   63.265
530.731;   22.211; -572.122; -459.779
531.012;   80.607; -513.120; -216.784
531.294;   93.121; -118.116;  -43.792
531.575;  155.140;  290.875;  538.225
531.857;   72.276; -548.135; -266.757
532.138;   99.146; -113.141;   40.254
532.420;  164.797;  294.865;  403.244
532.701;  202.916; -722.133; -751.760
532.983;  327.844;  232.867;  182.239
533.264;  104.550; -243.126;  175.228
533.546;  -28.384; -491.136; -508.755
533.827;   55.062;  173.867;   -1.759
534.109;   33.650; -352.135;  -80.757
534.390;   89.652; -725.132; -582.762
534.671;  252.471; -270.135;  -82.756
534.953;  156.181; -751.123; -611.779
535.234;   28.981; -426.117; -255.789
535.515;  -81.260; -891.119; -735.785
535.796;  -16.610; -431.128; -193.770
536.078; -104.726;-1050.124; -904.777
536.359;   -2.018;  -22.123;    3.221
536.640;  -27.390; -480.125; -197.774
536.921;  152.952;  225.871;  143.232
537.202;  389.944;  -87.138;  -16.751
537.483;  495.710;  251.869;  377.236
537.764;  172.089;   17.870;   98.235
538.045;  -45.145; -543.134; -371.758
538.326;  -22.746; -596.129; -447.768
538.607;   29.671; -686.127; -476.771
538.888;  174.048;   98.879;    5.218
539.169;  215.492; -704.122; -535.781
539.450;  346.626;  236.871;   16.233
539.731;  230.752; -361.121; -182.783
540.012;  132.607;  199.880;  412.216
540.293;   89.769;   82.876;  158.224
540.574;   11.892; -895.113; -717.796
540.855;  461.200;  435.879;  377.218
541.136;  529.640;   47.878;  139.220
541.416;  293.145; -161.130; -220.766
541.697;  215.206; -274.131; -170.763
541.978; 1134.899; -270.135; -315.757
542.259; 1430.971; -211.127; -236.771
542.539;  660.240; -191.116; -186.790
542.820;  182.140;  461.875;  480.225
543.101;  127.684;  -52.145;  -77.738
543.381;   23.720; -638.127; -591.771
543.662;  274.568;  159.873; -254.771
543.942;  636.116; -751.127; -830.770
544.223; 1161.041;  193.878;  161.219
544.504;  753.974; -275.124; -182.777
544.784;  619.727; -592.126; -408.773
545.065; 1771.544;  104.884; -254.791
545.345; 2098.865;  227.881;   14.215
545.626; 1397.367;  -14.113; -108.796
545.906;  962.138;   77.869;   98.235
546.186;  410.481;   92.874;  -95.773
546.467;  212.401;   99.877;  -95.778
546.747;  343.240;  264.884;  327.210
547.027;  414.597;   91.876;  111.223
547.308;  346.415; -376.127; -530.770
547.588;  418.805;  299.871;  371.232
547.868;  203.539;  458.870;  588.235
548.149;  202.002;  609.885;  593.207
548.429;  139.719; -347.127; -299.771
548.709;  216.431; -645.120; -461.784
548.989;  529.000;   84.882;   88.213
549.269; 2305.446;   10.868;  139.239
549.550; 5269.781;  215.877;  117.222
549.830; 4728.660; -758.111; -556.799
550.110;  942.292; -468.110; -320.801
550.390;  889.636; -128.122;  -56.779
550.670; 1241.962; -868.114; -783.795
550.950;  888.875; -509.121; -471.782
551.230;  196.021;  549.879;  460.218
551.510;   -1.876; -381.121; -326.782
551.790;   31.450; -173.109; -127.803
552.070;  270.776;  940.877; 1181.223
552.350;  465.669; -492.119; -377.786
552.630;  647.944;   -2.121;   77.219
552.909;  403.045;  181.884;   73.209
553.189;  277.278;  -49.132;   33.237
553.469;  212.494; -703.119; -514.786
553.749;  217.197; -469.127; -357.772
554.029;  181.711;   33.883;  -24.790
554.308;  150.906; -154.115;  -37.794
554.588;   85.264; -196.128; -204.770
554.868;   91.526; -366.121;  -47.782
555.147;  172.203; -114.115;  -46.793
555.427;  654.297; -260.116; -250.792
555.707; 4283.701; -284.115; -200.793
555.986; 5206.113; -719.111; -538.800
556.266; 2710.414;   23.884;   72.210
556.546;  138.974; -888.121; -675.782
556.825;  286.110; -657.114; -556.794
557.105; 1962.587; -125.128;   17.230
557.384; 2305.493;  122.884;  187.209
557.664;  886.596; -717.116; -508.792
557.943;  131.700; -557.121; -411.782
558.222;  201.978; -345.118; -344.788
558.502;  308.004; -116.115;  -76.793
558.781;  535.325;  194.885;  499.208
559.061;  443.103; -232.118; -227.788
559.340;  335.133;  302.883;  353.211
559.619;  776.789;   93.884;  148.210
559.899; 1132.610; -239.117; -266.789
560.178; 1046.629; -778.115; -593.793
560.457; 3420.837; -623.117; -562.790
560.736; 4828.739; -472.111; -482.800
561.015; 3185.060; -500.128; -502.769
561.295;  410.245;  180.893;  215.193
561.574;  361.501;  119.885;  116.207
561.853;  517.155;  274.891;  303.197
562.132;  540.506;  -45.114;  182.206
562.411;  484.394;  396.879;  553.219
562.690;  166.399; -592.115; -458.792
562.969;  148.024;  472.888;  630.203
563.248;  483.892; 2966.878; 2487.219
563.527;  307.989; -290.111; -408.800
563.806;  434.669; -650.127; -521.771
564.085;  434.911; -297.105; -206.810
564.364;  275.863; -594.117; -405.790
564.643;  564.070; -276.121; -223.781
564.922; 2051.699;  221.890;  397.198
565.201; 2112.652; -640.109; -700.803
565.479;  912.023; -297.115; -219.792
565.758;  374.587; -810.128; -712.770
566.037;  515.728; -155.109; -100.803
566.316;  261.344; -286.116;  -28.791
566.595;   66.226;  -17.115;  -12.793
566.873;  104.141; -166.111;  -79.801
567.152;  -52.252; -490.113; -590.797
567.431;    8.290; -113.116;    6.210
567.709;   30.696; -344.107; -212.807
567.988;  287.360; -810.114; -769.794
568.266;  567.301; -160.115;  -68.793
568.545;  414.408; -644.100; -514.819
568.824;  633.623;  160.885;  356.208
569.102;  608.285; -351.114; -235.794
569.381;  272.072; -492.116; -407.792
569.659;  -40.455; -553.113; -553.796
569.938;   41.340; -743.122; -465.780
570.216;  114.506; -225.109; -225.804
570.494;  -12.437; -632.114; -572.795
570.773;   26.823;  202.879;  114.218
571.051;   25.729; -373.123; -357.778
571.330;   57.967; -221.113; -174.796
571.608;   46.626; -181.098; -173.823
571.886;  -80.842; -671.111; -581.799
572.164;  -62.249; -739.121; -621.782
572.443;  -47.310; -562.105; -512.811
572.721;  -22.013; -399.117; -289.790
572.999;  -28.070; -280.117; -168.788
573.277;   86.833;  379.894;  620.191
573.555;  311.935;   94.894;   37.190
573.834; 1483.830;  -86.117; -114.788
574.112; 1734.873;  880.893;  811.193
574.390;  539.465; -143.111;  -96.801
574.668;   13.050;  -91.112;  -61.797
574.946;  -13.815; -165.106; -187.810
575.224;   12.602;   71.891;  -16.803
575.502;   -8.684; -200.116; -204.791
575.780;  -83.099; -767.112; -829.798
576.058;  235.789; 1589.889; 1004.200
576.336;  -16.405; -210.110; -129.801
576.614;  -42.974; -511.112; -340.798
576.891;   82.505; -711.115; -823.794
577.169;  523.439; -158.108; -285.805
577.447;  624.197;  169.893;  202.193
577.725;  283.805;  629.888;  854.201
578.003;   15.178;  -71.112; -371.798
578.280;  103.974; -208.104; -242.812
578.558;   63.404; -450.115; -422.793
578.836;  139.213; -210.114; -145.795
579.114;   56.749; -630.112; -670.797
579.391;   69.857;   -6.117;  -18.789
579.669;  -72.919; -595.114; -704.794
579.947;  189.844; -326.107; -127.806
580.224;  362.694; -692.107; -524.806
580.502;  355.873;  127.893;   76.193
580.779;   39.338;  -42.117;   75.210
581.057;  -73.819; -584.109; -470.804
581.334;  -95.636; -726.102; -695.815
581.612;   47.961;   54.895;  511.190
581.889;  -20.923;  -83.101; -129.818
582.167;  -23.084; -298.099; -190.821
582.444; -105.578; -845.102; -814.817
582.721;  121.222;  657.899;  715.183
582.999;   59.264; -326.100; -167.821
583.276;  604.534; -812.123; -713.779
583.553;  797.167; -364.102; -294.816
583.831;  264.545; -607.104; -631.812
584.108;   62.362;  349.892;  174.195
584.385;    7.688; -122.102;  -98.815
584.662;  -61.459; -651.111; -828.801
584.940;   39.515;  204.889;  204.199
585.217;  -14.856;  -73.113; -303.796
585.494;   30.899;   71.890;  118.198
585.771;  221.357; -250.109; -354.804
586.048;  549.894; -196.113;  -76.796
586.325;  360.269; -721.110; -773.801
586.602;   93.299;  230.896;  213.188
586.879;  -10.865; -499.100; -580.820
587.156;   55.062; -156.105; -331.810
587.433;  -21.855; -701.102; -667.817
587.710;   70.726;  152.888;  234.202
587.987;  317.342; -264.105; -236.811
588.264;  843.528;  315.888;  387.202
588.541; 1407.551;  -61.104;   26.187
588.818; 2874.634;   72.892;  171.196
589.095; 2448.772; -163.104; -174.812
589.371;  423.230; -459.109; -414.804
589.648;   17.098; -581.107; -437.807
589.925;   48.914; -517.114; -621.795
590.202;   34.951; -741.112; -607.798
590.478;  103.544; -166.105;  -73.811
590.755;  275.240; -241.108; -132.806
591.032; 2667.546; -741.110; -699.802
591.308; 3708.467; -732.094; -790.831
591.585; 1925.620; -573.110; -560.802
591.862;  165.271;-1056.102; -950.817
592.138;   64.288; -475.108; -474.805
592.415;  152.350; -486.104; -495.813
592.691; 1545.223;  460.896;  518.188
592.968; 1981.553; -208.098; -123.824
593.244;  959.815; -695.116; -595.790
593.521;   76.821; -105.102;  -42.817
593.797;   -7.938; -810.122; -720.780
594.074;  361.116; -611.096; -588.826
594.350;  697.477;  828.905;  729.172
594.626;  318.916; -303.111; -283.801
594.903;  126.622; -643.101; -645.817
595.179;  208.454;  243.896;  418.187
595.455;   13.824; -136.107; -150.807
595.731;    1.130;  -19.103;  -38.814
596.008;  -24.315; -464.111; -434.800
596.284;   47.163; -187.100; -242.820
596.560;   78.499; -501.093; -493.833
596.836;  219.089; -173.105;  -70.810
597.112;  369.714; -582.108; -437.805
597.388;  296.814;  -49.097;  -48.826
597.665;  126.897;  437.887;  530.203
597.941;  -66.347; -572.089; -658.839
598.217;   22.624; -323.110; -293.802
598.493;  272.059;   61.891; -204.804
598.769;  555.232; -175.100;  -50.819
599.045;  337.217; -490.108; -562.806
599.321;   62.637; -193.100; -261.820
599.597;  158.908; -355.109; -476.804
599.872;  508.701;  409.896;  429.187
600.148;  399.916;  -61.097; -172.826
600.424;  297.597;   91.893;  202.193
600.700;  270.999; -170.107; -280.807
600.976;  126.485; -442.097; -464.825
601.252;  260.179; -226.109; -272.803
601.527;  243.202; -833.104; -840.813
601.803;  170.095; -453.105; -404.812
602.079;  203.657; -124.100; -118.819
602.354;  609.909; -620.092; -531.835
602.630;  874.319; -140.113; -482.796
602.906; 2477.902; -910.101; -863.818
603.181; 7298.569; -627.119; -534.786
603.457; 6181.938;   98.903; -278.826
603.733;  915.953; -605.120; -626.783
604.008; 1011.686; -245.106; -164.810
604.284; 3299.873; -636.101; -580.817
604.559; 2832.530;   -3.112;  -42.799
604.835;  526.989; -163.105; -225.810
605.110;  464.592; -732.099; -892.821
605.385;  746.676;  224.907;  267.167
605.661;  703.305; -625.095; -729.829
605.936; 1274.092; -664.108; -737.806
606.211; 1087.787;  -17.103; -170.815
606.487;  224.158; -329.114; -376.794
606.762;   27.820; -791.119; -745.786
607.037;  -18.211; -501.105; -433.810
607.313;  -41.452; -589.096; -574.828
607.588;    5.085; -375.106; -137.810
607.863;   46.577;  -28.101; -143.818
608.138;  192.923;  513.890;  516.198
608.413;   27.221; -576.099; -592.822
608.688;   57.438; -203.108; -267.805
608.964;  225.505; -509.106; -218.809
609.239;  293.011; -107.105; -212.810
609.514;  263.344;  281.895;  240.188
609.789;  696.749; -187.104; -716.812
610.064;  916.547; -435.096; -609.827
610.339;  952.855; -855.109; -799.804
610.614; 1304.412; -131.100; -315.820
610.889;  742.369;  215.895;  107.188
611.163;   43.670; -407.104; -591.812
611.438;   81.910;   81.886; -167.794
611.713;    0.173; -467.101; -499.817
611.988;   72.876; -144.101; -328.818
612.263;  -12.011; -771.102; -717.815
612.538;  219.619;  385.887;  251.204
612.812;  206.788; -832.100; -911.820
613.087;  148.451; -358.098; -338.823
613.362;  -43.826; -497.107; -557.807
613.637;   40.483;  261.897;  138.186
613.911;  -10.016; -256.092; -345.835
614.186;  135.547; -249.107; -292.807
614.460;  751.604; -842.081; -758.854
614.735;  863.252;  -55.087;  -17.843
615.010;  170.567;   43.912;  -82.841
615.284;  256.038;  360.892;  246.195
615.559;  408.708; -792.092; -955.835
615.833;  327.094;  -76.099;  -87.822
616.108;    3.095; -225.090; -390.837
616.382;  138.728;  274.913;  402.156
616.656;  170.820; -241.090; -232.837
616.931;  550.070; -785.099; -700.822
617.205; 1149.953; -973.104; -979.813
617.480; 1057.013;  -91.125;    6.225
617.754;  185.510; -396.125; -128.774
618.028;   18.531; -369.129; -382.768
618.302;   81.211;   73.892;  -25.805
618.577;  -42.816; -371.103; -518.815
618.851;  -61.573; -399.109; -600.803
619.125;  -41.464; -335.134; -378.759
619.399;  -33.022; -244.104; -374.813
619.673;  -36.202; -330.115; -515.792
619.947;  -46.838; -333.114; -448.795
620.222;  -21.008; -198.110; -204.801
620.496;  -10.950;  -47.121;  -96.782
620.770;   28.092; -187.122;  -93.781
621.044;  204.562;  323.895;  346.190
621.318;  778.853; -653.120; -614.783
621.592;  731.076; -430.121; -409.783
621.866;  432.631; -476.112; -572.799
622.140;   29.316; -207.116; -356.791
622.413;   59.635;  138.889;  112.200
622.687;  -33.951; -746.101; -492.817
622.961;   38.936; -130.108; -143.805
623.235;  -58.364; -633.111; -661.800
623.509; -104.581; -816.105; -848.811
623.783;   13.870;  -12.107;   48.193
624.056;  -17.971; -254.120; -280.783
624.330;   49.650;   63.888;   -3.797
624.604;   67.538; -271.116; -355.790
624.877;   70.697;  180.890;   26.198
625.151;   45.282; -249.114; -238.794
625.425;  -31.620; -150.103; -283.814
625.698;  -54.586; -367.119; -374.785
625.972;  -78.776; -799.110; -765.802
626.245;   80.340;  685.884;  484.210
626.519;  -51.067; -426.120; -340.784
626.792;  -30.301; -192.107; -380.807
627.066;  -91.565; -485.122; -662.779
627.339;  -87.830; -736.110; -663.802
627.613;   48.807;  351.880;  148.216
627.886;   52.701;  187.891; -612.803
628.160;  -13.647;  312.880; -161.783
628.433;  -86.784; -695.125; -703.775
628.706;  -77.392; -517.120; -615.784
628.979;   28.097;  296.876;  117.223
629.253;  -84.206; -785.119; -833.786
629.526;  394.025; -334.126; -253.772
629.799;  404.480; -641.123; -479.778
630.072;  186.082; -497.128; -516.769
630.346;  -56.935;-1115.116;-1080.790
630.619;  481.100; -467.107; -545.808
630.892;  673.637;  709.889;  593.200
631.165;  362.678;  790.896;  679.187
631.438;  -66.372;-1092.112;-1055.798
631.711;   57.958;  453.877;  257.221
631.984;  -61.890; -523.117; -624.789
632.257;  -58.118; -636.117; -681.789
632.530;  -61.786; -412.119; -433.785
632.803;   18.030; -109.115;    7.207
633.076;  -68.149; -360.123; -422.777
633.349;    7.811;  173.872;  121.231
633.622;  -38.437; -187.119; -240.785
633.895; -130.971; -903.120; -823.783
634.167;  -68.698; -496.126; -525.773
634.440;   -0.479;  -19.116; -137.792
634.713;   -3.108;  -22.119; -120.786
634.986;   82.526;  593.871;  453.233
635.258;  -81.647; -507.115; -597.793
635.531;   89.528;  742.882; -343.788
635.804;  -31.466; -303.117; -318.789
636.077;  -87.608; -830.116; -852.791
636.349;   -0.423; -586.115; -474.793
636.622;  395.699; 1695.874; 1392.228
636.894;  268.334; -474.120; -909.784
637.167;  177.618; -836.127; -789.771
637.439;   31.290; -278.128; -213.770
637.712;  -48.399; -312.126; -293.772
637.984;  -78.482; -635.116; -707.791
638.257;  376.102;  515.877;  488.222
638.529;  584.717; -881.125; -924.776
638.802;  250.757; -508.128; -449.769
639.074; -122.459; -927.122; -952.781
639.346; -122.473; -942.135; -930.757
639.619;   -1.839;  -79.142; -319.744
639.891;   -0.090;  -83.122; -168.779
640.163;  -83.463; -689.122; -756.780
640.435;   38.088;  273.878;  103.220
640.708;   -2.735;  -72.122; -132.780
640.980;  -28.683; -366.122; -362.781
641.252;  184.294;  -25.121;  -71.781
641.524; 1874.146;  580.879;  573.219
641.796; 1888.423;-1094.121; -907.782
642.068;  345.875; -191.121; -300.782
642.340;  -44.299; -486.121; -566.783
642.613;   38.228;  294.880;  323.217
642.885; -109.345; -787.120; -878.783
643.157;  -38.718; -810.120; -658.784
643.428;   60.284;  170.880;  218.216
643.700;  -70.689; -498.120; -425.784
643.972;  -43.112;  -16.119; -133.785
644.244;  -78.386; -474.119; -559.785
644.516;  -60.959; -250.119; -114.786
644.788;   56.293;  662.881;  548.214
645.060;  -14.930;  -12.119; -124.786
645.332;  -99.053; -525.118; -535.787
645.603;   27.574;  479.882;  342.213
645.875;  -77.025; -334.118; -369.787
646.147;  146.652; 1487.882; 1242.212
646.418;  -47.346; -931.117; -918.788
646.690;  174.906; -714.117; -715.789
646.962;   52.333; -413.117; -451.789
647.233;  -28.640;   15.883;   11.211
647.505;  -99.213; -595.117; -475.790
647.776;   17.763;  328.884;  229.210
648.048;   -5.960; -248.116; -418.790
648.320;  -70.533; -752.116; -679.791
648.591; -149.881;-1055.116; -958.791
648.862;  -97.604; -505.116; -577.792
649.134;   23.148;  115.885;  198.208
649.405;  -45.175; -661.115; -618.792
649.677;  -36.224; -475.115; -598.793
649.948;  -12.472; -181.115; -296.793
650.219;   -1.345;  -37.115; -147.793
650.491;  -81.793; -431.114; -520.794
650.762; -114.616; -705.114; -731.794
651.033;  -90.914; -437.114; -424.795
651.304;  -84.562; -743.114; -728.795
651.576;  -68.386; -680.114; -645.795
651.847;  -37.709; -250.113; -140.796
652.118;  -32.207;  -32.113; -189.796
652.389;  -98.830; -639.113; -722.796
652.660;  -43.378; -147.113;  -89.797
652.931; -135.126; -897.112; -871.797
653.202;  -82.150; -382.112; -541.798
653.473;  -56.973; -633.112; -533.798
653.744;  161.079; -595.112; -590.798
654.015;  168.031; -356.112; -303.799
654.286;  -62.717; -642.111; -663.799
654.557;  -51.190; -586.111; -521.799
654.828; -155.838;-1114.111;-1088.800
655.099;  -84.562; -404.111; -291.800
655.370;  -99.685; -427.111; -543.801
655.641; -127.258; -656.110; -714.801
655.911; -115.956; -618.110; -638.801
656.182;   46.596;  437.890;  387.198
656.453;   78.048;  830.890;  746.198
656.724;  -74.375; -466.110; -426.802
656.994;  -78.799; -553.109; -568.803
657.265; -104.997; -862.109; -873.803
657.536;  -82.295; -500.109; -377.804
657.806; -100.768; -561.109; -593.804
658.077; -133.216; -866.109; -950.804
658.347;  -84.714; -523.108; -598.805
658.618; -107.088; -646.108; -694.805
658.888;  -10.486;  -41.108;  112.195
659.159;  -83.834; -432.108; -548.806
659.429;  -27.157; -292.108; -349.806
659.700;   18.345; -435.107; -390.807
659.970;    0.872; -370.107; -359.807
660.241;   25.299; -754.107; -921.807
660.511;  533.525; -147.107; -174.808
660.781;  103.127; -793.106; -748.808
661.052;  -46.346; -222.106; -381.808
661.322;  -15.494;   21.894;   -9.809
661.592;   14.583;  257.894;  148.191
661.862;  -81.340; -369.106; -382.810
662.133;  -97.813; -551.105; -502.810
662.403; -103.987; -770.105; -676.810
662.673;  -63.060; -256.105; -213.811
662.943; -103.283; -612.105; -551.811
663.213;   -5.031;  -85.105;  -81.811
663.483;  -81.704; -593.104; -568.812
663.753;  -42.152; -194.104; -152.812
664.023;  -17.200;   68.896;  -32.813
664.293;  -44.949; -319.104; -126.813
664.563; -111.797; -694.104; -648.813
664.833; -122.695; -743.103; -608.814
665.103; -131.293; -730.103; -793.814
665.373; -115.141; -766.103; -806.814
665.643;  -82.839; -863.103; -918.815
665.913;   53.487; -534.103; -714.815
666.182;  151.289; -685.102; -719.816
666.452;  289.566;  -22.102;  -89.816
666.722;   -6.507; -724.102; -784.816
666.992; -114.905; -948.102; -921.817
667.261; -104.478; -824.102; -808.817
667.531;  201.599;  134.899;   45.183
667.801;  551.200; -440.101; -412.818
668.070;  236.277;  714.899;  697.182
668.340;  -92.471; -883.101; -840.819
668.609;   87.081;  588.900;  301.181
668.879;  -71.167; -490.100; -558.819
669.149;  -68.840; -539.100; -516.820
669.418; -113.338; -698.100; -726.820
669.688;  -24.262; -482.100; -666.820
669.957;   86.290; -423.099; -546.821
670.226;  -23.483; -268.099; -331.821
670.496;  -83.631; -431.099; -635.822
670.765;  -78.279; -418.099; -501.822
671.034; -135.477; -872.099; -828.822
671.304;   -8.676;   55.902; -111.823
671.573; -161.024;-1085.098; -957.823
671.842;   88.053; -380.098; -294.823
672.112;   30.305; -692.098; -586.824
672.381;    0.282; -239.098; -214.824
672.650; -139.016;-1005.097;-1021.825
672.919;  -79.814; -631.097; -507.825
673.188;  -93.263; -681.097; -878.825
673.457; -141.661;-1101.097;-1143.826
673.726;  -80.659; -579.096; -646.826
673.995;  -25.507; -533.096; -479.826
674.265;  -22.030; -263.096; -333.827
674.534;    9.372; -183.096; -235.827
674.802;   11.949; -618.096; -703.828
675.071; 1061.925; -886.095; -801.828
675.340; 4279.077; -464.095; -339.828
675.609; 1409.154;  103.905;   82.171
675.878;  119.031; -949.095; -893.829
676.147;   33.208;  -26.095;   -8.829
676.416;   96.435; -210.094; -294.830
676.685;  760.537; 1000.906; -622.830
676.953;  150.363; -603.094; -452.831
677.222;  -29.085; -193.094; -273.831
677.491;  -17.733;  -24.094; -127.831
677.759;   -5.756;   11.907;  172.168
678.028;  -20.704; -279.093; -222.832
678.297;   -5.577;   71.907;  197.168
678.565; -124.151; -898.093; -944.833
678.834;  -53.399; -311.093; -268.833
679.102;  -80.322; -411.092; -391.834
679.371; -137.020; -898.092; -727.834
679.639; -134.568; -797.092; -786.834
679.908; -121.866; -794.092; -724.835
680.176; -151.689; -895.091; -941.835
680.445;  -64.838; -346.091; -352.835
680.713;  -21.261;  -58.091;  -23.836
680.982;  -96.009; -523.091; -525.836
681.250;  -94.757; -578.091; -507.837
681.518;  -95.105; -534.090; -751.837
681.787;   -6.403; -204.090; -167.837
682.055;  -58.576; -490.090; -422.838
682.323; -149.225; -993.090; -992.838
682.591;   41.802; -216.090; -538.838
682.859;   93.754;    9.911;  -35.839
683.128;   11.081;  232.911;  497.161
683.396; -156.217;-1102.089;-1122.840
683.664;  -37.365; -241.089;   21.160
683.932;   -1.564;  144.911;  -76.840
684.200;  -68.287; -576.088; -320.841
684.468;  -36.135;  -73.088; -124.841
684.736;  -27.733; -214.088; -175.841
685.004; -120.481;-1024.088; -982.842
685.272;  -33.754; -880.088; -774.842
685.540;  -65.902; -499.087; -557.843
685.808;  -73.976; -651.087; -682.843
686.076;  -96.249; -894.087; -969.843
686.343;  -47.197; -601.087; -815.844
686.611;   37.180; -195.087; -224.844
686.879;  480.157; -530.086; -553.844
687.147; 3515.859; -483.086; -480.845
687.414; 1022.436;  -12.086; -169.845
687.682;   18.537; -658.086; -757.846
687.950;  336.264;  259.915;  263.154
688.217;   11.266; -792.085; -760.846
688.485;   12.143; -632.085; -636.847
688.753;  570.220;  -11.085; -102.847
689.020;  202.547; -820.085; -851.847
689.288;  -94.776; -853.084; -787.848
689.555;  -36.725; -195.084; -148.848
689.823;  -45.598; -241.084; -345.849
690.090;  -79.271; -546.084; -651.849
690.358; -130.419; -877.084; -897.849
690.625;   16.933;  120.917;   45.150
690.892;  -78.090; -403.083; -369.850
691.160;  -33.914;   72.917;  -35.850
691.427;    7.838;  141.917;  130.149
691.694; -127.635; -855.083; -929.851
691.962; -150.183;-1177.082;-1060.852
692.229;    8.669;  127.918;   56.148
692.496;   79.271;  130.918;  -49.852
692.763;   17.623; -164.082; -201.853
693.031;  -68.126; -739.082; -716.853
693.298;  -18.124; -509.081; -368.853
693.565;  315.803; -155.081; -163.854
693.832; 1385.280;   -5.081;   -9.854
694.099;  164.457; -643.081; -642.855
694.366;  -57.366; -882.081; -896.855
694.633;  -47.214; -920.080; -633.855
694.900;  750.962; 4367.920; -114.856
695.167;  453.264; -214.080; -380.856
695.434;  104.191; -646.080; -623.856
695.701;  191.143;  121.921;  -61.857
695.968;  479.445; -365.079; -361.857
696.234;  950.847; -415.079; -646.858
696.501;10217.923; -776.079; -614.858
696.768; 5342.625; -554.079; -617.858
697.035;  324.102; -632.078; -667.859
697.302;   38.554; -448.078; -552.859
697.568;   -3.394; -458.078; -497.859
697.835;  -45.467; -683.078; -624.860
698.102;  -19.065; -498.078; -407.860
698.368;   73.411;  384.923;  396.139
698.635;  -32.087;  -47.077; -424.861
698.901;  -20.835; -240.077; -348.861
699.168;   81.067; -534.077; -456.862
699.435;   73.194;  -72.077;  -13.862
699.701; -101.479; -868.076; -764.862
699.968;    5.498;  144.924; -441.863
700.234; -103.351; -783.076; -822.863
700.500;  -60.874; -448.076; -539.864
700.767;   11.628;   -1.075;   26.136
701.033; -122.895;-1015.075; -963.864
701.299;  -49.868; -450.075; -483.865
701.566;  110.509;  950.925;  763.135
701.832;   18.760;  -31.075;  -76.865
702.098;  -83.613;-1054.074;-1034.866
702.365;  -92.286;-1098.074;-1030.866
702.631;  -19.734;-1038.074;-1063.867
702.897; 1371.993; -765.074; -676.867
703.163; 2367.020;  348.926;  254.133
703.429;  170.772; -256.073; -273.868
703.695;  -48.077; -796.073; -792.868
703.961;    4.875; -214.073; -210.868
704.227;  -47.448; -630.073; -725.869
704.493;  130.829;  613.927;  510.131
704.759;  -28.769; -565.072; -540.870
705.025;   31.558; -203.072; -194.870
705.291;  -16.015; -666.072; -562.870
705.557;  196.361;  719.928;   34.129
705.823;   21.038; -742.072; -694.871
706.089;  138.565; -307.071; -326.871
706.355;  329.067; -315.071; -244.872
706.620; 5161.794; -776.071; -729.872
706.886; 7785.371; -309.071; -362.873
707.152;  746.173; -818.070; -973.873
707.418;  -25.301;-1153.070;-1186.873
707.683;   -5.074; -550.070; -530.874
707.949;  -48.172; -547.070; -578.874
708.215;   -2.820; -129.070; -207.874
708.480;  -32.818; -520.069; -420.875
708.746;  107.034;   68.931;   28.125
709.011;  -70.015; -578.069; -612.876
709.277;  -61.463; -538.069; -543.876
709.542;  -60.136; -428.069; -387.876
709.808;   -0.659;  -59.068;   89.123
710.073;  -81.032; -577.068; -695.877
710.339;  -34.255; -242.068; -228.877
710.604;   75.847; -780.068; -845.878
710.869;  334.098; -277.068; -366.878
711.135;  -74.100; -715.067; -628.879
711.400;  -81.973; -507.067; -608.879
711.665;  -65.571; -404.067; -479.879
711.931;  -96.769; -661.067; -677.880
712.196; -119.442; -876.067; -954.880
712.461;  113.210; -402.066; -490.880
712.726;  169.561; -727.066; -771.881
712.991;  -75.637; -647.066; -664.881
713.256;  -46.185; -350.066; -332.882
713.521;  -54.933; -417.065; -381.882
713.787;  -62.681; -454.065; -472.882
714.052;  -35.904; -214.065; -400.883
714.317;  -98.678;-1045.065; -981.883
714.581;  973.574; -374.065; -268.883
714.846; 1403.626; -822.064; -888.884
715.111;  121.728;  261.936;  257.116
715.376;  -15.695;  -86.064; -223.885
715.641;  -16.618; -365.064; -367.885
715.906;  311.659;   15.936; -551.885
716.171;  151.660;  221.937;  209.114
716.436;   42.037;  -78.063; -104.886
716.700;  -99.836; -818.063; -692.886
716.965; -127.509; -794.063; -807.887
717.230;  -62.232; -339.063; -392.887
717.494;  -30.130;  -40.062; -134.888
717.759;  -78.328; -784.062; -640.888
718.024;    8.773;  269.938;  250.112
718.288;   88.675;  685.938;  395.111
718.553; -145.673; -803.062; -977.889
718.817; -140.996; -883.061; -899.889
719.082;  -31.494; -115.061; -125.890
719.346; -140.092;-1000.061; -947.890
719.611;  -38.290; -300.061; -255.891
719.875;  -75.414; -568.060; -537.891
720.140;  -65.337; -453.060; -603.891
720.404;   51.115; -136.060; -249.892
720.668;  894.692; -475.060; -411.892
720.933;  364.419;  146.940;  137.108
721.197;  -93.204; -667.059; -600.893
721.461; -129.528; -851.059; -826.893
721.725;  -11.601;  -21.059; -250.894
721.990;  -65.724; -284.059; -204.894
722.254;  -24.422;  -26.059; -108.894
722.518;  -83.270; -286.058; -442.895
722.782;  -94.793; -743.058; -594.895
723.046;  127.309;  614.942;  570.105
723.310;   15.985;  374.942;  210.104
723.574; -101.138; -654.058; -614.896
723.838;  -98.011; -576.057; -642.897
724.102;  -40.659; -226.057; -239.897
724.366; -143.207;-1032.057; -978.897
724.630;  -97.580; -749.057; -571.898
724.894;  -69.978; -722.057; -514.898
725.158;  -18.877;   38.944; -295.898
725.422;  -45.200; -394.056; -327.899
725.685;  -62.023; -441.056; -349.899
725.949;  -80.246; -566.056; -519.900
726.213;  -72.744; -732.056; -811.900
726.477;  197.008;-1020.055; -933.900
726.740;  162.809; -274.055; -104.901
727.004;  325.186; -384.055; -510.901
727.268; 3243.138; -442.055; -400.901
727.531;  947.290; -961.055; -775.902
727.795;  -35.708; -713.054; -673.902
728.059;  -52.181; -552.054; -557.903
728.322;  -73.054; -841.054; -669.903
728.586;   39.647; -692.054; -701.903
728.849;  -73.201; -695.053; -756.904
729.112; -111.074; -812.053; -912.904
729.376; -124.872; -959.053; -905.904
729.639;  -73.595; -536.053; -536.905
729.903;  -96.818; -733.053; -699.905
730.166;  -48.891; -437.052; -399.906
730.429;  -24.290; -317.052; -468.906
730.693;  -71.038; -355.052; -894.906
730.956;  202.914;  810.948;  651.093
731.219;  749.166; -310.052; -103.907
731.482;  152.443;-1003.051; -894.907
731.745;  132.420; -794.051; -935.908
732.009;   33.497;  -30.051;   50.092
732.272;  -95.427; -904.051; -771.909
732.535;  -40.450; -300.051; -310.909
732.798; -142.673;-1083.050;-1166.909
733.061;  -56.321; -430.050; -456.910
733.324;   16.281;   31.950; -180.910
733.587;   51.308;  290.950;  365.090
733.850;  -55.216; -973.049;-1050.911
734.113;   30.411;   33.951;   32.089
734.376;    5.863; -328.049; -447.912
734.639;  231.190; 1188.951; 1011.088
734.901;   66.242; -180.049; -402.912
735.164;  530.744; -883.048; -837.913
735.427; 1391.121; -166.048; -355.913
735.690;  125.272; -205.048; -234.913
735.952;  -29.551; -923.048; -925.914
736.215;  -22.274;-1113.048;-1009.914
736.478;   47.503; -771.047; -774.915
736.740;  224.030;   33.953;  129.085
737.003;  662.582; -658.047; -672.915
737.266; 4340.359;  -94.047;   46.084
737.528;  471.135; -682.047; -660.916
737.791;  316.712; -316.046; -327.916
738.053;  779.214;  465.954;  649.083
738.316;10436.966; -162.046; -136.917
738.578; 7846.468; -770.046; -736.918
738.841;  458.595; -382.046; -446.918
739.103;  190.521; -875.045; -777.918
739.365;  530.023;   79.955;  -69.919
739.628;   19.650; -884.045; -805.919
739.890;  -23.023; -758.045; -710.919
740.152;  -32.646; -692.044; -754.920
740.414;   -1.394; -408.044; -359.920
740.677;  -46.017; -785.044; -634.921
740.939;  -44.366; -587.044; -487.921
741.201;  277.336; -432.044; -572.921
741.463;   52.138; -689.043; -745.922
741.725;   15.515;  -21.043; -199.922
741.987;   48.617;  220.957;  116.078
742.249;   10.544; -751.043; -859.923
742.511;  238.146; -703.043; -794.923
742.773;   14.572; -546.042; -546.924
743.035;  143.174;  796.958;  533.076
743.297;  -41.724; -963.042;-1013.924
743.559;  762.453; -278.042; -262.925
743.821;   80.730; -735.042; -744.925
744.083;   14.707;  -44.041; -149.925
744.345;  -93.366; -869.041; -892.926
744.607;   37.310;   75.959;  122.074
744.868;  -50.413; -490.041; -554.927
745.130;  -95.911; -994.041;-1008.927
745.392;   46.391;   -1.040;  -44.927
745.653;   -0.907; -411.040; -378.928
745.915;  140.420;  896.960;  631.072
746.177;   62.246;   35.960;  -43.928
746.438;   -3.752; -428.040; -543.929
746.700;  -35.175; -947.039; -988.929
746.961;   -1.023; -659.039; -740.930
747.223;  131.554; -190.039;  -74.930
747.484;   80.381; -391.039; -471.930
747.746;  141.533;  -23.038; -106.931
748.007;  122.509; -647.038; -689.931
748.269;  301.786; -468.038; -440.931
748.530;  522.213; -852.038; -638.932
748.791;  282.190; -354.038; -420.932
749.053;  436.242;  286.963;  163.067
749.314;  469.844; -236.037; -169.933
749.575;  529.021; -945.037; -905.933
749.836;  886.097; -217.037;   86.066
750.098; 2424.199;  -60.037;  -21.934
750.359;37443.551;  414.964;  555.066
750.620;10215.153; -121.036; -220.935
750.881; 1077.730; -585.036; -513.935
751.142; 1370.757; -950.036; -938.936
751.403;16664.133; -789.036; -705.936
751.664; 7931.460;-1034.035; -999.936
751.925;  501.437; -175.035; -262.937
752.186;  290.789; -298.035; -278.937
752.447;  137.891; -590.035; -445.937
752.708;   57.668; -532.035; -648.938
752.969;   -4.805; -566.034; -576.938
753.230;   -3.704; -777.034; -672.939
753.491;    7.998; -650.034; -631.939
753.751;   72.450;  109.966;   19.061
754.012;   96.802;  258.967;  181.060
754.273;   56.079; -174.033;  -71.940
754.534;   25.181; -487.033; -580.940
754.794;  -83.242; -926.033; -911.941
755.055;  156.534; 1051.967;  881.059
755.316;  -38.414; -700.032; -566.942
755.576;  -11.787; -606.032; -576.942
755.837;  -45.985; -527.032; -695.942
756.097;  -40.808; -530.032; -564.943
756.358;  -75.131; -725.032; -770.943
756.618;  -43.454; -705.031; -641.943
756.879;    9.922; -254.031; -349.944
757.139; -106.551;-1098.031;-1116.944
757.400;  -53.199; -538.031; -553.945
757.660;   -9.897; -365.031; -401.945
757.920;   11.530; -266.030; -228.945
758.181;   -6.593; -468.030; -351.946
758.441;  -97.842; -870.030; -809.946
758.701;  -14.365; -308.030; -215.946
758.961;  -27.713; -220.030; -278.947
759.222;  -42.986; -574.029; -502.947
759.482;  -75.409; -683.029; -723.948
759.742;  -86.507; -706.029; -547.948
760.002;   20.270;  -83.029; -143.948
760.262;   27.971;   50.972;  182.051
760.522;  -17.002; -498.028; -574.949
760.782;  -55.750; -738.028; -612.949
761.042;  -25.448; -618.028; -573.950
761.302;   44.354;   55.972;  -18.950
761.562;   44.981; -164.027; -154.951
761.822;   95.808; -710.027; -551.951
762.082;  -31.791;-1104.027;-1093.951
762.342;   76.186; -328.027; -403.952
762.601;   79.488; -567.027; -506.952
762.861;  371.540; -281.026; -207.952
763.121;  398.367; -406.026; -411.953
763.381; 7079.544; -499.026; -485.953
763.640; 8496.395; -139.026; -307.954
763.900;  380.872; -242.026; -203.954
764.160;   82.124; -458.025; -491.954
764.419;   -2.024; -726.025; -782.955
764.679;  -65.647; -795.025; -726.955
764.939;  -21.270; -124.025; -210.955
765.198;  -78.518; -608.025; -563.956
765.458;  -68.817; -710.024; -612.956
765.717;  -88.065; -454.024; -590.957
765.976;  -59.888; -428.024; -411.957
766.236;  -70.561; -475.024; -610.957
766.495;    9.166;  260.977;   73.042
766.755;  -97.232;-1090.023; -987.958
767.014;   14.645; -594.023; -665.958
767.273;  -56.929; -373.023; -397.959
767.533;  -46.852; -228.023; -307.959
767.792;  -39.750; -151.022; -188.960
768.051;  -52.348; -228.022; -276.960
768.310;  -87.471; -546.022; -650.960
768.569;  -16.669; -161.022;    4.039
768.828;  -41.618; -285.022; -363.961
769.088;  -95.591;-1050.021; -942.961
769.347;  -72.289; -755.021; -599.962
769.606;  -95.987; -876.021; -857.962
769.865; -129.860;-1016.021;-1033.963
770.124;  -14.558; -411.021; -336.963
770.383;  -46.556; -778.020; -910.963
770.641;   -0.330; -398.020; -400.964
770.900;  -61.978; -953.020; -846.964
771.159;  -40.751; -851.020; -951.964
771.418;  -16.424; -917.020; -779.965
771.677;  127.803; -224.019; -293.965
771.936;  145.580; -794.019; -865.966
772.194; 1908.757; -465.019; -437.966
772.453;11018.383; -213.019; -391.966
772.712;  799.285;  416.982;  329.033
772.970;  106.087;   32.982;   63.033
773.229;   76.414;  -22.018;  102.033
773.488;  -78.309; -814.018; -770.968
773.746;   54.268;  296.982;  335.032
774.005;   -5.830;  190.983;  -22.969
774.263;    5.421;  243.983;  177.031
774.522;  -45.427; -422.017; -548.969
774.780;  -80.875; -484.017; -417.970
775.039;  -89.223; -551.017; -531.970
775.297;  -34.271; -135.016; -351.970
775.555; -102.819; -489.016; -612.971
775.814; -102.068; -618.016; -570.971
776.072; -136.866; -749.016; -740.971
776.330;  -95.514; -630.016; -520.972
776.589; -126.312; -703.015; -721.972
776.847; -125.135; -645.015; -624.973
777.105; -159.783;-1016.015;-1032.973
777.363;  -86.556; -459.015; -454.973
777.621; -137.255; -660.015; -717.974
777.879;  -22.353;  -42.014;   32.026
778.138;  -95.351; -554.014; -717.974
778.396; -103.474; -585.014; -526.975
778.654; -158.497;-1015.014; -970.975
778.912;  -75.645; -269.014; -371.976
779.170; -118.268; -880.013; -803.976
779.427; -146.992; -922.013; -897.976
779.685; -136.365; -880.013; -832.977
779.943;  -85.488; -654.013; -593.977
780.201; -158.061; -964.012; -883.978
780.459; -122.609; -651.012; -610.978
780.717;  -88.807; -440.012; -390.978
780.974;  -93.706; -449.012; -490.979
781.232;  -76.304; -358.012; -338.979
781.490;  -75.752; -551.011; -472.979
781.747;  -97.700; -555.011; -476.980
782.005;   17.702;  462.989;  254.020
782.263; -159.896; -542.011;-1004.981
782.520;  -87.369; -326.011; -501.981
782.778; -185.368;-1013.010;-1051.981
783.035; -167.591; -962.010; -938.982
783.293;  -70.014; -248.010; -206.982
783.550;  -53.962; -134.010; -198.982
783.808; -132.885; -764.010; -776.983
784.065; -155.758; -745.009; -874.983
784.322;  -49.331;   25.991;  -86.984
784.580; -131.830; -915.009; -771.984
784.837;  -96.378; -392.009; -466.984
785.094; -126.276; -783.009; -762.985
785.352;  -72.549; -304.008; -404.985
785.609; -107.147; -934.008; -839.985
785.866;  -71.945; -345.008; -401.986
786.123;  -73.418; -639.008; -583.986
786.380;  -92.892; -665.008; -604.987
786.637;  -38.765; -225.007; -380.987
786.895;  -13.313; -456.007; -543.987
787.152;  -41.261; -135.007; -267.988
787.409;  -36.109; -123.007; -225.988
787.666;  -94.807; -299.006; -378.988
787.923; -113.106; -616.006; -695.989
788.179;  -85.779; -551.006; -584.989
788.436; -103.377; -585.006; -585.990
788.693;  -39.950;  -92.006;  -87.990
788.950;  138.702; -125.005; -112.990
789.207;  259.754; -381.005; -372.991
789.464;  -41.394; -161.005; -301.991
789.720;  -10.243;  150.995;  110.009
789.977; -176.066;-1003.005; -671.992
790.234;  -45.839;   44.996;  -66.992
790.490; -148.512; -884.004;-1031.993
790.747;  -10.385;  -85.004;   22.007
791.004;  -28.708; -426.004; -348.993
791.260;  -77.506; -430.004; -560.994
791.517; -104.105; -843.003; -788.994
791.773;  -53.253; -379.003; -342.994
792.030; -102.826; -596.003; -660.995
792.286;  -94.099; -686.003; -636.995
792.543;  -25.172;  -74.002; -159.995
792.799;  -55.095; -584.002; -382.996
793.055; -164.169;-1179.002;-1210.996
793.312;  -82.867; -827.002; -816.997
793.568;  -65.165; -746.002; -599.997
793.824;   10.062; -226.001; -284.997
794.081;   16.114; -447.001; -508.998
794.337;   57.441; -664.001; -561.998
794.593; 1206.718; -319.001; -271.999
794.849; 6741.769; -746.001; -772.999
795.105;  362.846; -270.000; -261.999
795.361;   32.998; -490.000; -457.000
795.617;  -69.375; -875.000; -945.000
795.873;  -46.100; -360.000; -407.000
796.129;  -41.325; -368.000; -306.000
796.385;  -20.725; -124.000; -156.000
796.641;   65.925;  412.000;  550.000
796.897;  -80.800; -666.000; -635.000
797.153;   52.725;  453.000;  357.000
797.409;  -99.400; -785.000; -868.000
797.665;  -84.125; -625.000; -732.000
797.921;  -77.050; -775.000; -762.000
798.176;  -60.625; -744.000; -747.000
798.432;  -53.275; -824.000; -596.000
798.688;  -70.525;-1174.000;-1078.000
798.943;   76.900; -165.000; -147.000
799.199;    1.325;-1005.000; -959.000
799.455;  229.025;  369.000;  316.000
799.710;  112.425; -813.000; -380.000
799.966;  300.650; -162.000; -160.000
800.221;  462.450; -638.000; -721.000
800.477; 9838.750; -743.000; -710.000
800.732; 9783.000; -773.000; -800.000
800.988;  634.475;  205.000;  -19.000
801.243; 1529.600; -454.000; -344.000
801.498; 7382.850; -814.000; -739.000
801.754;  437.575; -289.000; -163.000
802.009;   77.700; -257.000; -335.000
802.264;  -46.175; -967.000;-1033.000
802.520;   25.625;  222.000;   -3.000
802.775;  -48.600; -524.000; -359.000
803.030;   53.125;  395.000;  356.000
803.285; -114.625; -840.000; -903.000
803.540;  -60.925; -686.000; -699.000
803.795;  -47.125; -648.000; -583.000
804.051;  -30.950; -279.000; -346.000
804.306;   17.475;  168.000;  128.000
804.561;  144.825;  451.000;  362.000
804.816;  143.700;  714.000;  861.000
805.071;   12.600; -185.000; -280.000
805.325;  248.575; -257.000; -427.000
805.580;  -87.175; -841.000; -877.000
805.835;  -16.025; -204.000; -297.000
806.090;  -69.975; -760.000; -676.000
806.345;  -25.950; -344.000; -264.000
806.600;  -19.975; -549.000; -632.000
806.854;  -38.650; -408.000; -538.000
807.109;  -11.600; -493.000; -577.000
807.364;    9.850; -407.000; -328.000
807.618;    8.750; -415.000; -381.000
807.873;   61.275; -470.000; -494.000
808.128;  113.950; -257.000; -518.000
808.382;  115.650; -224.000; -332.000
808.637;   76.850; -440.000; -511.000
808.891;  179.150; -257.000; -180.000
809.146;  116.375; -902.000; -794.000
809.400;  264.950; -848.000; -923.000
809.654;  340.425; -779.000; -551.000
809.909;  505.750; -841.000; -927.000
810.163; 6355.650; -813.000; -651.000
810.418;18505.800; -940.000; -861.000
810.672; 1129.425; -685.000; -690.000
810.926;  725.800; -993.000; -973.000
811.180; 1346.225; -439.000; -372.000
811.434;30120.675;  240.000;  135.000
811.689;13639.700; -231.000; -365.000
811.943;  659.425; -936.000; -953.000
812.197;  335.500; -893.000; -671.000
812.451;  135.425; -379.000; -514.000
812.705;  -15.150; -809.000; -619.000
812.959;    1.475; -263.000; -388.000
813.213;  -14.600; -283.000; -209.000
813.467;   65.575;  470.000;  253.000
813.721;  -96.950; -764.000; -792.000
813.975; -105.050; -826.000; -877.000
814.229;   50.575;  430.000;  353.000
814.482;  -71.300; -517.000; -566.000
814.736; -114.575; -766.000; -744.000
814.990; -120.800; -779.000; -872.000
815.244;  -38.475; -228.000; -285.000
815.497;  -84.175; -636.000; -601.000
815.751;  -14.150; -141.000;   82.000
816.005;  -79.075; -470.000; -586.000
816.258;  -61.875; -510.000; -363.000
816.512; -120.150; -693.000; -610.000
816.766;   -2.125;  121.000;  157.000
817.019;    7.950;  148.000;  149.000
817.273; -118.100;-1000.000; -802.000
817.526;  -25.550; -206.000; -173.000
817.779;  -26.925;-1049.000; -960.000
818.033;  -64.275; -693.000; -807.000
818.286; -111.675; -725.000; -792.000
818.540;  -88.225; -403.000; -403.000
818.793;  -61.375; -402.000; -489.000
819.046; -111.525; -582.000; -520.000
819.299;  -39.175; -157.000; -166.000
819.553; -114.200; -552.000; -592.000
819.806; -149.900;-1016.000; -838.000
820.059;  -59.100; -334.000; -354.000
820.312;   16.225;  152.000;  185.000
820.565;  -14.475;  110.000;  -27.000
820.818;  -42.125;  -59.000; -173.000
821.071; -163.150;-1041.000; -957.000
821.324; -102.800; -536.000; -540.000
821.577;  -97.550; -457.000; -483.000
821.830;  -52.250; -270.000; -172.000
822.083; -141.650; -733.000; -288.000
822.336;  -57.550; -261.000; -167.000
822.589; -130.025; -805.000; -688.000
822.842; -152.150; -875.000; -770.000
823.094; -170.725;-1076.000;-1114.000
823.347; -141.525; -925.000; -729.000
823.600;    4.075;  402.000;  187.000
823.853;  -63.875; -311.000; -267.000
824.105;  -76.900; -331.000; -575.000
824.358; -100.150; -617.000; -716.000
824.611;   21.500;  234.000;   40.000
824.863;  -51.300; -612.000; -591.000
825.116;   28.125;  -33.000;   27.000
825.368;   85.775; -366.000; -372.000
825.621;  170.025; -186.000; -240.000
825.873;   89.725; -704.000; -737.000
826.126;  550.475; -669.000; -641.000
826.378;11423.925; -389.000; -505.000
826.630; 3236.425; -890.000; -898.000
826.883;   64.875; -754.000; -693.000
827.135;   44.325; -279.000; -270.000
827.387; -104.650; -893.000; -839.000
827.639;  -22.350;  -86.000;   32.000
827.892; -133.050; -742.000; -582.000
828.144; -139.875; -848.000; -804.000
828.396;  -27.250;  104.000;  -80.000
828.648;  -87.925; -440.000; -333.000
828.900; -142.200; -702.000; -795.000
829.152; -120.075; -684.000; -683.000
829.404;  -64.250; -215.000; -267.000
829.656;  -21.325;  321.000;  214.000
829.908;  -29.225;  393.000;  229.000
830.160; -165.175;-1064.000;-1047.000
830.412;  -86.250; -481.000; -430.000
830.664; -112.025; -557.000; -665.000
830.916;  -57.425; -268.000; -206.000
831.167; -174.325;-1073.000; -951.000
831.419; -104.100; -623.000; -566.000
831.671; -144.250; -764.000; -809.000
831.923;  -99.950; -311.000; -447.000
832.174;  -72.900; -273.000; -331.000
832.426; -106.750; -493.000; -582.000
832.678; -200.300;-1043.000;-1091.000
832.929; -146.325; -947.000; -935.000
833.181;  -55.975; -575.000; -677.000
833.432;  -52.725;  -59.000; -186.000
833.684;  -29.275;  112.000;  -27.000
833.935; -111.050; -610.000; -566.000
834.187; -132.675; -829.000; -823.000
834.438;  -46.125;  -58.000;  -25.000
834.689;  -49.125; -255.000; -123.000
834.941;  -51.575; -343.000; -244.000
835.192;  -96.275; -590.000; -533.000
835.443; -108.800; -419.000; -506.000
835.695;  -18.425;  138.000;  -16.000
835.946;  -93.025; -608.000; -378.000
836.197; -116.250; -599.000; -622.000
836.448;  -93.350; -528.000; -395.000
836.699;  -65.875; -253.000; -341.000
836.950;    2.075;   72.000;    7.000
837.201; -158.825;-1003.000; -987.000
837.452;  -44.825; -356.000; -170.000
837.703; -116.300; -791.000; -737.000
837.954;  -44.350; -205.000; -365.000
838.205;  -81.850;-1029.000;-1008.000
838.456;  179.825; -196.000; -282.000
838.707;    2.075; -423.000; -519.000
838.958;   17.925; -634.000; -647.000
839.209;  304.850;   18.000;   40.000
839.460;  119.025; -439.000; -201.000
839.710;  166.750; -135.000; -297.000
839.961;  431.850;  730.000;  612.000
840.212;  347.175; -382.000; -497.000
840.462; 1096.850; -328.000; -277.000
840.713;17481.850; -571.000; -536.000
840.964; 8025.025;  -62.000; -143.000
841.214;  540.700; -384.000; -624.000
841.465;  601.000; -214.000; -141.000
841.715;  550.050; -417.000; -380.000
841.966;  677.325; -746.000; -685.000
842.216; 8685.550; -330.000; -431.000
842.466;37233.875; -169.000; -313.000
842.717; 2390.775; -964.000; -952.000
842.967;  338.800; -635.000; -641.000
843.217;  297.425;   20.000;   28.000
843.468;   91.025; -104.000; -132.000
843.718;  -35.775; -718.000; -726.000
843.968;  -77.175; -837.000; -765.000
844.218;   33.775; -315.000; -262.000
844.469;  -34.125; -577.000; -561.000
844.719; -114.825; -537.000; -682.000
844.969;  -84.450; -550.000; -580.000
845.219; -144.525; -814.000; -862.000
845.469;  -75.850; -392.000; -342.000
845.719; -138.850; -792.000; -884.000
845.969;  -29.950;  119.000;  174.000
846.219; -126.400; -738.000; -720.000
846.469;   24.350;  464.000;  432.000
846.718;  -51.600; -115.000;   31.000
846.968; -135.650; -827.000; -827.000
847.218;  -39.375; -224.000; -371.000
847.468; -100.975; -586.000; -555.000
847.718; -149.500; -827.000; -798.000
847.967; -127.675; -826.000; -915.000
848.217; -100.350; -449.000; -569.000
848.467;  -48.750; -405.000; -376.000
848.716; -105.450; -708.000; -725.000
848.966;   -3.000; -372.000; -358.000
849.215;  -60.425; -428.000; -419.000
849.465;  -94.750; -785.000; -615.000
849.714; -130.400;-1132.000;-1150.000
849.964;  -53.100; -551.000; -613.000
850.213;  -40.550; -393.000; -355.000
850.463;   72.675;  137.000;  340.000
850.712;   -1.400; -542.000; -567.000
850.961;   23.825; -739.000; -678.000
851.211;   98.250; -513.000; -504.000
851.460;  163.825; -635.000; -650.000
851.709;  570.350;  -25.000;   18.000
851.958; 9793.000; -912.000; -750.000
852.208;13599.600; -859.000; -879.000
852.457;  528.250; -181.000;  -13.000
852.706;   77.225; -791.000; -823.000
852.955;   23.475; -507.000; -528.000
853.204;  -67.150; -521.000; -461.000
853.453;  -74.100; -418.000; -458.000
853.702; -125.975; -660.000; -750.000
853.951;  -98.900; -532.000; -520.000
854.200; -113.475; -613.000; -562.000
854.449; -131.950; -695.000; -661.000
854.698; -102.525; -340.000; -279.000
854.946;  -69.400; -181.000; -284.000
855.195; -155.000; -843.000; -868.000
855.444;  -93.075; -395.000; -420.000
855.693; -125.550; -345.000; -432.000
855.941; -101.625; -387.000; -516.000
856.190;  -44.500; -256.000; -382.000
856.439; -125.675; -652.000; -703.000
856.687;  -65.875;  -99.000;  -72.000
856.936; -119.175; -621.000; -323.000
857.184; -174.025;-1067.000;-1020.000
857.433;  -99.800; -423.000; -512.000
857.681; -150.075; -989.000; -953.000
857.930;  -69.950; -282.000; -433.000
858.178; -167.425; -856.000; -929.000
858.427; -152.075; -802.000; -781.000
858.675; -128.350; -377.000; -544.000
858.923; -107.475; -527.000; -819.000
859.172; -175.350;-1094.000;-1070.000
859.420;  -82.350; -339.000; -239.000
859.668; -133.375; -624.000; -628.000
859.916;  -24.225;  109.000;  115.000
860.164; -120.325; -699.000; -603.000
860.413;  312.925; -878.000; -696.000
860.661;  282.350; -709.000; -577.000
860.909;  -85.800; -339.000; -325.000
861.157; -102.600; -277.000; -444.000
861.405; -110.425; -534.000; -670.000
861.653;    3.575;  310.000;  310.000
861.901;  193.775; -543.000; -613.000
862.149;    9.650; -801.000; -824.000
862.396;  -75.925; -297.000; -187.000
862.644; -100.450; -368.000; -347.000
862.892;  -25.225;   98.000;  138.000
863.140; -119.200; -549.000; -530.000
863.388; -149.675; -815.000; -759.000
863.635; -116.425; -642.000; -601.000
863.883;  -12.700;  231.000;  190.000
864.131;  -94.250; -288.000; -357.000
864.378; -132.550; -675.000; -540.000
864.626;  -97.125; -347.000; -415.000
864.873; -110.850; -556.000; -505.000
865.121; -138.200; -714.000; -799.000
865.368;  -38.925; -173.000;   75.000
865.616;  -52.675;  -33.000;  -40.000
865.863;  -81.600; -462.000; -506.000
866.111; -114.525; -795.000; -824.000
866.358;   15.975; -426.000; -420.000
866.605; 1983.975;  -64.000; -804.000
866.853; 2330.975; -621.000; -537.000
867.100;  -31.125; -728.000; -775.000
867.347;  -93.925; -672.000; -611.000
867.594;  -91.125; -740.000; -714.000
867.841;   94.300;   97.000;   17.000
868.089; -146.275; -746.000; -698.000
868.336; -107.575; -477.000; -420.000
868.583; -157.175; -637.000; -741.000
868.830;  -48.675; -131.000; -170.000
869.077; -156.050; -859.000; -787.000
869.324; -108.650; -502.000; -458.000
869.571; -123.675; -398.000; -430.000
869.818; -115.125; -485.000; -439.000
870.065; -111.325; -439.000; -513.000
870.311; -108.450; -456.000; -542.000
870.558; -106.800; -332.000; -311.000
870.805;  -78.150; -320.000; -384.000
871.052; -108.675; -494.000; -369.000
871.298;  -65.700; -204.000; -131.000
871.545;  -64.700; -151.000; -185.000
871.792;  -80.450; -173.000; -222.000
872.038;  -74.475;   43.000; -126.000
872.285; -120.650; -496.000; -387.000
872.532;  -91.650; -357.000; -387.000
872.778;   15.500;  556.000;  403.000
873.025;  -95.250; -384.000; -359.000
873.271;   13.675;  501.000;  578.000
873.517;  -35.200; -133.000; -209.000
873.764;  -32.600; -193.000;  -80.000
874.010;  -72.225; -143.000; -230.000
874.257;  -53.200;  123.000;   90.000
874.503; -128.225; -579.000; -479.000
874.749;  -66.025;   31.000;  275.000
874.995;  -77.100;  -80.000;  -20.000
875.242; -113.475; -540.000; -478.000
875.488; -105.075; -414.000; -439.000
875.734;  -57.075; -106.000; -234.000
875.980;  184.125; -872.000;-1032.000
876.226;  426.625; -157.000; -255.000
876.472;   -8.775;  343.000;  237.000
876.718;  -53.150;  184.000;  158.000
876.964;  -51.750;   56.000;   55.000
877.210; -147.725; -547.000; -677.000
877.456; -132.675; -630.000; -557.000
877.702; -175.250; -821.000; -832.000
877.948; -117.050; -377.000; -497.000
878.193;   -4.925;  361.000;  255.000
878.439;  -99.900; -487.000; -472.000
878.685;  -95.325; -272.000; -343.000
878.931; -125.050; -618.000; -676.000
879.176;  -92.700; -201.000; -201.000
879.422; -180.750; -933.000; -820.000
879.668;   28.800;   10.000;   79.000
879.913;  160.625;   53.000;  137.000
880.159;  -45.150; -112.000;  -17.000
880.404;  -63.900; -152.000; -162.000
880.650;  -28.750;   91.000;  141.000
880.895; -156.950; -670.000; -710.000
881.141; -120.275; -454.000; -428.000
881.386; -153.400; -503.000; -658.000
881.631;  -96.100; -311.000; -166.000
881.877;  -49.000;  112.000;  -13.000
882.122; -133.125; -684.000; -600.000
882.367;  -85.475; -136.000; -186.000
882.612;  -79.850;  -80.000; -176.000
882.858; -176.375; -877.000; -823.000
883.103; -104.250; -297.000; -267.000
883.348; -165.975; -759.000; -852.000
883.593; -147.100; -677.000; -602.000
883.838;  -65.500; -311.000;  -24.000
884.083;   15.925;  353.000;  288.000
884.328; -111.425; -564.000; -545.000
884.573;  -56.950; -196.000; -143.000
884.818;  198.375; -694.000; -531.000
885.063;  223.200; -348.000; -315.000
885.308; -110.225; -475.000; -398.000
885.553;  -31.200;  245.000;  325.000
885.797; -132.200; -545.000; -615.000
886.042;  -51.025;    8.000;   58.000
886.287;  -95.050; -253.000; -211.000
886.532;  -48.875;   26.000;  204.000
886.776; -111.100; -407.000; -525.000
887.021; -141.650; -621.000; -574.000
887.265; -153.275; -685.000; -689.000
887.510; -135.125; -557.000; -496.000
887.755;  -84.725; -194.000; -164.000
887.999; -146.400; -552.000; -575.000
888.244;  -70.150;  -58.000;  161.000
888.488;  -11.775;  371.000;  393.000
888.732; -135.125; -368.000; -520.000
888.977; -136.575; -622.000; -567.000
889.221; -152.650; -683.000; -659.000
889.465; -136.750; -422.000; -566.000
889.710;  -89.425;  -56.000; -299.000
889.954;   10.250;  579.000;  467.000
890.198; -141.750; -584.000; -707.000
890.442; -154.675; -716.000; -712.000
890.687; -164.575; -800.000; -753.000
890.931;  -87.425; -273.000; -210.000
891.175; -135.650; -502.000; -500.000
891.419;  -70.750; -105.000; -110.000
891.663;  -95.100; -239.000; -112.000
891.907; -168.275; -801.000; -545.000
892.151; -180.325; -920.000; -815.000
892.395; -112.850; -274.000; -387.000
892.638;  -28.900;  408.000;  291.000
892.882; -176.025; -780.000; -867.000
893.126;   11.975;  758.000;  558.000
893.370;  -95.575; -167.000; -168.000
893.614; -155.925; -714.000; -715.000
893.857; -100.700; -183.000; -197.000
894.101; -136.575; -527.000; -631.000
894.345;  -56.825;  300.000;  150.000
894.588;  -14.725;  569.000;  380.000
894.832;  -82.975; -178.000;  -84.000
895.075;  -97.050;   15.000;  -92.000
895.319; -143.950; -552.000; -420.000
895.563; -128.950; -413.000; -353.000
895.806; -140.750; -628.000; -741.000
896.049;  -63.075; -576.000; -368.000
896.293;   95.525;  527.000;  405.000
896.536;  -74.475; -465.000; -468.000
896.779;  -56.425; -149.000;   -1.000
897.023; -147.875; -751.000; -714.000
897.266;  -38.475;  325.000;  269.000
897.509; -186.125; -900.000; -901.000
897.752;  -44.200;  149.000;  171.000
897.996; -190.625; -972.000; -864.000
898.239;  -42.750;  168.000;  102.000
898.482; -129.275; -431.000; -453.000
898.725;  -37.875;  101.000;   53.000
898.968; -143.350; -609.000; -744.000
899.211; -117.275; -513.000; -361.000
899.454; -120.400; -633.000; -539.000
899.697;  -68.600;   90.000;  -43.000
899.940; -175.675; -761.000; -757.000
900.182; -100.900; -335.000; -405.000
900.425; -101.475; -150.000; -298.000
900.668;  -15.125;  491.000;  350.000
900.911; -104.825; -292.000; -345.000
901.154;  -55.600;  141.000;   -3.000
901.396; -130.675; -407.000; -412.000
901.639; -130.525; -430.000; -496.000
901.882; -189.275; -790.000; -809.000
902.124;  -87.850;  -29.000; -143.000
902.367; -121.700; -315.000; -361.000
902.609; -137.900; -476.000; -453.000
902.852;  -88.600; -108.000; -260.000
903.094; -132.925; -458.000; -337.000
903.337;  -59.150;  -26.000;   53.000
903.579; -113.925; -228.000; -441.000
903.821; -161.325; -597.000; -744.000
904.064;  -54.600;   85.000;  127.000
904.306;  -90.700; -126.000; -166.000
904.548; -103.400; -152.000; -366.000
904.790;  -97.675; -195.000; -340.000
905.033; -137.150; -625.000; -577.000
905.275; -137.800; -513.000; -524.000
905.517;   41.950;  468.000;  256.000
905.759;  -69.325; -667.000; -761.000
906.001;  -99.650; -322.000; -369.000
906.243;  -60.525; -162.000; -224.000
906.485;  129.575; -265.000; -207.000
906.727;  138.550; -499.000; -542.000
906.969;  -27.600;  -30.000; -135.000
907.211;  135.325; -316.000; -382.000
907.453;  309.675; -188.000; -237.000
907.695;   13.625; -158.000; -385.000
907.936;   37.475;  818.000;  706.000
908.178;  -68.700;   92.000; -135.000
908.420;  -67.875; -111.000; -162.000
908.662; -141.450; -633.000; -682.000
908.903;  -83.775; -208.000; -123.000
909.145;  -63.100; -240.000; -305.000
909.386;   -0.150;  315.000;  280.000
909.628;   39.425;  363.000;  397.000
909.870;    4.275;   29.000;  264.000
910.111;  -86.125; -809.000; -949.000
910.353;   15.250; -123.000; -161.000
910.594;  -17.650; -574.000; -606.000
910.835;   68.425; -265.000; -326.000
911.077;  153.875; -503.000; -604.000
911.318;  288.250; -505.000; -471.000
911.559;  440.625; -577.000; -880.000
911.801; 1285.550; -284.000; -280.000
912.042; 9718.400;  -50.000; -159.000
912.283;27387.825;  404.000;  371.000
912.524; 4723.500; -396.000; -457.000
912.765;  511.625; -193.000;   79.000
913.006;  227.475; -307.000; -338.000
913.247;   50.150; -270.000; -290.000
913.488;   -2.075;  -43.000;   30.000
913.729;  -87.850; -373.000; -373.000
913.970;  -65.075;  -96.000; -292.000
914.211;  -80.375; -160.000; -198.000
914.452;  -65.825; -118.000;  -11.000
914.693;   10.900;  510.000;  592.000
914.934;    0.850;  510.000;  440.000
915.175;  -65.325;   53.000;  -95.000
915.415;  -68.875; -137.000;   27.000
915.656;  -77.525;  -28.000;  192.000
915.897;  -87.425; -252.000;  -82.000
916.137;  -69.450;   74.000;   -9.000
916.378; -138.425; -573.000; -517.000
916.619;  -92.150; -159.000;  -63.000
916.859;  -30.750;  303.000;  330.000
917.100;  125.875; 1655.000; 1070.000
917.340;   42.200;  930.000;  728.000
917.581;   39.800;  965.000;  789.000
917.821;  -22.550; -171.000;  143.000
918.061;   34.675; -199.000;  -72.000
918.302;  -54.000; -152.000; -211.000
918.542;  -27.200;  -22.000;    3.000
918.782;   26.250;  369.000;  377.000
919.023;  131.625;  360.000;  427.000
919.263; 1317.225; 8131.000;  202.000
919.503; 1185.500; -137.000;  -54.000
919.743;  675.975;  390.000;  266.000
919.983;  321.825; -134.000;  -26.000
920.223;   80.525;  135.000;   14.000
920.463;  146.600;  631.000;  554.000
920.703;  121.625;   84.000;   39.000
920.943;  176.875; -110.000;   90.000
921.183;  235.900; -414.000; -405.000
921.423;  482.725;  307.000;  546.000
921.663;  711.250; -174.000; -257.000
921.903; 1520.625;  237.000;  173.000
922.143; 8150.700;  372.000;  389.000
922.383;32904.300;  158.000;  115.000
922.622;12380.800; -120.000;  -15.000
922.862; 1280.050;  796.000;  785.000
923.102;  466.225;  -51.000;   33.000
923.341;  196.325;   59.000;   74.000
923.581;   69.700;  450.000;  360.000
923.821;   21.050;  301.000;  398.000
924.060;    9.825;  351.000;  193.000
924.300;  -51.525;  -16.000; -128.000
924.539;   -5.325;  584.000;  473.000
924.779;   -1.400;  812.000;  597.000
925.018;  -52.500;  247.000;  353.000
925.257;   -3.300;  595.000;  666.000
925.497;  -35.025;  447.000;  412.000
925.736;  -62.775;  -35.000;  102.000
925.975;    8.550;  687.000;  669.000
926.214;   14.650;  907.000;  850.000
926.454;    5.000;  706.000;  757.000
926.693;  -38.550;  419.000;  543.000
926.932;   29.725; 1021.000;  825.000
927.171;   67.575; 1107.000; 1044.000
927.410;   53.125; 1144.000;  967.000
927.649;   21.100;  924.000;  742.000
927.888;   -7.275;  590.000;  564.000
928.127;   -3.450;  680.000;  678.000
928.366;   16.925;  842.000;  826.000
928.605;   39.825;  831.000;  737.000
928.844;  216.450; 1451.000; 1393.000
929.083;  620.575;  770.000;  613.000
929.321;  369.850; 1335.000; 1359.000
929.560;   98.875; 1158.000; 1122.000
929.799;  -26.775;  574.000;  475.000
930.038;   81.875; 1025.000; 1394.000
930.276;  -57.925;  334.000;  397.000
930.515;   22.075;  827.000;  681.000
930.753;  -11.725;  614.000;  589.000
930.992;  -29.775;  664.000;  717.000
931.230;    9.800;  847.000;  847.000
931.469;  169.825; 2162.000;  892.000
931.707;   71.375;  840.000;  751.000
931.946;   52.900; 1278.000; 1344.000
932.184;   45.175; 1437.000; 1175.000
932.423;   44.325; 1265.000;  963.000
932.661;   87.425; 1296.000; 1428.000
932.899;   33.925;  987.000;  821.000
933.137;    4.950;  754.000;  564.000
933.376;  147.675; 1664.000; 1335.000
933.614;  160.275; 1759.000; 1196.000
933.852;   57.450; 1357.000; 1171.000
934.090;  128.550; 1722.000; 1747.000
934.328;   94.950; 1252.000; 1457.000
934.566;   77.775; 1431.000; 1110.000
934.804;  119.875; 1263.000; 1309.000
935.042;  418.950; 1861.000; 1850.000
935.280; 1620.925; 2088.000; 2063.000
935.518; 1666.150; 2113.000; 2007.000
935.756;  372.650; 2481.000; 2316.000
935.994;  178.750; 1808.000; 1751.000
936.231;  351.750; 2890.000; 2950.000
936.469;  194.975; 2367.000; 2378.000
936.707;  172.050; 2220.000; 2167.000
936.945;  225.750; 2825.000; 2882.000
937.182;  214.750; 2679.000; 2741.000
937.420;  305.300; 3602.000; 3031.000
937.657;  433.200; 3365.000; 3478.000
937.895;  359.075; 3331.000; 3488.000
938.133;  333.850; 3540.000; 3528.000
938.370;  357.175; 3896.000; 4191.000
938.607;  390.600; 4488.000; 4205.000
938.845;  537.900; 5587.000; 5549.000
939.082;  472.050; 5387.000; 5177.000
939.320;  538.125; 5799.000; 5728.000
939.557;  626.125; 6549.000; 6491.000
939.794;  713.325; 7285.000; 7097.000
940.031;  899.725; 8421.000; 8368.000
940.269; 1118.950; 9552.000; 9107.000
940.506; 1127.850;10901.000;10507.000

