
Integration time [ms]: 100.000
Averaging Nr. [scans]: 40
Smoothing Nr. [pixels]: 0
Data measured with spectrometer [name]: 2101013U2
Wave   ;Sample   ;Dark     ;Reference
[nm]   ;[counts] ;[counts] ;[counts] 

394.013;   58.992; -450.257; -315.536
394.305;  233.490; -461.258; -419.536
394.596; 1187.808; -676.269; -527.514
394.887; 2838.051; -796.268; -654.518
395.178; 1065.082;  145.736;   11.476
395.470;   88.494; -210.263; -356.526
395.761;  215.841;  305.734;  394.479
396.052;  370.804; -545.284; -306.489
396.343;  357.051; -557.276; -454.503
396.634;  119.919; -200.279; -290.497
396.926;  124.623; -618.268; -565.517
397.217;  124.156;   11.725;  -17.504
397.508;   65.897; -366.273; -154.507
397.799;   47.794; -555.279; -571.497
398.090;    2.588; -973.280; -902.495
398.381;  101.126;   11.708;  -11.473
398.672;   -3.098; -585.292; -742.473
398.963;   63.675; -348.279; -373.498
399.254;  106.037;   54.709; -209.475
399.545;  -17.412;-1017.266; -883.520
399.836;   67.990; -407.277; -343.501
400.127;   68.377; -205.295; -209.468
400.418;   51.766; -423.274; -392.506
400.709;   62.150; -359.281; -333.493
401.000;   47.416; -268.291; -309.476
401.290;  106.561;  225.698;  115.545
401.581;   70.511; -166.286; -228.485
401.872;   27.173; -542.298; -486.462
402.163;   56.894; -313.296; -252.467
402.454;   94.313; -123.291; -163.475
402.744;   75.235; -844.297; -813.465
403.035;  438.492; -226.293;  -86.471
403.326;  575.830; -366.292; -384.474
403.617;  367.742;  204.701;  165.539
403.907;  253.460; -593.283; -679.490
404.198; 2483.889; -545.307; -599.446
404.489; 6448.515; -618.283; -588.491
404.779; 2159.415; -618.302; -660.456
405.070;  246.317;  -67.304; -174.451
405.360;  348.519; -259.293; -238.472
405.651;  373.826;  125.699;   98.542
405.942;  181.806;  209.714;  127.516
406.232;  281.421; -432.285; -413.487
406.523;  477.312;  641.706;  758.530
406.813;  102.608; -579.286; -644.484
407.104;  342.900;  261.708;  144.527
407.394;  167.143; -604.299; -591.462
407.685;  160.070;  336.715;  222.513
407.975;   45.338; -400.283; -382.490
408.265;  117.802; -134.289; -190.478
408.556;   76.084; -472.291; -459.475
408.846;  179.788;  474.706;  429.530
409.137;   86.186;   -1.288; -216.480
409.427;   61.896; -193.285; -271.487
409.717;   35.700; -776.273; -692.508
410.007;  148.339;    4.715; -170.486
410.298;   87.904; -360.295; -342.469
410.588;   73.868; -495.285; -510.486
410.878;   54.173; -792.287; -873.482
411.168;  130.575; -481.298; -478.463
411.459;  111.933; -295.283; -242.489
411.749;   72.758; -609.292; -507.474
412.039;   60.584; -755.289; -386.480
412.329;  214.507;   40.722;  132.501
412.619;  206.884;  -62.286; -148.485
412.909;  370.055;  639.711;  594.521
413.199;  338.913; -130.280; -251.495
413.490;  404.120;  521.710;  352.523
413.780;  158.992;-1013.279; -913.496
414.070;  334.002;  -46.276;  235.497
414.360;  374.228; -729.278; -666.498
414.650;  444.068; -726.288; -688.482
414.940;  548.242; -538.280; -441.496
415.230;  947.590;   50.712;   74.519
415.520; 6317.083;  155.730;   66.486
415.809;25067.849; -305.281; -125.493
416.099;19073.167; -388.277; -229.501
416.389; 5406.489;  435.726;  236.494
416.679; 3125.573;   91.738;   85.473
416.969;  550.727; -527.287; -503.483
417.259;  492.969;  341.721;  171.503
417.549;  718.698;  522.718;  318.508
417.838; 1707.175; -205.268; -147.518
418.128; 5720.201;  650.710;  492.522
418.418; 4751.707; -491.272; -579.509
418.708; 3188.689;    9.726;  -48.506
418.997;12128.035; -474.275; -480.505
419.287;12460.596; -733.273; -790.507
419.577;11887.957; -160.283; -123.489
419.866;39458.215; -588.277; -498.501
420.156;40161.903; -242.270;  -55.513
420.446; 7065.665; -112.263;  -26.526
420.735;  882.647; -376.271; -446.512
421.025;  839.478; 1830.722;  315.502
421.314;  663.470; -203.271; -226.512
421.604; 1400.368;   89.732;  233.484
421.893;  798.341; -705.271; -602.511
422.183;  239.290; -487.263; -461.526
422.472;  401.668;  -36.271; -107.511
422.762;  467.644; -416.266; -379.521
423.051;  261.653; -916.276; -916.503
423.341;  314.573; -491.273; -439.507
423.630;  407.175; -121.265;   15.477
423.919;  392.659;   58.725;   49.495
424.209;  394.746;  -31.263;   56.473
424.498;  509.147;   68.732;  161.483
424.787; 1135.054; -535.267; -601.518
425.077; 3474.473;   34.735;   29.478
425.366; 4781.276; -734.262; -744.528
425.655;10147.724;  639.727;  259.493
425.945;22556.310; -313.247; -268.554
426.234;12260.350;  117.741;  300.467
426.523; 5238.380;  -86.259; -350.534
426.812; 7172.514;  107.734;  159.480
427.101;10624.489; -127.269; -323.515
427.390;13238.407;  -55.270;  -86.514
427.680; 2888.101; -624.257; -411.538
427.969;  470.287; -330.255; -301.540
428.258;  317.417; -385.257; -477.536
428.547;  547.186;  449.728;  397.490
428.836; 1224.078; -421.253; -398.543
429.125; 1784.257; -199.259;  -72.534
429.414;  820.302; -330.251; -294.548
429.703; 3240.602; -231.251; -213.548
429.992; 9719.856; -938.250; -828.549
430.281; 6256.158; -397.264; -331.524
430.570;  593.892;  -21.252;   32.454
430.859;  553.655;  279.741;  352.466
431.148;  451.531;  636.752;  631.446
431.437;  300.567;  391.748;  367.454
431.725;  170.793; -544.257; -481.536
432.014;  149.286; -845.253; -756.545
432.303;  389.659; -149.239; -105.569
432.592;  634.664; -460.263; -178.525
432.881; 1081.132; -601.248; -437.554
433.169; 6391.863; -343.255;  -61.540
433.458;13034.694;  445.765;  540.424
433.747; 5388.807; -397.261; -289.529
434.036;  863.409; -275.242; -280.564
434.324; 2143.518; -395.249; -379.551
434.613; 3773.652;   40.757;  159.437
434.902; 1186.549;  333.760;  439.433
435.190;  554.158;   75.761;  295.431
435.479;  317.933;  -52.245;   83.441
435.767;   97.517; -411.244; -427.561
436.056;  220.404; -340.242; -294.563
436.345;  383.551; -372.240; -223.568
436.633;  374.914;   60.750;  383.450
436.922;  259.078;  208.760;  414.432
437.210;  570.833; -194.236;    1.426
437.499; 1829.492; -583.235; -432.576
437.787; 1980.683; -339.236;  -10.574
438.075;  518.613;   56.761;  162.430
438.364;  739.941;  -44.238;  250.429
438.652;  445.774; -286.226; -138.592
438.941;  130.937;    3.770;  269.415
439.229;  -10.486; -665.252; -466.545
439.517;   36.625; -160.234;  -85.577
439.806;  -13.710; -501.225; -290.595
440.094;  194.183;  377.766;  650.421
440.382;  184.112; -653.233; -302.580
440.670;  194.166; -361.235; -285.576
440.959;   28.608; -347.223; -170.599
441.247;   83.199; -151.229; -109.587
441.535;  107.374; -266.235;   31.423
441.823;   35.280; -497.234; -305.578
442.111;  191.278;  173.771;  327.412
442.400;  508.508; -628.245; -335.559
442.688; 1340.408; -111.234; -620.579
442.976;  973.474; -786.213; -450.617
443.264;   92.072; -324.224; -364.597
443.552;   97.700; -258.226;   51.408
443.840;  161.422;  602.765;  876.423
444.128;  106.961;  265.767;  269.420
444.416;   -7.369; -694.228; -312.588
444.704;   29.839; -465.219;  -92.605
444.992;   58.203;   -0.226;  240.407
445.280;   49.663; -517.230;  -94.585
445.568;   34.528; -694.212; -396.618
445.856;  341.973; -174.221;  357.398
446.143;  741.160;  -54.220;   -7.604
446.431;  608.635;  -25.228;  625.411
446.719;  228.159;  489.783;  675.391
447.007;  173.682;  481.769;  705.416
447.295;  162.705;  597.777;  871.402
447.583;   89.921; -464.229;  -34.587
447.870;  153.044; -434.221; -202.601
448.158;  408.686; -104.230;  129.415
448.446;  314.636; -800.219; -338.604
448.733;  169.449;   13.776;  269.403
449.021;  256.352;   60.788;  341.382
449.309;  188.843; -296.210;  208.379
449.596;  239.155;  128.783;   59.392
449.884;  167.163; -571.222; -325.600
450.172;  178.090; -756.227; -406.590
450.459;  464.132;  645.786;  780.387
450.747; 2478.029; -411.218; -147.608
451.034; 7917.061;  493.772;  889.411
451.322; 6458.685; -413.214; -170.614
451.609;  533.275;  292.777;  508.403
451.897;  631.233; -550.203; -183.634
452.184; 1902.406; -622.223; -400.598
452.472; 1728.815;   97.792;  269.375
452.759;  330.462;  512.781;  864.395
453.047;  113.025; -407.212; -125.617
453.334;   79.295; -732.219; -216.606
453.621;   66.837; -438.214; -161.615
453.909;  124.875;   13.796;  384.368
454.196;  110.272; -299.199; -123.641
454.483;  203.471;  317.798;  540.364
454.771;  129.343; -215.208;  196.374
455.058;   46.947; -316.207;  102.374
455.345;  118.404;   71.807;  344.347
455.632;   89.000; -128.207;  235.373
455.919;   47.770;  -82.196;  182.354
456.207;  -55.199; -774.198; -450.642
456.494;   -6.366; -475.200;  -66.639
456.781;   20.117; -399.202; -198.635
457.068;   62.407; -253.206;  -29.628
457.355;   -9.942; -698.206; -401.629
457.642;    1.938; -552.205; -290.630
457.929;    2.144; -778.194; -417.651
458.216;   82.375; -575.212; -354.617
458.503;  249.649; -173.193;  -19.652
458.790;  247.166; -864.208; -630.625
459.077;  268.197;  -77.202;  110.364
459.364;  834.712; -350.195; -210.649
459.651; 1763.904;  -46.206;  220.372
459.938;  789.881; -864.209; -665.623
460.225;  134.600;  132.799;  276.363
460.512;  -43.933; -836.197; -688.645
460.799;  118.352;  -32.218;  320.392
461.086;   63.039; -370.200; -251.640
461.372;   37.052; -509.198; -279.642
461.659;  117.371; -165.196;  108.354
461.946;   65.298; -445.193;  -54.651
462.233;  231.761;  842.800;  888.361
462.519;  365.433; -814.201; -464.639
462.806; 1039.092; -768.197; -497.645
463.093;  906.519; -445.191;  -66.656
463.380;  -19.713; -920.186; -824.664
463.666;   48.294; -259.197;  -18.646
463.953;   97.182; -406.195; -243.648
464.239;  197.857; -173.195;  -77.648
464.526;  388.868;  413.806;  743.350
464.813;  337.031; -565.190; -304.658
465.099;  337.199;  606.807;  607.348
465.386;  316.978;  903.807;  921.348
465.672;   23.443; -694.197; -522.645
465.959;   24.224; -598.188; -520.662
466.245;    0.103; -468.193; -359.652
466.532;   92.329; -109.195;   63.352
466.818;   69.586; -357.186; -216.664
467.104;   -4.647; -488.182; -415.672
467.391;  -14.192; -628.189; -459.658
467.677;   39.765; -289.186;    9.335
467.964;    7.515; -682.189; -471.660
468.250;   69.168; -331.186; -160.665
468.536;   81.059;   90.811;  180.341
468.822;  -23.870; -821.184; -574.668
469.109;  134.661;  351.827;  471.311
469.395;  190.088;  729.808;  787.346
469.681;  198.112;   46.811;  156.341
469.967; 1288.142; -699.188; -382.660
470.254; 2805.950; -494.188; -306.662
470.540; 1795.620; -601.196; -476.646
470.826;  252.514; -488.181; -397.675
471.112;  308.384;  288.816;  113.331
471.398;   84.964; -253.183;  -58.670
471.684;   53.294; -626.177; -447.680
471.970;    2.743; -918.180; -981.675
472.256;   13.337; -521.192; -441.654
472.542;   26.973; -499.171; -434.691
472.828;   15.224; -743.182; -607.672
473.114;   30.592; -380.166; -283.700
473.400;   10.011; -504.175; -293.684
473.686;   35.974; -452.166; -400.701
473.972;   52.051; -230.174; -131.687
474.258;  -37.439; -925.173; -843.689
474.544;  217.260; -183.178;   -2.679
474.830;  315.237;  -65.175;   45.316
475.116;  495.708; -123.190; -196.658
475.401;  680.246; -558.180; -467.676
475.687;  208.420; -725.180; -718.676
475.973;   16.632; -673.181; -770.673
476.259;  230.540;  736.825;  764.315
476.544;  374.677; -539.176; -437.682
476.830;  876.268; -398.172; -322.690
477.116;  729.200; -430.177; -336.682
477.401;  142.770;  346.820;  358.324
477.687;  -20.164; -289.175; -405.684
477.973;   31.361;   21.819;   28.326
478.258;  -11.755; -448.163; -348.706
478.544;   70.673;   21.815;   61.334
478.829;  -50.272; -818.171; -738.692
479.115;  -34.357; -749.172; -651.690
479.401;    0.746; -444.174; -449.686
479.686;   32.344; -253.180;  -74.676
479.972;  -28.910; -886.178; -776.680
480.257;   43.719; -258.166;  -65.700
480.542;  -15.218; -614.170; -469.693
480.828;  212.109; 1288.824; 1392.317
481.113;  -25.443; -464.176; -426.683
481.399;   -0.005; -236.161; -202.711
481.684;  -42.057; -620.166; -462.700
481.969;   20.684; -158.159;  -73.713
482.255;    6.218; -439.169; -285.695
482.540;    0.641; -569.178; -441.680
482.825;    0.681; -395.187; -404.663
483.110;   99.622;  -85.169; -105.696
483.396;  199.006; -840.157; -652.718
483.681;  501.201;  543.826;  730.313
483.966;  152.452; -696.160; -700.712
484.251;    4.725; -404.174; -310.687
484.536;    1.529; -356.165; -378.703
484.822;   12.603; -205.173; -218.687
485.107;  -32.805; -599.152; -502.726
485.392;  128.635;  662.836;  541.296
485.677;   72.007;  354.832;  163.302
485.962;  102.678;  160.843;  270.283
486.247;   89.728;  -14.162;   -8.707
486.532;   43.045; -178.166; -325.701
486.817;  153.539;  381.839;  431.291
487.102;  128.103; -453.154; -514.722
487.387;  688.758; -637.156; -652.718
487.672; 1226.791; -154.164;  -38.705
487.957;  762.246; -394.160; -286.711
488.241;  208.612; -290.150; -314.729
488.526;  749.522; -280.152; -148.726
488.811; 1268.993; -881.177; -818.680
489.096;  907.055; -666.154; -702.723
489.381;  518.368;    3.847;  162.275
489.666;  402.319; -428.161; -510.710
489.950;  171.059;  558.846;  627.277
490.235;  -26.918; -480.151; -458.728
490.520;  -40.632; -756.161; -723.710
490.804;  -46.865; -827.156; -736.719
491.089;    0.879; -469.149; -299.732
491.374;   38.039; -132.164;  -75.704
491.658;  -11.434; -817.147; -717.735
491.943;  181.426; -657.152; -609.727
492.227;  254.773; -178.155;  -38.721
492.512;   41.553; -294.157; -341.717
492.797;  -64.828; -713.149; -716.731
493.081;  -46.282; -588.147; -598.735
493.366;  -37.205; -751.161; -635.711
493.650;  178.548;  831.859;  917.254
493.935;   20.690; -648.147; -447.734
494.219;  -39.940; -778.142; -687.743
494.503;  -43.408; -585.150; -487.730
494.788;   43.444;   46.842;   74.285
495.072;  104.039;  184.850;  434.271
495.356;  173.682; -463.148; -343.733
495.641;  486.225; -812.146; -736.736
495.925;  443.615; -976.156; -903.719
496.209;   40.953; -599.149; -451.732
496.494;  -41.039; -763.142; -544.744
496.778;    1.953; -364.154; -360.722
497.062;  -35.161; -819.156; -627.719
497.346;  -14.477; -869.160; -640.711
497.631;  143.111;  580.852;  560.266
497.915;   73.936;  -64.145;  175.261
498.199;   54.006; -341.157; -277.718
498.483;   46.120; -562.152; -508.725
498.767;  186.515;  301.850;  300.271
499.051;  183.976; -126.149; -100.732
499.335;   33.874; -693.149; -739.731
499.619;  -30.047; -381.129; -423.767
499.903;   24.247; -272.155;  -65.721
500.187;   32.835; -588.153; -316.724
500.471;   32.225; -796.152; -595.727
500.755;  113.769;   62.839;  -96.710
501.039;   19.697; -270.155; -357.721
501.323;   87.325;  -21.141;  264.254
501.607;   41.495; -447.163; -503.706
501.891;   -7.143; -607.156; -512.718
502.174;  -28.927; -726.144; -585.741
502.458;   74.754;   89.849;  370.273
502.742;   44.050; -180.138; -191.751
503.026;  107.289; -412.147; -254.734
503.310;  176.107; -437.159; -375.713
503.593;  107.691; -464.147; -325.735
503.877;  122.441; -232.133; -156.760
504.161;  179.663;    2.847;  -50.724
504.444;  128.321; -841.158; -710.716
504.728;  466.463; -487.164; -522.704
505.012;  735.112; -257.150;  -76.729
505.295;  558.395; -417.161; -212.711
505.579;  544.914; -256.156; -496.719
505.862;  789.932; -555.145; -333.738
506.146;  755.285; -681.159; -758.714
506.429;  407.960;  568.841;  461.286
506.713;   69.159; -732.151; -667.728
506.996;  334.027;   90.846;  295.278
507.280;  354.283; -633.165; -474.703
507.563;  242.896; -469.155; -261.721
507.847;  101.311; -423.153; -112.724
508.130;  106.870; -665.161; -456.711
508.413;  110.564; -758.167; -577.700
508.697;  273.940; -151.167;   12.300
508.980;  151.787; -422.153; -312.724
509.263;   -3.958; -466.155; -450.720
509.547;   39.361; -124.150;   82.271
509.830;   37.673; -172.160;  140.289
510.113;   87.064;  128.844;  298.281
510.396;   32.518; -530.152; -300.725
510.680;  145.859; -818.145; -812.738
510.963;  605.807;  184.846;  180.277
511.246;  508.169; -493.150; -357.730
511.529;  247.539; -482.145;  -83.739
511.812;  388.763; -250.134;   10.241
512.095;  283.506; -740.151; -396.728
512.378;   76.445; -317.147; -245.736
512.661;   32.683; -703.137; -623.753
512.944;   20.937; -750.142; -637.744
513.227;   68.055; -170.137; -171.752
513.510;   20.573; -479.144; -671.741
513.793;   41.554; -485.140; -435.747
514.076;  150.124;  -43.127;  -39.771
514.359;  125.104; -294.149; -135.732
514.642;   83.340; -442.142; -567.744
514.925;  777.678;  581.860;  561.253
515.208; 1030.334; -498.134; -443.758
515.491;  663.473; -276.133; -182.761
515.773;  382.926; -410.143; -337.742
516.056; 2159.014;  249.864;  409.246
516.339; 2974.643; -754.136; -652.755
516.622; 1950.117; -518.150; -488.730
516.904; 1218.409;  882.857;  975.257
517.187;  571.028; -730.138; -523.752
517.470;  396.482; -568.143; -510.743
517.752;  455.146; -624.136; -470.756
518.035;  361.215; -708.139; -725.749
518.318;  388.918; -799.136; -744.755
518.600; 2505.377; -300.132; -325.762
518.883; 3478.465;  310.858;   88.256
519.165; 1649.646; -585.138; -426.751
519.448;  405.576;  -61.132;  -19.762
519.730;  200.807; -573.126; -415.773
520.013;  304.294;  588.867;  664.240
520.295;  818.864;  -94.134;  -15.759
520.578; 1849.290; -335.131; -305.764
520.860; 2077.152; -254.132;   56.238
521.143; 1076.248; -763.135; -584.756
521.425;  480.670; -251.125; -279.775
521.707;  697.749; -622.127; -380.771
521.990; 1831.925; -199.127;  167.229
522.272; 2091.031; -116.140;   -4.748
522.554;  929.302; -237.143; -157.742
522.836;  362.887;  -24.134;   99.241
523.119;  222.613; -496.148; -189.734
523.401;  147.472; -448.130; -314.766
523.683;   96.258; -865.137; -693.753
523.965;  274.526;  408.862;  260.248
524.247;  294.692;   54.878;  170.220
524.529;  212.864; -451.134; -367.759
524.812;  361.674;   -3.130;  191.234
525.094;  870.426; -773.138; -631.751
525.376; 1388.780; -143.124;   78.223
525.658;  837.665; -441.136; -339.754
525.940;   22.062; -805.131; -671.764
526.222;   48.119; -188.136;  -88.755
526.504;  100.409; -190.131;   32.237
526.786;  187.867; -960.133; -647.760
527.068;  307.985; -124.123;  -67.778
527.349;  133.362; -865.137; -774.754
527.631;  147.776; -137.132;   22.238
527.913;  160.299; -664.127; -450.771
528.195;  170.063; -761.125; -639.774
528.477;  241.984;  -93.134;  -30.758
528.759;  140.724; -648.130; -522.766
529.040;   67.009; -569.123; -293.778
529.322;   51.266; -235.125;  -10.774
529.604;  140.276;  -47.130;   93.233
529.886;  143.907; -546.126; -302.773
530.167;  137.443;  232.870;  192.235
530.449;   49.420;    1.853;   63.265
530.731;   37.616; -572.122; -459.779
531.012;   83.138; -513.120; -216.784
531.294;   94.278; -118.116;  -43.792
531.575;  141.095;  290.875;  538.225
531.857;   70.979; -548.135; -266.757
532.138;  103.899; -113.141;   40.254
532.420;  183.775;  294.865;  403.244
532.701;  218.544; -722.133; -751.760
532.983;  363.272;  232.867;  182.239
533.264;  119.654; -243.126;  175.228
533.546;  -34.231; -491.136; -508.755
533.827;   39.341;  173.867;   -1.759
534.109;   46.879; -352.135;  -80.757
534.390;   90.906; -725.132; -582.762
534.671;  248.400; -270.135;  -82.756
534.953;  148.087; -751.123; -611.779
535.234;   20.562; -426.117; -255.789
535.515;  -75.779; -891.119; -735.785
535.796;  -13.455; -431.128; -193.770
536.078; -110.746;-1050.124; -904.777
536.359;   14.112;  -22.123;    3.221
536.640;  -15.385; -480.125; -197.774
536.921;  165.057;  225.871;  143.232
537.202;  386.547;  -87.138;  -16.751
537.483;  462.389;  251.869;  377.236
537.764;  172.768;   17.870;   98.235
538.045;  -33.992; -543.134; -371.758
538.326;  -41.817; -596.129; -447.768
538.607;    9.325; -686.127; -476.771
538.888;  183.903;   98.879;    5.218
539.169;  179.098; -704.122; -535.781
539.450;  337.781;  236.871;   16.233
539.731;  234.607; -361.121; -182.783
540.012;  126.038;  199.880;  412.216
540.293;   90.474;   82.876;  158.224
540.574;    6.224; -895.113; -717.796
540.855;  461.281;  435.879;  377.218
541.136;  546.945;   47.878;  139.220
541.416;  300.650; -161.130; -220.766
541.697;  187.935; -274.131; -170.763
541.978; 1080.727; -270.135; -315.757
542.259; 1355.600; -211.127; -236.771
542.539;  663.622; -191.116; -186.790
542.820;  190.320;  461.875;  480.225
543.101;  145.085;  -52.145;  -77.738
543.381;   41.275; -638.127; -591.771
543.662;  260.472;  159.873; -254.771
543.942;  600.921; -751.127; -830.770
544.223; 1079.922;  193.878;  161.219
544.504;  709.004; -275.124; -182.777
544.784;  602.181; -592.126; -408.773
545.065; 1698.975;  104.884; -254.791
545.345; 2022.271;  227.881;   14.215
545.626; 1305.198;  -14.113; -108.796
545.906;  926.317;   77.869;   98.235
546.186;  382.336;   92.874;  -95.773
546.467;  217.082;   99.877;  -95.778
546.747;  328.996;  264.884;  327.210
547.027;  372.127;   91.876;  111.223
547.308;  358.495; -376.127; -530.770
547.588;  412.159;  299.871;  371.232
547.868;  196.318;  458.870;  588.235
548.149;  193.108;  609.885;  593.207
548.429;  132.773; -347.127; -299.771
548.709;  189.412; -645.120; -461.784
548.989;  483.781;   84.882;   88.213
549.269; 2183.200;   10.868;  139.239
549.550; 4983.036;  215.877;  117.222
549.830; 4455.867; -758.111; -556.799
550.110;  872.875; -468.110; -320.801
550.390;  855.091; -128.122;  -56.779
550.670; 1186.119; -868.114; -783.795
550.950;  818.555; -509.121; -471.782
551.230;  181.352;  549.879;  460.218
551.510;    1.079; -381.121; -326.782
551.790;   39.708; -173.109; -127.803
552.070;  269.756;  940.877; 1181.223
552.350;  408.100; -492.119; -377.786
552.630;  598.474;   -2.121;   77.219
552.909;  363.701;  181.884;   73.209
553.189;  235.032;  -49.132;   33.237
553.469;  206.575; -703.119; -514.786
553.749;  196.077; -469.127; -357.772
554.029;  161.742;   33.883;  -24.790
554.308;  151.712; -154.115;  -37.794
554.588;   66.993; -196.128; -204.770
554.868;   69.156; -366.121;  -47.782
555.147;  160.359; -114.115;  -46.793
555.427;  618.028; -260.116; -250.792
555.707; 4040.057; -284.115; -200.793
555.986; 4931.570; -719.111; -538.800
556.266; 2548.220;   23.884;   72.210
556.546;  121.754; -888.121; -675.782
556.825;  267.592; -657.114; -556.794
557.105; 1848.016; -125.128;   17.230
557.384; 2167.900;  122.884;  187.209
557.664;  826.278; -717.116; -508.792
557.943;  116.606; -557.121; -411.782
558.222;  190.659; -345.118; -344.788
558.502;  275.611; -116.115;  -76.793
558.781;  513.631;  194.885;  499.208
559.061;  414.409; -232.118; -227.788
559.340;  303.989;  302.883;  353.211
559.619;  735.020;   93.884;  148.210
559.899; 1053.116; -239.117; -266.789
560.178;  959.785; -778.115; -593.793
560.457; 3238.293; -623.117; -562.790
560.736; 4566.672; -472.111; -482.800
561.015; 3049.389; -500.128; -502.769
561.295;  394.378;  180.893;  215.193
561.574;  368.583;  119.885;  116.207
561.853;  500.612;  274.891;  303.197
562.132;  525.338;  -45.114;  182.206
562.411;  457.950;  396.879;  553.219
562.690;  147.356; -592.115; -458.792
562.969;  141.481;  472.888;  630.203
563.248;  501.747; 2966.878; 2487.219
563.527;  292.446; -290.111; -408.800
563.806;  399.448; -650.127; -521.771
564.085;  434.719; -297.105; -206.810
564.364;  240.469; -594.117; -405.790
564.643;  498.525; -276.121; -223.781
564.922; 1956.481;  221.890;  397.198
565.201; 2013.410; -640.109; -700.803
565.479;  845.705; -297.115; -219.792
565.758;  346.742; -810.128; -712.770
566.037;  506.911; -155.109; -100.803
566.316;  263.325; -286.116;  -28.791
566.595;   57.682;  -17.115;  -12.793
566.873;   97.548; -166.111;  -79.801
567.152;  -56.695; -490.113; -590.797
567.431;    6.796; -113.116;    6.210
567.709;   19.879; -344.107; -212.807
567.988;  274.867; -810.114; -769.794
568.266;  543.632; -160.115;  -68.793
568.545;  383.217; -644.100; -514.819
568.824;  612.504;  160.885;  356.208
569.102;  565.441; -351.114; -235.794
569.381;  229.753; -492.116; -407.792
569.659;  -38.123; -553.113; -553.796
569.938;   33.395; -743.122; -465.780
570.216;  115.589; -225.109; -225.804
570.494;  -17.755; -632.114; -572.795
570.773;   22.829;  202.879;  114.218
571.051;   14.135; -373.123; -357.778
571.330;   71.049; -221.113; -174.796
571.608;   39.586; -181.098; -173.823
571.886;  -53.085; -671.111; -581.799
572.164;  -54.894; -739.121; -621.782
572.443;  -45.127; -562.105; -512.811
572.721;  -24.732; -399.117; -289.790
572.999;  -27.414; -280.117; -168.788
573.277;   88.241;  379.894;  620.191
573.555;  281.868;   94.894;   37.190
573.834; 1393.986;  -86.117; -114.788
574.112; 1621.156;  880.893;  811.193
574.390;  491.972; -143.111;  -96.801
574.668;    3.057;  -91.112;  -61.797
574.946;   -8.607; -165.106; -187.810
575.224;   12.359;   71.891;  -16.803
575.502;  -10.727; -200.116; -204.791
575.780;  -72.867; -767.112; -829.798
576.058;  226.771; 1589.889; 1004.200
576.336;  -14.473; -210.110; -129.801
576.614;  -61.742; -511.112; -340.798
576.891;   56.987; -711.115; -823.794
577.169;  491.047; -158.108; -285.805
577.447;  586.730;  169.893;  202.193
577.725;  269.487;  629.888;  854.201
578.003;    4.660;  -71.112; -371.798
578.280;   93.282; -208.104; -242.812
578.558;   69.811; -450.115; -422.793
578.836;  141.819; -210.114; -145.795
579.114;   45.531; -630.112; -670.797
579.391;   70.013;   -6.117;  -18.789
579.669;  -66.337; -595.114; -704.794
579.947;  172.577; -326.107; -127.806
580.224;  344.502; -692.107; -524.806
580.502;  322.631;  127.893;   76.193
580.779;   16.869;  -42.117;   75.210
581.057;  -64.561; -584.109; -470.804
581.334;  -87.003; -726.102; -695.815
581.612;   30.144;   54.895;  511.190
581.889;  -23.814;  -83.101; -129.818
582.167;  -21.474; -298.099; -190.821
582.444;  -98.520; -845.102; -814.817
582.721;   97.556;  657.899;  715.183
582.999;   48.398; -326.100; -167.821
583.276;  554.089; -812.123; -713.779
583.553;  717.801; -364.102; -294.816
583.831;  230.529; -607.104; -631.812
584.108;   45.620;  349.892;  174.195
584.385;   11.797; -122.102;  -98.815
584.662;  -84.352; -651.111; -828.801
584.940;   34.123;  204.889;  204.199
585.217;  -18.299;  -73.113; -303.796
585.494;   25.432;   71.890;  118.198
585.771;  208.765; -250.109; -354.804
586.048;  537.076; -196.113;  -76.796
586.325;  344.001; -721.110; -773.801
586.602;   99.457;  230.896;  213.188
586.879;  -11.731; -499.100; -580.820
587.156;   56.445; -156.105; -331.810
587.433;  -24.197; -701.102; -667.817
587.710;   82.508;  152.888;  234.202
587.987;  297.475; -264.105; -236.811
588.264;  819.235;  315.888;  387.202
588.541; 1371.060;  -61.104;   26.187
588.818; 2766.192;   72.892;  171.196
589.095; 2373.030; -163.104; -174.812
589.371;  382.663; -459.109; -414.804
589.648;   19.931; -581.107; -437.807
589.925;   41.145; -517.114; -621.795
590.202;   15.683; -741.112; -607.798
590.478;   94.652; -166.105;  -73.811
590.755;  251.598; -241.108; -132.806
591.032; 2529.978; -741.110; -699.802
591.308; 3558.752; -732.094; -790.831
591.585; 1810.728; -573.110; -560.802
591.862;  160.705;-1056.102; -950.817
592.138;   72.696; -475.108; -474.805
592.415;  149.833; -486.104; -495.813
592.691; 1486.806;  460.896;  518.188
592.968; 1916.688; -208.098; -123.824
593.244;  930.946; -695.116; -595.790
593.521;   70.355; -105.102;  -42.817
593.797;  -10.557; -810.122; -720.780
594.074;  344.551; -611.096; -588.826
594.350;  676.012;  828.905;  729.172
594.626;  303.824; -303.111; -283.801
594.903;  111.431; -643.101; -645.817
595.179;  182.787;  243.896;  418.187
595.455;    7.932; -136.107; -150.807
595.731;    8.339;  -19.103;  -38.814
596.008;  -36.357; -464.111; -434.800
596.284;   42.097; -187.100; -242.820
596.560;   86.409; -501.093; -493.833
596.836;  198.147; -173.105;  -70.810
597.112;  364.596; -582.108; -437.805
597.388;  283.974;  -49.097;  -48.826
597.665;  119.529;  437.887;  530.203
597.941;  -51.161; -572.089; -658.839
598.217;   23.481; -323.110; -293.802
598.493;  255.416;   61.891; -204.804
598.769;  539.916; -175.100;  -50.819
599.045;  306.974; -490.108; -562.806
599.321;   54.371; -193.100; -261.820
599.597;  131.591; -355.109; -476.804
599.872;  498.985;  409.896;  429.187
600.148;  360.400;  -61.097; -172.826
600.424;  293.229;   91.893;  202.193
600.700;  245.657; -170.107; -280.807
600.976;  126.094; -442.097; -464.825
601.252;  266.262; -226.109; -272.803
601.527;  218.536; -833.104; -840.813
601.803;  160.728; -453.105; -404.812
602.079;  185.516; -124.100; -118.819
602.354;  580.919; -620.092; -531.835
602.630;  855.251; -140.113; -482.796
602.906; 2340.286; -910.101; -863.818
603.181; 6978.950; -627.119; -534.786
603.457; 5883.323;   98.903; -278.826
603.733;  868.458; -605.120; -626.783
604.008;  968.819; -245.106; -164.810
604.284; 3124.057; -636.101; -580.817
604.559; 2696.937;   -3.112;  -42.799
604.835;  489.122; -163.105; -225.810
605.110;  426.726; -732.099; -892.821
605.385;  701.436;  224.907;  267.167
605.661;  653.490; -625.095; -729.829
605.936; 1210.500; -664.108; -737.806
606.211;  991.970;  -17.103; -170.815
606.487;  218.340; -329.114; -376.794
606.762;   21.875; -791.119; -745.786
607.037;  -25.053; -501.105; -433.810
607.313;  -56.767; -589.096; -574.828
607.588;   -8.307; -375.106; -137.810
607.863;   42.735;  -28.101; -143.818
608.138;  184.130;  513.890;  516.198
608.413;   39.830; -576.099; -592.822
608.688;   54.571; -203.108; -267.805
608.964;  205.463; -509.106; -218.809
609.239;  249.869; -107.105; -212.810
609.514;  254.827;  281.895;  240.188
609.789;  674.107; -187.104; -716.812
610.064;  883.382; -435.096; -609.827
610.339;  911.988; -855.109; -799.804
610.614; 1221.196; -131.100; -315.820
610.889;  690.553;  215.895;  107.188
611.163;   57.453; -407.104; -591.812
611.438;   99.091;   81.886; -167.794
611.713;   15.307; -467.101; -499.817
611.988;   66.384; -144.101; -328.818
612.263;  -31.153; -771.102; -717.815
612.538;  210.050;  385.887;  251.204
612.812;  176.222; -832.100; -911.820
613.087;  129.210; -358.098; -338.823
613.362;  -41.743; -497.107; -557.807
613.637;   43.066;  261.897;  138.186
613.911;  -29.331; -256.092; -345.835
614.186;  131.955; -249.107; -292.807
614.460;  724.991; -842.081; -758.854
614.735;  816.663;  -55.087;  -17.843
615.010;  153.503;   43.912;  -82.841
615.284;  237.770;  360.892;  246.195
615.559;  390.543; -792.092; -955.835
615.833;  314.978;  -76.099;  -87.822
616.108;   -2.395; -225.090; -390.837
616.382;  149.465;  274.913;  402.156
616.656;  164.831; -241.090; -232.837
616.931;  494.854; -785.099; -700.822
617.205; 1101.636; -973.104; -979.813
617.480; 1008.543;  -91.125;    6.225
617.754;  164.140; -396.125; -128.774
618.028;   25.635; -369.129; -382.768
618.302;   58.719;   73.892;  -25.805
618.577;  -40.482; -371.103; -518.815
618.851;  -54.716; -399.109; -600.803
619.125;  -61.036; -335.134; -378.759
619.399;  -46.938; -244.104; -374.813
619.673;  -53.521; -330.115; -515.792
619.947;  -55.881; -333.114; -448.795
620.222;  -13.901; -198.110; -204.801
620.496;   -7.969;  -47.121;  -96.782
620.770;   27.547; -187.122;  -93.781
621.044;  193.620;  323.895;  346.190
621.318;  753.134; -653.120; -614.783
621.592;  692.182; -430.121; -409.783
621.866;  375.163; -476.112; -572.799
622.140;   33.273; -207.116; -356.791
622.413;   62.168;  138.889;  112.200
622.687;  -41.093; -746.101; -492.817
622.961;   17.994; -130.108; -143.805
623.235;  -66.282; -633.111; -661.800
623.509; -106.473; -816.105; -848.811
623.783;    6.603;  -12.107;   48.193
624.056;  -12.065; -254.120; -280.783
624.330;   53.507;   63.888;   -3.797
624.604;   42.819; -271.116; -355.790
624.877;   76.429;  180.890;   26.198
625.151;   42.639; -249.114; -238.794
625.425;  -41.037; -150.103; -283.814
625.698;  -65.330; -367.119; -374.785
625.972;  -84.818; -799.110; -765.802
626.245;   79.496;  685.884;  484.210
626.519;  -52.986; -426.120; -340.784
626.792;  -30.668; -192.107; -380.807
627.066;  -97.985; -485.122; -662.779
627.339; -102.948; -736.110; -663.802
627.613;   36.538;  351.880;  148.216
627.886;   41.608;  187.891; -612.803
628.160;  -20.192;  312.880; -161.783
628.433;  -80.029; -695.125; -703.775
628.706;  -89.186; -517.120; -615.784
628.979;   27.577;  296.876;  117.223
629.253;  -74.025; -785.119; -833.786
629.526;  367.755; -334.126; -253.772
629.799;  361.535; -641.123; -479.778
630.072;  181.037; -497.128; -516.769
630.346;  -49.804;-1115.116;-1080.790
630.619;  480.083; -467.107; -545.808
630.892;  633.444;  709.889;  593.200
631.165;  345.111;  790.896;  679.187
631.438;  -68.890;-1092.112;-1055.798
631.711;   48.413;  453.877;  257.221
631.984;  -50.359; -523.117; -624.789
632.257;  -74.762; -636.117; -681.789
632.530;  -51.830; -412.119; -433.785
632.803;   19.487; -109.115;    7.207
633.076;  -75.444; -360.123; -422.777
633.349;   11.591;  173.872;  121.231
633.622;  -33.506; -187.119; -240.785
633.895; -109.765; -903.120; -823.783
634.167;  -63.193; -496.126; -525.773
634.440;  -11.222;  -19.116; -137.792
634.713;   -5.327;  -22.119; -120.786
634.986;   79.280;  593.871;  453.233
635.258;  -73.890; -507.115; -597.793
635.531;   99.484;  742.882; -343.788
635.804;  -28.910; -303.117; -318.789
636.077;  -79.201; -830.116; -852.791
636.349;    3.558; -586.115; -474.793
636.622;  375.904; 1695.874; 1392.228
636.894;  240.614; -474.120; -909.784
637.167;  163.898; -836.127; -789.771
637.439;   21.719; -278.128; -213.770
637.712;  -46.269; -312.126; -293.772
637.984;  -82.950; -635.116; -707.791
638.257;  375.057;  515.877;  488.222
638.529;  594.197; -881.125; -924.776
638.802;  267.661; -508.128; -449.769
639.074; -103.228; -927.122; -952.781
639.346; -130.819; -942.135; -930.757
639.619;    5.513;  -79.142; -319.744
639.891;   -2.310;  -83.122; -168.779
640.163;  -75.158; -689.122; -756.780
640.435;   50.544;  273.878;  103.220
640.708;   11.421;  -72.122; -132.780
640.980;  -19.602; -366.122; -362.781
641.252;  174.975;  -25.121;  -71.781
641.524; 1812.801;  580.879;  573.219
641.796; 1881.003;-1094.121; -907.782
642.068;  344.355; -191.121; -300.782
642.340;  -58.943; -486.121; -566.783
642.613;   31.259;  294.880;  323.217
642.885;  -91.539; -787.120; -878.783
643.157;  -40.387; -810.120; -658.784
643.428;   54.590;  170.880;  218.216
643.700;  -71.259; -498.120; -425.784
643.972;  -35.082;  -16.119; -133.785
644.244;  -84.580; -474.119; -559.785
644.516;  -39.528; -250.119; -114.786
644.788;   58.399;  662.881;  548.214
645.060;  -23.224;  -12.119; -124.786
645.332;  -93.297; -525.118; -535.787
645.603;   18.755;  479.882;  342.213
645.875;  -80.393; -334.118; -369.787
646.147;  160.333; 1487.882; 1242.212
646.418;  -54.365; -931.117; -918.788
646.690;  149.412; -714.117; -715.789
646.962;   40.689; -413.117; -451.789
647.233;    3.066;   15.883;   11.211
647.505; -100.682; -595.117; -475.790
647.776;   18.795;  328.884;  229.210
648.048;   -4.578; -248.116; -418.790
648.320;  -64.951; -752.116; -679.791
648.591; -139.450;-1055.116; -958.791
648.862;  -89.198; -505.116; -577.792
649.134;   -0.296;  115.885;  198.208
649.405;  -48.919; -661.115; -618.792
649.677;  -52.767; -475.115; -598.793
649.948;  -16.590; -181.115; -296.793
650.219;  -10.113;  -37.115; -147.793
650.491;  -88.061; -431.114; -520.794
650.762; -122.860; -705.114; -731.794
651.033;  -91.133; -437.114; -424.795
651.304;  -80.206; -743.114; -728.795
651.576;  -67.629; -680.114; -645.795
651.847;  -35.052; -250.113; -140.796
652.118;  -22.750;  -32.113; -189.796
652.389; -103.748; -639.113; -722.796
652.660;  -23.321; -147.113;  -89.797
652.931; -139.469; -897.112; -871.797
653.202;  -86.243; -382.112; -541.798
653.473;  -71.916; -633.112; -533.798
653.744;  155.686; -595.112; -590.798
654.015;  158.588; -356.112; -303.799
654.286;  -59.635; -642.111; -663.799
654.557;  -47.408; -586.111; -521.799
654.828; -172.131;-1114.111;-1088.800
655.099;  -73.054; -404.111; -291.800
655.370;  -96.827; -427.111; -543.801
655.641; -111.076; -656.110; -714.801
655.911; -109.899; -618.110; -638.801
656.182;   41.553;  437.890;  387.198
656.453;   91.455;  830.890;  746.198
656.724;  -70.218; -466.110; -426.802
656.994;  -79.366; -553.109; -568.803
657.265; -109.539; -862.109; -873.803
657.536;  -95.162; -500.109; -377.804
657.806; -107.361; -561.109; -593.804
658.077; -135.734; -866.109; -950.804
658.347;  -87.957; -523.108; -598.805
658.618; -113.755; -646.108; -694.805
658.888;  -23.903;  -41.108;  112.195
659.159;  -81.576; -432.108; -548.806
659.429;  -21.724; -292.108; -349.806
659.700;   18.628; -435.107; -390.807
659.970;   -6.795; -370.107; -359.807
660.241;    2.306; -754.107; -921.807
660.511;  507.833; -147.107; -174.808
660.781;  101.510; -793.106; -748.808
661.052;  -34.338; -222.106; -381.808
661.322;  -27.186;   21.894;   -9.809
661.592;    4.941;  257.894;  148.191
661.862;  -69.557; -369.106; -382.810
662.133;  -92.530; -551.105; -502.810
662.403; -122.928; -770.105; -676.810
662.673;  -48.227; -256.105; -213.811
662.943;  -99.425; -612.105; -551.811
663.213;  -11.398;  -85.105;  -81.811
663.483;  -80.746; -593.104; -568.812
663.753;  -43.194; -194.104; -152.812
664.023;  -27.742;   68.896;  -32.813
664.293;  -60.740; -319.104; -126.813
664.563; -103.838; -694.104; -648.813
664.833; -122.412; -743.103; -608.814
665.103; -129.010; -730.103; -793.814
665.373; -120.008; -766.103; -806.814
665.643;  -79.856; -863.103; -918.815
665.913;   30.996; -534.103; -714.815
666.182;  140.098; -685.102; -719.816
666.452;  264.475;  -22.102;  -89.816
666.722;  -20.223; -724.102; -784.816
666.992; -128.671; -948.102; -921.817
667.261; -101.145; -824.102; -808.817
667.531;  190.257;  134.899;   45.183
667.801;  575.759; -440.101; -412.818
668.070;  236.836;  714.899;  697.182
668.340;  -90.237; -883.101; -840.819
668.609;   97.465;  588.900;  301.181
668.879;  -79.008; -490.100; -558.819
669.149;  -70.481; -539.100; -516.820
669.418; -107.129; -698.100; -726.820
669.688;  -25.028; -482.100; -666.820
669.957;   82.349; -423.099; -546.821
670.226;  -22.199; -268.099; -331.821
670.496; -100.947; -431.099; -635.822
670.765;  -84.570; -418.099; -501.822
671.034; -134.168; -872.099; -828.822
671.304;  -12.116;   55.902; -111.823
671.573; -147.389;-1085.098; -957.823
671.842;   80.862; -380.098; -294.823
672.112;   11.364; -692.098; -586.824
672.381;    5.591; -239.098; -214.824
672.650; -122.107;-1005.097;-1021.825
672.919; -101.055; -631.097; -507.825
673.188;  -98.103; -681.097; -878.825
673.457; -141.401;-1101.097;-1143.826
673.726;  -78.849; -579.096; -646.826
673.995;  -48.897; -533.096; -479.826
674.265;  -26.371; -263.096; -333.827
674.534;   13.131; -183.096; -235.827
674.802;    0.583; -618.096; -703.828
675.071;  961.885; -886.095; -801.828
675.340; 4058.287; -464.095; -339.828
675.609; 1332.714;  103.905;   82.171
675.878;   90.966; -949.095; -893.829
676.147;   27.218;  -26.095;   -8.829
676.416;   79.270; -210.094; -294.830
676.685;  733.571; 1000.906; -622.830
676.953;  114.423; -603.094; -452.831
677.222;  -37.625; -193.094; -273.831
677.491;   -8.773;  -24.094; -127.831
677.759;   -3.121;   11.907;  172.168
678.028;  -24.019; -279.093; -222.832
678.297;   -7.817;   71.907;  197.168
678.565; -131.715; -898.093; -944.833
678.834;  -64.614; -311.093; -268.833
679.102;  -81.537; -411.092; -391.834
679.371; -136.935; -898.092; -727.834
679.639; -131.533; -797.092; -786.834
679.908; -117.931; -794.092; -724.835
680.176; -149.954; -895.091; -941.835
680.445;  -73.552; -346.091; -352.835
680.713;  -11.600;  -58.091;  -23.836
680.982;  -96.923; -523.091; -525.836
681.250; -117.522; -578.091; -507.837
681.518;  -92.795; -534.090; -751.837
681.787;  -13.743; -204.090; -167.837
682.055;  -63.091; -490.090; -422.838
682.323; -142.764; -993.090; -992.838
682.591;   18.688; -216.090; -538.838
682.859;   84.140;    9.911;  -35.839
683.128;   14.442;  232.911;  497.161
683.396; -173.807;-1102.089;-1122.840
683.664;  -50.905; -241.089;   21.160
683.932;   -0.553;  144.911;  -76.840
684.200;  -78.301; -576.088; -320.841
684.468;  -23.999;  -73.088; -124.841
684.736;  -28.047; -214.088; -175.841
685.004; -115.220;-1024.088; -982.842
685.272;  -32.568; -880.088; -774.842
685.540;  -75.466; -499.087; -557.843
685.808;  -77.590; -651.087; -682.843
686.076; -112.763; -894.087; -969.843
686.343;  -58.561; -601.087; -815.844
686.611;   41.241; -195.087; -224.844
686.879;  429.243; -530.086; -553.844
687.147; 3398.045; -483.086; -480.845
687.414;  987.172;  -12.086; -169.845
687.682;    5.699; -658.086; -757.846
687.950;  309.301;  259.915;  263.154
688.217;   19.052; -792.085; -760.846
688.485;  -10.096; -632.085; -636.847
688.753;  514.506;  -11.085; -102.847
689.020;  191.783; -820.085; -851.847
689.288; -114.015; -853.084; -787.848
689.555;  -27.463; -195.084; -148.848
689.823;  -44.011; -241.084; -345.849
690.090;  -77.659; -546.084; -651.849
690.358; -142.758; -877.084; -897.849
690.625;    6.444;  120.917;   45.150
690.892;  -64.979; -403.083; -369.850
691.160;   -5.127;   72.917;  -35.850
691.427;  -10.825;  141.917;  130.149
691.694; -129.273; -855.083; -929.851
691.962; -139.696;-1177.082;-1060.852
692.229;   20.606;  127.918;   56.148
692.496;   87.433;  130.918;  -49.852
692.763;    6.309; -164.082; -201.853
693.031;  -62.689; -739.082; -716.853
693.298;  -38.112; -509.081; -368.853
693.565;  297.315; -155.081; -163.854
693.832; 1315.867;   -5.081;   -9.854
694.099;  149.444; -643.081; -642.855
694.366;  -42.079; -882.081; -896.855
694.633;  -49.327; -920.080; -633.855
694.900;  717.500; 4367.920; -114.856
695.167;  427.351; -214.080; -380.856
695.434;  113.253; -646.080; -623.856
695.701;  200.630;  121.921;  -61.857
695.968;  470.882; -365.079; -361.857
696.234;  953.584; -415.079; -646.858
696.501;10482.936; -776.079; -614.858
696.768; 5615.063; -554.079; -617.858
697.035;  344.115; -632.078; -667.859
697.302;   43.766; -448.078; -552.859
697.568;   21.743; -458.078; -497.859
697.835;  -56.930; -683.078; -624.860
698.102;   -9.728; -498.078; -407.860
698.368;   68.749;  384.923;  396.139
698.635;  -37.549;  -47.077; -424.861
698.901;  -32.997; -240.077; -348.861
699.168;   67.905; -534.077; -456.862
699.435;   69.107;  -72.077;  -13.862
699.701; -103.142; -868.076; -764.862
699.968;   15.110;  144.924; -441.863
700.234;  -81.988; -783.076; -822.863
700.500;  -56.186; -448.076; -539.864
700.767;   -0.284;   -1.075;   26.136
701.033; -125.007;-1015.075; -963.864
701.299;  -39.005; -450.075; -483.865
701.566;  102.947;  950.925;  763.135
701.832;   29.449;  -31.075;  -76.865
702.098;  -92.200;-1054.074;-1034.866
702.365;  -83.673;-1098.074;-1030.866
702.631;  -15.946;-1038.074;-1063.867
702.897; 1344.806; -765.074; -676.867
703.163; 2345.108;  348.926;  254.133
703.429;  178.460; -256.073; -273.868
703.695;  -28.913; -796.073; -792.868
703.961;   33.239; -214.073; -210.868
704.227;  -50.060; -630.073; -725.869
704.493;  136.717;  613.927;  510.131
704.759;  -32.281; -565.072; -540.870
705.025;   40.396; -203.072; -194.870
705.291;    2.398; -666.072; -562.870
705.557;  184.950;  719.928;   34.129
705.823;   28.002; -742.072; -694.871
706.089;  164.304; -307.071; -326.871
706.355;  360.806; -315.071; -244.872
706.620; 5561.407; -776.071; -729.872
706.886; 8213.184; -309.071; -362.873
707.152;  780.286; -818.070; -973.873
707.418;  -23.812;-1153.070;-1186.873
707.683;    3.065; -550.070; -530.874
707.949;  -27.133; -547.070; -578.874
708.215;  -10.156; -129.070; -207.874
708.480;  -11.979; -520.069; -420.875
708.746;   94.573;   68.931;   28.125
709.011;  -51.551; -578.069; -612.876
709.277;  -75.074; -538.069; -543.876
709.542;  -46.647; -428.069; -387.876
709.808;   -7.095;  -59.068;   89.123
710.073;  -80.393; -577.068; -695.877
710.339;  -30.391; -242.068; -228.877
710.604;   70.061; -780.068; -845.878
710.869;  350.238; -277.068; -366.878
711.135;  -68.236; -715.067; -628.879
711.400;  -81.884; -507.067; -608.879
711.665;  -73.207; -404.067; -479.879
711.931;  -96.305; -661.067; -677.880
712.196; -119.503; -876.067; -954.880
712.461;   99.049; -402.066; -490.880
712.726;  152.726; -727.066; -771.881
712.991;  -86.872; -647.066; -664.881
713.256;  -36.920; -350.066; -332.882
713.521;  -61.069; -417.065; -381.882
713.787;  -60.017; -454.065; -472.882
714.052;  -12.840; -214.065; -400.883
714.317;  -83.038;-1045.065; -981.883
714.581;  990.414; -374.065; -268.883
714.846; 1493.916; -822.064; -888.884
715.111;  130.168;  261.936;  257.116
715.376;  -23.105;  -86.064; -223.885
715.641;  -29.128; -365.064; -367.885
715.906;  305.648;   15.936; -551.885
716.171;  134.525;  221.937;  209.114
716.436;   39.227;  -78.063; -104.886
716.700;  -97.096; -818.063; -692.886
716.965; -117.819; -794.063; -807.887
717.230;  -72.717; -339.063; -392.887
717.494;  -30.965;  -40.062; -134.888
717.759;  -82.238; -784.062; -640.888
718.024;    1.963;  269.938;  250.112
718.288;   72.190;  685.938;  395.111
718.553; -127.333; -803.062; -977.889
718.817; -142.481; -883.061; -899.889
719.082;  -37.879; -115.061; -125.890
719.346; -131.602;-1000.061; -947.890
719.611;  -33.150; -300.061; -255.891
719.875;  -93.873; -568.060; -537.891
720.140;  -62.971; -453.060; -603.891
720.404;   31.930; -136.060; -249.892
720.668;  850.957; -475.060; -411.892
720.933;  354.109;  146.940;  137.108
721.197; -105.614; -667.059; -600.893
721.461; -140.687; -851.059; -826.893
721.725;  -16.860;  -21.059; -250.894
721.990;  -57.058; -284.059; -204.894
722.254;  -29.131;  -26.059; -108.894
722.518;  -70.430; -286.058; -442.895
722.782;  -83.578; -743.058; -594.895
723.046;  123.374;  614.942;  570.105
723.310;   37.201;  374.942;  210.104
723.574; -100.997; -654.058; -614.896
723.838;  -96.995; -576.057; -642.897
724.102;  -46.618; -226.057; -239.897
724.366; -132.716;-1032.057; -978.897
724.630;  -88.314; -749.057; -571.898
724.894;  -75.138; -722.057; -514.898
725.158;   -8.386;   38.944; -295.898
725.422;  -48.434; -394.056; -327.899
725.685;  -76.907; -441.056; -349.899
725.949;  -78.430; -566.056; -519.900
726.213;  -73.528; -732.056; -811.900
726.477;  165.374;-1020.055; -933.900
726.740;  158.726; -274.055; -104.901
727.004;  326.503; -384.055; -510.901
727.268; 3358.454; -442.055; -400.901
727.531; 1006.181; -961.055; -775.902
727.795;  -41.642; -713.054; -673.902
728.059;  -58.040; -552.054; -557.903
728.322;  -76.413; -841.054; -669.903
728.586;   32.289; -692.054; -701.903
728.849;  -77.684; -695.053; -756.904
729.112; -122.707; -812.053; -912.904
729.376; -125.756; -959.053; -905.904
729.639;  -80.454; -536.053; -536.905
729.903; -103.752; -733.053; -699.905
730.166;  -59.750; -437.052; -399.906
730.429;  -43.248; -317.052; -468.906
730.693;  -71.596; -355.052; -894.906
730.956;  186.156;  810.948;  651.093
731.219;  724.108; -310.052; -103.907
731.482;  118.510;-1003.051; -894.907
731.745;  123.886; -794.051; -935.908
732.009;   28.888;  -30.051;   50.092
732.272; -100.985; -904.051; -771.909
732.535;  -38.058; -300.051; -310.909
732.798; -166.181;-1083.050;-1166.909
733.061;  -66.929; -430.050; -456.910
733.324;    5.598;   31.950; -180.910
733.587;   67.150;  290.950;  365.090
733.850;  -59.698; -973.049;-1050.911
734.113;   40.153;   33.951;   32.089
734.376;    8.130; -328.049; -447.912
734.639;  203.307; 1188.951; 1011.088
734.901;   70.459; -180.049; -402.912
735.164;  487.011; -883.048; -837.913
735.427; 1360.688; -166.048; -355.913
735.690;  143.765; -205.048; -234.913
735.952;  -29.233; -923.048; -925.914
736.215;  -16.232;-1113.048;-1009.914
736.478;   48.320; -771.047; -774.915
736.740;  213.322;   33.953;  129.085
737.003;  630.474; -658.047; -672.915
737.266; 4151.876;  -94.047;   46.084
737.528;  463.603; -682.047; -660.916
737.791;  328.405; -316.046; -327.916
738.053;  783.632;  465.954;  649.083
738.316;10606.434; -162.046; -136.917
738.578; 8303.360; -770.046; -736.918
738.841;  473.637; -382.046; -446.918
739.103;  172.189; -875.045; -777.918
739.365;  533.966;   79.955;  -69.919
739.628;   -2.382; -884.045; -805.919
739.890;  -23.955; -758.045; -710.919
740.152;  -31.678; -692.044; -754.920
740.414;   -3.251; -408.044; -359.920
740.677;  -46.749; -785.044; -634.921
740.939;  -50.273; -587.044; -487.921
741.201;  278.229; -432.044; -572.921
741.463;   44.006; -689.043; -745.922
741.725;   16.458;  -21.043; -199.922
741.987;   52.635;  220.957;  116.078
742.249;    8.362; -751.043; -859.923
742.511;  211.614; -703.043; -794.923
742.773;   13.216; -546.042; -546.924
743.035;  137.567;  796.958;  533.076
743.297;  -44.556; -963.042;-1013.924
743.559;  749.546; -278.042; -262.925
743.821;   84.923; -735.042; -744.925
744.083;   10.600;  -44.041; -149.925
744.345;  -94.123; -869.041; -892.926
744.607;   39.329;   75.959;  122.074
744.868;  -54.719; -490.041; -554.927
745.130;  -91.517; -994.041;-1008.927
745.392;   40.559;   -1.040;  -44.927
745.653;   -7.614; -411.040; -378.928
745.915;  156.188;  896.960;  631.072
746.177;   57.365;   35.960;  -43.928
746.438;   -0.858; -428.040; -543.929
746.700;  -28.006; -947.039; -988.929
746.961;   -1.279; -659.039; -740.930
747.223;  142.248; -190.039;  -74.930
747.484;   82.175; -391.039; -471.930
747.746;  137.701;  -23.038; -106.931
748.007;  133.053; -647.038; -689.931
748.269;  287.055; -468.038; -440.931
748.530;  501.682; -852.038; -638.932
748.791;  267.109; -354.038; -420.932
749.053;  449.786;  286.963;  163.067
749.314;  456.788; -236.037; -169.933
749.575;  525.015; -945.037; -905.933
749.836;  872.666; -217.037;   86.066
750.098; 2325.943;  -60.037;  -21.934
750.359;36601.820;  414.964;  555.066
750.620;10291.297; -121.036; -220.935
750.881; 1105.274; -585.036; -513.935
751.142; 1371.451; -950.036; -938.936
751.403;16520.128; -789.036; -705.936
751.664; 8056.380;-1034.035; -999.936
751.925;  514.182; -175.035; -262.937
752.186;  289.183; -298.035; -278.937
752.447;  132.185; -590.035; -445.937
752.708;   56.537; -532.035; -648.938
752.969;   19.489; -566.034; -576.938
753.230;   -4.434; -777.034; -672.939
753.491;    0.118; -650.034; -631.939
753.751;   54.795;  109.966;   19.061
754.012;  102.522;  258.967;  181.060
754.273;   60.974; -174.033;  -71.940
754.534;    6.750; -487.033; -580.940
754.794;  -71.123; -926.033; -911.941
755.055;  140.204; 1051.967;  881.059
755.316;  -43.094; -700.032; -566.942
755.576;  -20.917; -606.032; -576.942
755.837;  -35.790; -527.032; -695.942
756.097;  -36.638; -530.032; -564.943
756.358;  -76.661; -725.032; -770.943
756.618;  -49.110; -705.031; -641.943
756.879;    8.792; -254.031; -349.944
757.139; -120.406;-1098.031;-1116.944
757.400;  -45.379; -538.031; -553.945
757.660;  -21.452; -365.031; -401.945
757.920;   29.725; -266.030; -228.945
758.181;  -34.323; -468.030; -351.946
758.441;  -88.921; -870.030; -809.946
758.701;  -19.719; -308.030; -215.946
758.961;  -26.793; -220.030; -278.947
759.222;  -40.391; -574.029; -502.947
759.482;  -87.964; -683.029; -723.948
759.742;  -75.162; -706.029; -547.948
760.002;    3.290;  -83.029; -143.948
760.262;   34.492;   50.972;  182.051
760.522;  -37.506; -498.028; -574.949
760.782;  -46.579; -738.028; -612.949
761.042;  -40.653; -618.028; -573.950
761.302;   34.599;   55.972;  -18.950
761.562;   65.851; -164.027; -154.951
761.822;   92.153; -710.027; -551.951
762.082;  -27.345;-1104.027;-1093.951
762.342;   69.932; -328.027; -403.952
762.601;   85.084; -567.027; -506.952
762.861;  385.011; -281.026; -207.952
763.121;  411.238; -406.026; -411.953
763.381; 7301.514; -499.026; -485.953
763.640; 9046.191; -139.026; -307.954
763.900;  373.618; -242.026; -203.954
764.160;   98.395; -458.025; -491.954
764.419;    0.172; -726.025; -782.955
764.679;  -66.051; -795.025; -726.955
764.939;  -10.349; -124.025; -210.955
765.198;  -78.872; -608.025; -563.956
765.458;  -75.045; -710.024; -612.956
765.717;  -81.794; -454.024; -590.957
765.976;  -58.367; -428.024; -411.957
766.236;  -83.565; -475.024; -610.957
766.495;   19.712;  260.977;   73.042
766.755;  -79.111;-1090.023; -987.958
767.014;    2.141; -594.023; -665.958
767.273;  -50.582; -373.023; -397.959
767.533;  -45.255; -228.023; -307.959
767.792;  -33.104; -151.022; -188.960
768.051;  -50.427; -228.022; -276.960
768.310;  -73.525; -546.022; -650.960
768.569;  -11.198; -161.022;    4.039
768.828;  -28.146; -285.022; -363.961
769.088; -121.619;-1050.021; -942.961
769.347;  -72.667; -755.021; -599.962
769.606;  -92.565; -876.021; -857.962
769.865; -110.513;-1016.021;-1033.963
770.124;   -0.562; -411.021; -336.963
770.383;  -24.960; -778.020; -910.963
770.641;   12.117; -398.020; -400.964
770.900;  -61.981; -953.020; -846.964
771.159;  -41.929; -851.020; -951.964
771.418;   -1.327; -917.020; -779.965
771.677;  142.075; -224.019; -293.965
771.936;  151.702; -794.019; -865.966
772.194; 1990.779; -465.019; -437.966
772.453;11665.780; -213.019; -391.966
772.712;  850.532;  416.982;  329.033
772.970;  124.834;   32.982;   63.033
773.229;   83.436;  -22.018;  102.033
773.488;  -87.962; -814.018; -770.968
773.746;   64.490;  296.982;  335.032
774.005;   -9.483;  190.983;  -22.969
774.263;   14.194;  243.983;  177.031
774.522;  -41.380; -422.017; -548.969
774.780;  -83.453; -484.017; -417.970
775.039;  -93.976; -551.017; -531.970
775.297;  -37.074; -135.016; -351.970
775.555; -117.497; -489.016; -612.971
775.814; -123.445; -618.016; -570.971
776.072; -123.343; -749.016; -740.971
776.330;  -95.766; -630.016; -520.972
776.589; -123.964; -703.015; -721.972
776.847; -118.013; -645.015; -624.973
777.105; -164.586;-1016.015;-1032.973
777.363;  -81.184; -459.015; -454.973
777.621; -133.957; -660.015; -717.974
777.879;  -29.430;  -42.014;   32.026
778.138;  -96.078; -554.014; -717.974
778.396;  -99.351; -585.014; -526.975
778.654; -165.374;-1015.014; -970.975
778.912;  -69.122; -269.014; -371.976
779.170; -136.971; -880.013; -803.976
779.427; -135.169; -922.013; -897.976
779.685; -130.242; -880.013; -832.977
779.943;  -75.015; -654.013; -593.977
780.201; -154.838; -964.012; -883.978
780.459; -115.936; -651.012; -610.978
780.717;  -84.034; -440.012; -390.978
780.974; -106.957; -449.012; -490.979
781.232;  -79.356; -358.012; -338.979
781.490;  -83.279; -551.011; -472.979
781.747;  -98.027; -555.011; -476.980
782.005;   21.525;  462.989;  254.020
782.263; -164.973; -542.011;-1004.981
782.520;  -82.921; -326.011; -501.981
782.778; -170.069;-1013.010;-1051.981
783.035; -165.967; -962.010; -938.982
783.293;  -65.490; -248.010; -206.982
783.550;  -57.489; -134.010; -198.982
783.808; -138.087; -764.010; -776.983
784.065; -150.785; -745.009; -874.983
784.322;  -44.483;   25.991;  -86.984
784.580; -125.881; -915.009; -771.984
784.837;  -97.154; -392.009; -466.984
785.094; -119.677; -783.009; -762.985
785.352;  -67.350; -304.008; -404.985
785.609; -102.423; -934.008; -839.985
785.866;  -89.197; -345.008; -401.986
786.123;  -64.870; -639.008; -583.986
786.380; -102.193; -665.008; -604.987
786.637;  -46.391; -225.007; -380.987
786.895;  -12.639; -456.007; -543.987
787.152;  -44.312; -135.007; -267.988
787.409;  -36.285; -123.007; -225.988
787.666;  -85.683; -299.006; -378.988
787.923; -107.157; -616.006; -695.989
788.179; -104.405; -551.006; -584.989
788.436; -102.803; -585.006; -585.990
788.693;  -44.151;  -92.006;  -87.990
788.950;  122.776; -125.005; -112.990
789.207;  243.828; -381.005; -372.991
789.464;  -55.770; -161.005; -301.991
789.720;   -8.893;  150.995;  110.009
789.977; -159.741;-1003.005; -671.992
790.234;  -30.740;   44.996;  -66.992
790.490; -154.363; -884.004;-1031.993
790.747;   -9.236;  -85.004;   22.007
791.004;  -46.659; -426.004; -348.993
791.260;  -77.657; -430.004; -560.994
791.517; -106.155; -843.003; -788.994
791.773;  -31.753; -379.003; -342.994
792.030; -103.801; -596.003; -660.995
792.286; -101.424; -686.003; -636.995
792.543;  -18.548;  -74.002; -159.995
792.799;  -52.246; -584.002; -382.996
793.055; -159.719;-1179.002;-1210.996
793.312;  -92.717; -827.002; -816.997
793.568;  -62.965; -746.002; -599.997
793.824;   12.812; -226.001; -284.997
794.081;   22.964; -447.001; -508.998
794.337;   64.441; -664.001; -561.998
794.593; 1199.717; -319.001; -271.999
794.849; 7052.969; -746.001; -772.999
795.105;  396.571; -270.000; -261.999
795.361;    8.273; -490.000; -457.000
795.617;  -58.925; -875.000; -945.000
795.873;  -44.875; -360.000; -407.000
796.129;  -22.175; -368.000; -306.000
796.385;  -23.000; -124.000; -156.000
796.641;   66.175;  412.000;  550.000
796.897;  -78.200; -666.000; -635.000
797.153;   61.025;  453.000;  357.000
797.409; -105.000; -785.000; -868.000
797.665;  -73.400; -625.000; -732.000
797.921;  -70.425; -775.000; -762.000
798.176;  -51.000; -744.000; -747.000
798.432;  -39.050; -824.000; -596.000
798.688;  -79.300;-1174.000;-1078.000
798.943;   89.175; -165.000; -147.000
799.199;   10.725;-1005.000; -959.000
799.455;  233.675;  369.000;  316.000
799.710;  144.625; -813.000; -380.000
799.966;  300.850; -162.000; -160.000
800.221;  489.150; -638.000; -721.000
800.477; 9996.900; -743.000; -710.000
800.732;10348.025; -773.000; -800.000
800.988;  671.650;  205.000;  -19.000
801.243; 1652.850; -454.000; -344.000
801.498; 8230.350; -814.000; -739.000
801.754;  519.250; -289.000; -163.000
802.009;   97.375; -257.000; -335.000
802.264;  -41.400; -967.000;-1033.000
802.520;   18.275;  222.000;   -3.000
802.775;  -52.825; -524.000; -359.000
803.030;   57.375;  395.000;  356.000
803.285; -113.400; -840.000; -903.000
803.540;  -58.800; -686.000; -699.000
803.795;  -46.400; -648.000; -583.000
804.051;  -47.000; -279.000; -346.000
804.306;   29.075;  168.000;  128.000
804.561;  140.275;  451.000;  362.000
804.816;  121.275;  714.000;  861.000
805.071;    1.775; -185.000; -280.000
805.325;  218.450; -257.000; -427.000
805.580;  -81.075; -841.000; -877.000
805.835;   -9.575; -204.000; -297.000
806.090;  -67.875; -760.000; -676.000
806.345;  -21.925; -344.000; -264.000
806.600;  -22.400; -549.000; -632.000
806.854;  -37.550; -408.000; -538.000
807.109;    0.775; -493.000; -577.000
807.364;   -2.100; -407.000; -328.000
807.618;    9.375; -415.000; -381.000
807.873;   56.950; -470.000; -494.000
808.128;   95.625; -257.000; -518.000
808.382;  117.550; -224.000; -332.000
808.637;   91.075; -440.000; -511.000
808.891;  192.925; -257.000; -180.000
809.146;  104.425; -902.000; -794.000
809.400;  272.025; -848.000; -923.000
809.654;  361.000; -779.000; -551.000
809.909;  512.175; -841.000; -927.000
810.163; 6112.825; -813.000; -651.000
810.418;18482.725; -940.000; -861.000
810.672; 1168.100; -685.000; -690.000
810.926;  740.175; -993.000; -973.000
811.180; 1404.700; -439.000; -372.000
811.434;31595.100;  240.000;  135.000
811.689;15064.125; -231.000; -365.000
811.943;  722.750; -936.000; -953.000
812.197;  380.625; -893.000; -671.000
812.451;  150.025; -379.000; -514.000
812.705;    0.000; -809.000; -619.000
812.959;  -15.300; -263.000; -388.000
813.213;    8.175; -283.000; -209.000
813.467;   66.325;  470.000;  253.000
813.721;  -83.425; -764.000; -792.000
813.975; -110.675; -826.000; -877.000
814.229;   40.375;  430.000;  353.000
814.482;  -63.500; -517.000; -566.000
814.736; -114.375; -766.000; -744.000
814.990; -120.200; -779.000; -872.000
815.244;  -46.825; -228.000; -285.000
815.497;  -93.450; -636.000; -601.000
815.751;  -26.700; -141.000;   82.000
816.005;  -91.625; -470.000; -586.000
816.258;  -63.475; -510.000; -363.000
816.512; -105.150; -693.000; -610.000
816.766;   10.775;  121.000;  157.000
817.019;   15.650;  148.000;  149.000
817.273; -102.650;-1000.000; -802.000
817.526;  -40.250; -206.000; -173.000
817.779;  -39.175;-1049.000; -960.000
818.033;  -57.400; -693.000; -807.000
818.286; -108.100; -725.000; -792.000
818.540;  -81.275; -403.000; -403.000
818.793;  -75.750; -402.000; -489.000
819.046;  -96.125; -582.000; -520.000
819.299;  -46.875; -157.000; -166.000
819.553; -108.700; -552.000; -592.000
819.806; -153.700;-1016.000; -838.000
820.059;  -64.425; -334.000; -354.000
820.312;   10.450;  152.000;  185.000
820.565;  -30.125;  110.000;  -27.000
820.818;  -55.325;  -59.000; -173.000
821.071; -162.825;-1041.000; -957.000
821.324; -112.800; -536.000; -540.000
821.577;  -99.000; -457.000; -483.000
821.830;  -76.725; -270.000; -172.000
822.083; -133.900; -733.000; -288.000
822.336;  -42.250; -261.000; -167.000
822.589; -136.475; -805.000; -688.000
822.842; -146.250; -875.000; -770.000
823.094; -180.125;-1076.000;-1114.000
823.347; -128.775; -925.000; -729.000
823.600;   13.100;  402.000;  187.000
823.853;  -51.450; -311.000; -267.000
824.105;  -76.150; -331.000; -575.000
824.358;  -97.100; -617.000; -716.000
824.611;   21.225;  234.000;   40.000
824.863;  -40.350; -612.000; -591.000
825.116;   44.800;  -33.000;   27.000
825.368;   83.125; -366.000; -372.000
825.621;  172.050; -186.000; -240.000
825.873;   86.250; -704.000; -737.000
826.126;  555.975; -669.000; -641.000
826.378;11480.050; -389.000; -505.000
826.630; 3403.775; -890.000; -898.000
826.883;   55.275; -754.000; -693.000
827.135;   53.325; -279.000; -270.000
827.387; -107.750; -893.000; -839.000
827.639;  -25.150;  -86.000;   32.000
827.892; -131.000; -742.000; -582.000
828.144; -136.400; -848.000; -804.000
828.396;  -50.150;  104.000;  -80.000
828.648; -106.925; -440.000; -333.000
828.900; -139.200; -702.000; -795.000
829.152; -115.950; -684.000; -683.000
829.404;  -56.275; -215.000; -267.000
829.656;  -22.925;  321.000;  214.000
829.908;  -15.100;  393.000;  229.000
830.160; -170.425;-1064.000;-1047.000
830.412; -100.950; -481.000; -430.000
830.664; -126.050; -557.000; -665.000
830.916;  -85.250; -268.000; -206.000
831.167; -172.500;-1073.000; -951.000
831.419; -101.900; -623.000; -566.000
831.671; -144.250; -764.000; -809.000
831.923;  -89.650; -311.000; -447.000
832.174;  -80.825; -273.000; -331.000
832.426; -117.400; -493.000; -582.000
832.678; -189.325;-1043.000;-1091.000
832.929; -160.225; -947.000; -935.000
833.181;  -77.875; -575.000; -677.000
833.432;  -59.925;  -59.000; -186.000
833.684;  -20.350;  112.000;  -27.000
833.935; -119.250; -610.000; -566.000
834.187; -131.825; -829.000; -823.000
834.438;  -54.300;  -58.000;  -25.000
834.689;  -62.900; -255.000; -123.000
834.941;  -39.650; -343.000; -244.000
835.192;  -98.025; -590.000; -533.000
835.443; -105.900; -419.000; -506.000
835.695;  -18.800;  138.000;  -16.000
835.946;  -90.975; -608.000; -378.000
836.197; -113.450; -599.000; -622.000
836.448;  -92.825; -528.000; -395.000
836.699;  -61.550; -253.000; -341.000
836.950;  -14.650;   72.000;    7.000
837.201; -154.100;-1003.000; -987.000
837.452;  -42.250; -356.000; -170.000
837.703; -116.475; -791.000; -737.000
837.954;  -37.950; -205.000; -365.000
838.205;  -77.725;-1029.000;-1008.000
838.456;  166.550; -196.000; -282.000
838.707;    4.525; -423.000; -519.000
838.958;   11.100; -634.000; -647.000
839.209;  297.775;   18.000;   40.000
839.460;  115.025; -439.000; -201.000
839.710;  163.750; -135.000; -297.000
839.961;  436.700;  730.000;  612.000
840.212;  364.150; -382.000; -497.000
840.462; 1052.925; -328.000; -277.000
840.713;17430.075; -571.000; -536.000
840.964; 8341.250;  -62.000; -143.000
841.214;  547.700; -384.000; -624.000
841.465;  587.250; -214.000; -141.000
841.715;  531.750; -417.000; -380.000
841.966;  677.125; -746.000; -685.000
842.216; 8214.775; -330.000; -431.000
842.466;36792.650; -169.000; -313.000
842.717; 2454.975; -964.000; -952.000
842.967;  344.250; -635.000; -641.000
843.217;  280.075;   20.000;   28.000
843.468;   74.550; -104.000; -132.000
843.718;  -30.075; -718.000; -726.000
843.968;  -86.925; -837.000; -765.000
844.218;    9.725; -315.000; -262.000
844.469;  -46.675; -577.000; -561.000
844.719; -114.375; -537.000; -682.000
844.969;  -88.600; -550.000; -580.000
845.219; -146.250; -814.000; -862.000
845.469;  -72.675; -392.000; -342.000
845.719; -141.975; -792.000; -884.000
845.969;  -24.075;  119.000;  174.000
846.219; -116.925; -738.000; -720.000
846.469;    6.550;  464.000;  432.000
846.718;  -51.775; -115.000;   31.000
846.968; -128.925; -827.000; -827.000
847.218;  -58.200; -224.000; -371.000
847.468;   -1.975; -586.000; -555.000
847.718; -143.875; -827.000; -798.000
847.967; -136.000; -826.000; -915.000
848.217;  -86.150; -449.000; -569.000
848.467;  -66.425; -405.000; -376.000
848.716; -107.875; -708.000; -725.000
848.966;   -7.875; -372.000; -358.000
849.215;  -74.325; -428.000; -419.000
849.465;  -86.200; -785.000; -615.000
849.714; -140.625;-1132.000;-1150.000
849.964;  -70.450; -551.000; -613.000
850.213;   -8.250; -393.000; -355.000
850.463;   79.925;  137.000;  340.000
850.712;   -7.175; -542.000; -567.000
850.961;   21.900; -739.000; -678.000
851.211;  108.875; -513.000; -504.000
851.460;  170.375; -635.000; -650.000
851.709;  538.100;  -25.000;   18.000
851.958; 9716.375; -912.000; -750.000
852.208;14125.450; -859.000; -879.000
852.457;  548.650; -181.000;  -13.000
852.706;   87.000; -791.000; -823.000
852.955;   27.650; -507.000; -528.000
853.204;  -71.300; -521.000; -461.000
853.453;  -62.550; -418.000; -458.000
853.702; -141.225; -660.000; -750.000
853.951; -113.250; -532.000; -520.000
854.200; -119.025; -613.000; -562.000
854.449; -134.575; -695.000; -661.000
854.698;  -96.800; -340.000; -279.000
854.946;  -63.125; -181.000; -284.000
855.195; -158.100; -843.000; -868.000
855.444;  -93.475; -395.000; -420.000
855.693; -127.450; -345.000; -432.000
855.941; -105.650; -387.000; -516.000
856.190;  -60.325; -256.000; -382.000
856.439; -121.600; -652.000; -703.000
856.687;  -63.200;  -99.000;  -72.000
856.936; -113.400; -621.000; -323.000
857.184; -189.400;-1067.000;-1020.000
857.433; -108.700; -423.000; -512.000
857.681; -176.925; -989.000; -953.000
857.930;  -90.500; -282.000; -433.000
858.178; -173.175; -856.000; -929.000
858.427; -149.250; -802.000; -781.000
858.675; -124.100; -377.000; -544.000
858.923; -100.200; -527.000; -819.000
859.172; -180.725;-1094.000;-1070.000
859.420;  -90.550; -339.000; -239.000
859.668; -136.375; -624.000; -628.000
859.916;  -23.050;  109.000;  115.000
860.164; -114.050; -699.000; -603.000
860.413;  237.700; -878.000; -696.000
860.661;  271.475; -709.000; -577.000
860.909;  -71.175; -339.000; -325.000
861.157;  -83.525; -277.000; -444.000
861.405; -132.400; -534.000; -670.000
861.653;   -0.900;  310.000;  310.000
861.901;  156.700; -543.000; -613.000
862.149;   14.900; -801.000; -824.000
862.396;  -86.525; -297.000; -187.000
862.644;  -99.050; -368.000; -347.000
862.892;  -36.250;   98.000;  138.000
863.140; -104.475; -549.000; -530.000
863.388; -156.200; -815.000; -759.000
863.635; -121.575; -642.000; -601.000
863.883;  -20.275;  231.000;  190.000
864.131;  -96.850; -288.000; -357.000
864.378; -145.225; -675.000; -540.000
864.626; -114.175; -347.000; -415.000
864.873; -116.450; -556.000; -505.000
865.121; -145.025; -714.000; -799.000
865.368;  -55.775; -173.000;   75.000
865.616;  -47.300;  -33.000;  -40.000
865.863;  -74.925; -462.000; -506.000
866.111; -110.625; -795.000; -824.000
866.358;   34.425; -426.000; -420.000
866.605; 2090.925;  -64.000; -804.000
866.853; 2537.175; -621.000; -537.000
867.100;  -31.375; -728.000; -775.000
867.347; -100.625; -672.000; -611.000
867.594;  -95.750; -740.000; -714.000
867.841;   88.625;   97.000;   17.000
868.089; -144.550; -746.000; -698.000
868.336; -119.250; -477.000; -420.000
868.583; -153.200; -637.000; -741.000
868.830;  -56.800; -131.000; -170.000
869.077; -156.925; -859.000; -787.000
869.324; -126.550; -502.000; -458.000
869.571; -137.900; -398.000; -430.000
869.818; -132.700; -485.000; -439.000
870.065; -116.350; -439.000; -513.000
870.311; -113.900; -456.000; -542.000
870.558; -111.750; -332.000; -311.000
870.805;  -91.100; -320.000; -384.000
871.052; -112.650; -494.000; -369.000
871.298;  -63.350; -204.000; -131.000
871.545;  -74.450; -151.000; -185.000
871.792;  -91.075; -173.000; -222.000
872.038;  -77.000;   43.000; -126.000
872.285; -128.700; -496.000; -387.000
872.532; -105.200; -357.000; -387.000
872.778;    6.950;  556.000;  403.000
873.025; -102.575; -384.000; -359.000
873.271;    0.650;  501.000;  578.000
873.517;  -32.375; -133.000; -209.000
873.764;  -19.550; -193.000;  -80.000
874.010;  -70.975; -143.000; -230.000
874.257;  -55.900;  123.000;   90.000
874.503; -138.975; -579.000; -479.000
874.749;  -76.800;   31.000;  275.000
874.995;  -79.550;  -80.000;  -20.000
875.242; -120.275; -540.000; -478.000
875.488; -106.200; -414.000; -439.000
875.734;  -49.500; -106.000; -234.000
875.980;  157.200; -872.000;-1032.000
876.226;  395.200; -157.000; -255.000
876.472;    2.600;  343.000;  237.000
876.718;  -45.600;  184.000;  158.000
876.964;  -43.200;   56.000;   55.000
877.210; -148.375; -547.000; -677.000
877.456; -142.000; -630.000; -557.000
877.702; -171.100; -821.000; -832.000
877.948; -119.425; -377.000; -497.000
878.193;   13.800;  361.000;  255.000
878.439;  -88.925; -487.000; -472.000
878.685;  -99.100; -272.000; -343.000
878.931; -131.025; -618.000; -676.000
879.176;  -85.875; -201.000; -201.000
879.422; -175.775; -933.000; -820.000
879.668;   49.125;   10.000;   79.000
879.913;  155.075;   53.000;  137.000
880.159;  -53.575; -112.000;  -17.000
880.404;  -71.300; -152.000; -162.000
880.650;  -57.900;   91.000;  141.000
880.895; -152.650; -670.000; -710.000
881.141; -120.550; -454.000; -428.000
881.386; -164.175; -503.000; -658.000
881.631;  -95.700; -311.000; -166.000
881.877;  -40.700;  112.000;  -13.000
882.122; -131.250; -684.000; -600.000
882.367;  -89.300; -136.000; -186.000
882.612;  -71.775;  -80.000; -176.000
882.858; -170.900; -877.000; -823.000
883.103;  -89.900; -297.000; -267.000
883.348; -153.150; -759.000; -852.000
883.593; -146.850; -677.000; -602.000
883.838;  -67.675; -311.000;  -24.000
884.083;   26.725;  353.000;  288.000
884.328;  -92.275; -564.000; -545.000
884.573;  -50.650; -196.000; -143.000
884.818;  178.425; -694.000; -531.000
885.063;  211.650; -348.000; -315.000
885.308; -110.950; -475.000; -398.000
885.553;   -9.700;  245.000;  325.000
885.797; -138.575; -545.000; -615.000
886.042;  -63.325;    8.000;   58.000
886.287;  -87.425; -253.000; -211.000
886.532;  -47.950;   26.000;  204.000
886.776; -109.025; -407.000; -525.000
887.021; -144.150; -621.000; -574.000
887.265; -157.100; -685.000; -689.000
887.510; -134.975; -557.000; -496.000
887.755;  -90.850; -194.000; -164.000
887.999; -144.875; -552.000; -575.000
888.244;  -77.200;  -58.000;  161.000
888.488;  -23.750;  371.000;  393.000
888.732; -125.225; -368.000; -520.000
888.977; -150.550; -622.000; -567.000
889.221; -146.725; -683.000; -659.000
889.465; -127.575; -422.000; -566.000
889.710;  -88.475;  -56.000; -299.000
889.954;    3.125;  579.000;  467.000
890.198; -152.000; -584.000; -707.000
890.442; -153.925; -716.000; -712.000
890.687; -151.600; -800.000; -753.000
890.931; -105.325; -273.000; -210.000
891.175; -136.525; -502.000; -500.000
891.419;  -78.875; -105.000; -110.000
891.663;  -90.725; -239.000; -112.000
891.907; -174.975; -801.000; -545.000
892.151; -184.900; -920.000; -815.000
892.395; -115.675; -274.000; -387.000
892.638;  -37.800;  408.000;  291.000
892.882; -184.350; -780.000; -867.000
893.126;    9.050;  758.000;  558.000
893.370;  -93.925; -167.000; -168.000
893.614; -145.175; -714.000; -715.000
893.857; -108.200; -183.000; -197.000
894.101; -147.050; -527.000; -631.000
894.345;  -61.400;  300.000;  150.000
894.588;    1.625;  569.000;  380.000
894.832; -107.750; -178.000;  -84.000
895.075;  -75.975;   15.000;  -92.000
895.319; -130.500; -552.000; -420.000
895.563; -121.925; -413.000; -353.000
895.806; -147.700; -628.000; -741.000
896.049;  -74.625; -576.000; -368.000
896.293;   87.725;  527.000;  405.000
896.536;  -80.250; -465.000; -468.000
896.779;  -59.775; -149.000;   -1.000
897.023; -159.200; -751.000; -714.000
897.266;  -36.350;  325.000;  269.000
897.509; -174.425; -900.000; -901.000
897.752;  -44.000;  149.000;  171.000
897.996; -198.325; -972.000; -864.000
898.239;  -52.650;  168.000;  102.000
898.482; -137.875; -431.000; -453.000
898.725;  -46.375;  101.000;   53.000
898.968; -156.825; -609.000; -744.000
899.211; -117.950; -513.000; -361.000
899.454; -127.975; -633.000; -539.000
899.697;  -66.425;   90.000;  -43.000
899.940; -170.825; -761.000; -757.000
900.182; -106.250; -335.000; -405.000
900.425; -109.475; -150.000; -298.000
900.668;  -16.975;  491.000;  350.000
900.911; -101.325; -292.000; -345.000
901.154;  -55.075;  141.000;   -3.000
901.396; -141.575; -407.000; -412.000
901.639; -133.150; -430.000; -496.000
901.882; -192.750; -790.000; -809.000
902.124;  -86.050;  -29.000; -143.000
902.367; -122.975; -315.000; -361.000
902.609; -143.200; -476.000; -453.000
902.852;  -86.550; -108.000; -260.000
903.094; -121.650; -458.000; -337.000
903.337;  -58.025;  -26.000;   53.000
903.579; -109.775; -228.000; -441.000
903.821; -166.525; -597.000; -744.000
904.064;  -64.100;   85.000;  127.000
904.306; -100.175; -126.000; -166.000
904.548; -113.175; -152.000; -366.000
904.790; -105.500; -195.000; -340.000
905.033; -131.850; -625.000; -577.000
905.275; -125.275; -513.000; -524.000
905.517;   27.475;  468.000;  256.000
905.759;  -65.350; -667.000; -761.000
906.001;  -95.800; -322.000; -369.000
906.243;  -72.525; -162.000; -224.000
906.485;  110.350; -265.000; -207.000
906.727;  124.550; -499.000; -542.000
906.969;  -36.325;  -30.000; -135.000
907.211;  104.675; -316.000; -382.000
907.453;  290.175; -188.000; -237.000
907.695;   20.575; -158.000; -385.000
907.936;   38.000;  818.000;  706.000
908.178;  -53.500;   92.000; -135.000
908.420;  -63.375; -111.000; -162.000
908.662; -130.775; -633.000; -682.000
908.903;  -96.775; -208.000; -123.000
909.145;  -58.925; -240.000; -305.000
909.386;    4.425;  315.000;  280.000
909.628;   27.800;  363.000;  397.000
909.870;    7.550;   29.000;  264.000
910.111;  -77.600; -809.000; -949.000
910.353;    8.175; -123.000; -161.000
910.594;    5.950; -574.000; -606.000
910.835;   75.675; -265.000; -326.000
911.077;  154.750; -503.000; -604.000
911.318;  310.775; -505.000; -471.000
911.559;  467.850; -577.000; -880.000
911.801; 1342.400; -284.000; -280.000
912.042; 9915.100;  -50.000; -159.000
912.283;28921.250;  404.000;  371.000
912.524; 5144.275; -396.000; -457.000
912.765;  552.475; -193.000;   79.000
913.006;  256.750; -307.000; -338.000
913.247;   74.275; -270.000; -290.000
913.488;  -15.675;  -43.000;   30.000
913.729;  -76.000; -373.000; -373.000
913.970;  -55.875;  -96.000; -292.000
914.211;  -72.575; -160.000; -198.000
914.452;  -57.750; -118.000;  -11.000
914.693;   -4.200;  510.000;  592.000
914.934;    2.675;  510.000;  440.000
915.175;  -61.975;   53.000;  -95.000
915.415;  -84.725; -137.000;   27.000
915.656;  -69.025;  -28.000;  192.000
915.897;  -99.950; -252.000;  -82.000
916.137;  -62.975;   74.000;   -9.000
916.378; -143.625; -573.000; -517.000
916.619;  -84.275; -159.000;  -63.000
916.859;  -39.075;  303.000;  330.000
917.100;  128.750; 1655.000; 1070.000
917.340;   45.125;  930.000;  728.000
917.581;   52.200;  965.000;  789.000
917.821;  -36.525; -171.000;  143.000
918.061;   24.675; -199.000;  -72.000
918.302;  -55.050; -152.000; -211.000
918.542;  -20.100;  -22.000;    3.000
918.782;   32.750;  369.000;  377.000
919.023;  111.750;  360.000;  427.000
919.263; 1685.650; 8131.000;  202.000
919.503; 1198.950; -137.000;  -54.000
919.743;  609.250;  390.000;  266.000
919.983;  307.325; -134.000;  -26.000
920.223;   82.450;  135.000;   14.000
920.463;  139.175;  631.000;  554.000
920.703;  133.775;   84.000;   39.000
920.943;  168.300; -110.000;   90.000
921.183;  242.225; -414.000; -405.000
921.423;  531.050;  307.000;  546.000
921.663;  739.700; -174.000; -257.000
921.903; 1573.075;  237.000;  173.000
922.143; 8327.450;  372.000;  389.000
922.383;33913.975;  158.000;  115.000
922.622;13435.550; -120.000;  -15.000
922.862; 1377.175;  796.000;  785.000
923.102;  506.725;  -51.000;   33.000
923.341;  200.550;   59.000;   74.000
923.581;   98.100;  450.000;  360.000
923.821;   31.775;  301.000;  398.000
924.060;    3.675;  351.000;  193.000
924.300;  -53.700;  -16.000; -128.000
924.539;   -3.750;  584.000;  473.000
924.779;    0.500;  812.000;  597.000
925.018;  -43.050;  247.000;  353.000
925.257;   -1.725;  595.000;  666.000
925.497;  -54.650;  447.000;  412.000
925.736;  -63.125;  -35.000;  102.000
925.975;  -16.100;  687.000;  669.000
926.214;   29.800;  907.000;  850.000
926.454;   19.300;  706.000;  757.000
926.693;  -45.775;  419.000;  543.000
926.932;   32.500; 1021.000;  825.000
927.171;   60.750; 1107.000; 1044.000
927.410;   52.650; 1144.000;  967.000
927.649;   25.125;  924.000;  742.000
927.888;  -22.375;  590.000;  564.000
928.127;   -6.325;  680.000;  678.000
928.366;   28.550;  842.000;  826.000
928.605;   43.700;  831.000;  737.000
928.844;  221.175; 1451.000; 1393.000
929.083;  599.550;  770.000;  613.000
929.321;  358.325; 1335.000; 1359.000
929.560;   93.100; 1158.000; 1122.000
929.799;  -42.275;  574.000;  475.000
930.038;   66.325; 1025.000; 1394.000
930.276;  -56.800;  334.000;  397.000
930.515;   -7.625;  827.000;  681.000
930.753;  -25.500;  614.000;  589.000
930.992;   -8.225;  664.000;  717.000
931.230;   -3.175;  847.000;  847.000
931.469;  165.550; 2162.000;  892.000
931.707;   65.425;  840.000;  751.000
931.946;   65.975; 1278.000; 1344.000
932.184;   47.800; 1437.000; 1175.000
932.423;   45.200; 1265.000;  963.000
932.661;   87.975; 1296.000; 1428.000
932.899;   32.525;  987.000;  821.000
933.137;   19.075;  754.000;  564.000
933.376;  144.325; 1664.000; 1335.000
933.614;  168.675; 1759.000; 1196.000
933.852;   64.575; 1357.000; 1171.000
934.090;  129.600; 1722.000; 1747.000
934.328;  106.750; 1252.000; 1457.000
934.566;   89.675; 1431.000; 1110.000
934.804;  134.475; 1263.000; 1309.000
935.042;  444.575; 1861.000; 1850.000
935.280; 1729.600; 2088.000; 2063.000
935.518; 1838.000; 2113.000; 2007.000
935.756;  387.950; 2481.000; 2316.000
935.994;  167.125; 1808.000; 1751.000
936.231;  361.475; 2890.000; 2950.000
936.469;  199.400; 2367.000; 2378.000
936.707;  169.850; 2220.000; 2167.000
936.945;  238.000; 2825.000; 2882.000
937.182;  212.250; 2679.000; 2741.000
937.420;  299.150; 3602.000; 3031.000
937.657;  413.875; 3365.000; 3478.000
937.895;  373.550; 3331.000; 3488.000
938.133;  302.275; 3540.000; 3528.000
938.370;  339.675; 3896.000; 4191.000
938.607;  400.150; 4488.000; 4205.000
938.845;  548.750; 5587.000; 5549.000
939.082;  472.350; 5387.000; 5177.000
939.320;  547.025; 5799.000; 5728.000
939.557;  635.675; 6549.000; 6491.000
939.794;  712.900; 7285.000; 7097.000
940.031;  886.125; 8421.000; 8368.000
940.269; 1105.475; 9552.000; 9107.000
940.506; 1130.375;10901.000;10507.000

