
Integration time [ms]: 100.000
Averaging Nr. [scans]: 40
Smoothing Nr. [pixels]: 0
Data measured with spectrometer [name]: 2101013U2
Wave   ;Sample   ;Dark     ;Reference
[nm]   ;[counts] ;[counts] ;[counts] 

394.013;   57.222; -450.257; -315.536
394.305;  258.295; -461.258; -419.536
394.596; 1088.593; -676.269; -527.514
394.887; 2580.035; -796.268; -654.518
395.178;  989.040;  145.736;   11.476
395.470;   93.101; -210.263; -356.526
395.761;  220.774;  305.734;  394.479
396.052;  376.819; -545.284; -306.489
396.343;  394.563; -557.276; -454.503
396.634;  142.083; -200.279; -290.497
396.926;  162.557; -618.268; -565.517
397.217;  140.968;   11.725;  -17.504
397.508;   53.834; -366.273; -154.507
397.799;   65.058; -555.279; -571.497
398.090;   12.452; -973.280; -902.495
398.381;  148.745;   11.708;  -11.473
398.672;   -2.804; -585.292; -742.473
398.963;   70.489; -348.279; -373.498
399.254;  128.830;   54.709; -209.475
399.545;  -14.104;-1017.266; -883.520
399.836;   63.153; -407.277; -343.501
400.127;   77.847; -205.295; -209.468
400.418;   67.003; -423.274; -392.506
400.709;   89.464; -359.281; -333.493
401.000;   46.484; -268.291; -309.476
401.290;  107.359;  225.698;  115.545
401.581;   63.002; -166.286; -228.485
401.872;   28.894; -542.298; -486.462
402.163;   47.789; -313.296; -252.467
402.454;  100.256; -123.291; -163.475
402.744;   87.581; -844.297; -813.465
403.035;  509.562; -226.293;  -86.471
403.326;  668.899; -366.292; -384.474
403.617;  444.539;  204.701;  165.539
403.907;  260.125; -593.283; -679.490
404.198; 2329.714; -545.307; -599.446
404.489; 6114.205; -618.283; -588.491
404.779; 2118.538; -618.302; -660.456
405.070;  244.541;  -67.304; -174.451
405.360;  338.464; -259.293; -238.472
405.651;  368.849;  125.699;   98.542
405.942;  217.323;  209.714;  127.516
406.232;  331.312; -432.285; -413.487
406.523;  548.332;  641.706;  758.530
406.813;  119.575; -579.286; -644.484
407.104;  398.294;  261.708;  144.527
407.394;  211.790; -604.299; -591.462
407.685;  162.361;  336.715;  222.513
407.975;   64.404; -400.283; -382.490
408.265;  118.645; -134.289; -190.478
408.556;   71.978; -472.291; -459.475
408.846;  166.232;  474.706;  429.530
409.137;   92.304;   -1.288; -216.480
409.427;   61.712; -193.285; -271.487
409.717;   45.612; -776.273; -692.508
410.007;  154.080;    4.715; -170.486
410.298;   88.549; -360.295; -342.469
410.588;   89.609; -495.285; -510.486
410.878;   39.015; -792.287; -873.482
411.168;  134.372; -481.298; -478.463
411.459;  137.873; -295.283; -242.489
411.749;   72.352; -609.292; -507.474
412.039;   63.927; -755.289; -386.480
412.329;  201.896;   40.722;  132.501
412.619;  222.825;  -62.286; -148.485
412.909;  380.698;  639.711;  594.521
413.199;  387.102; -130.280; -251.495
413.490;  434.864;  521.710;  352.523
413.780;  160.706;-1013.279; -913.496
414.070;  329.164;  -46.276;  235.497
414.360;  389.492; -729.278; -666.498
414.650;  427.461; -726.288; -688.482
414.940;  524.481; -538.280; -441.496
415.230;  932.808;   50.712;   74.519
415.520; 5950.642;  155.730;   66.486
415.809;23393.064; -305.281; -125.493
416.099;17942.430; -388.277; -229.501
416.389; 4933.551;  435.726;  236.494
416.679; 2908.679;   91.738;   85.473
416.969;  546.194; -527.287; -503.483
417.259;  469.808;  341.721;  171.503
417.549;  694.188;  522.718;  318.508
417.838; 1601.859; -205.268; -147.518
418.128; 5294.694;  650.710;  492.522
418.418; 4423.643; -491.272; -579.509
418.708; 2962.076;    9.726;  -48.506
418.997;11110.122; -474.275; -480.505
419.287;11579.683; -733.273; -790.507
419.577;10848.798; -160.283; -123.489
419.866;35909.403; -588.277; -498.501
420.156;37224.763; -242.270;  -55.513
420.446; 6722.222; -112.263;  -26.526
420.735;  925.907; -376.271; -446.512
421.025;  864.841; 1830.722;  315.502
421.314;  758.481; -203.271; -226.512
421.604; 1715.102;   89.732;  233.484
421.893;  997.202; -705.271; -602.511
422.183;  258.547; -487.263; -461.526
422.472;  396.103;  -36.271; -107.511
422.762;  503.527; -416.266; -379.521
423.051;  269.440; -916.276; -916.503
423.341;  343.110; -491.273; -439.507
423.630;  445.083; -121.265;   15.477
423.919;  405.571;   58.725;   49.495
424.209;  368.903;  -31.263;   56.473
424.498;  497.632;   68.732;  161.483
424.787; 1087.688; -535.267; -601.518
425.077; 3353.956;   34.735;   29.478
425.366; 5040.158; -734.262; -744.528
425.655; 9728.660;  639.727;  259.493
425.945;20110.386; -313.247; -268.554
426.234;11117.231;  117.741;  300.467
426.523; 4949.486;  -86.259; -350.534
426.812; 6707.873;  107.734;  159.480
427.101; 9895.248; -127.269; -323.515
427.390;12696.542;  -55.270;  -86.514
427.680; 3174.330; -624.257; -411.538
427.969;  511.391; -330.255; -301.540
428.258;  331.947; -385.257; -477.536
428.547;  568.172;  449.728;  397.490
428.836; 1464.957; -421.253; -398.543
429.125; 2110.862; -199.259;  -72.534
429.414;  877.304; -330.251; -294.548
429.703; 3034.229; -231.251; -213.548
429.992; 9000.808; -938.250; -828.549
430.281; 5908.765; -397.264; -331.524
430.570;  598.745;  -21.252;   32.454
430.859;  645.810;  279.741;  352.466
431.148;  480.431;  636.752;  631.446
431.437;  295.869;  391.748;  367.454
431.725;  159.773; -544.257; -481.536
432.014;  139.664; -845.253; -756.545
432.303;  393.931; -149.239; -105.569
432.592;  671.997; -460.263; -178.525
432.881; 1064.183; -601.248; -437.554
433.169; 5937.117; -343.255;  -61.540
433.458;12031.890;  445.765;  540.424
433.747; 5098.914; -397.261; -289.529
434.036;  980.957; -275.242; -280.564
434.324; 2073.545; -395.249; -379.551
434.613; 3555.876;   40.757;  159.437
434.902; 1239.121;  333.760;  439.433
435.190;  697.105;   75.761;  295.431
435.479;  396.133;  -52.245;   83.441
435.767;  123.166; -411.244; -427.561
436.056;  254.078; -340.242; -294.563
436.345;  369.924; -372.240; -223.568
436.633;  406.940;   60.750;  383.450
436.922;  314.076;  208.760;  414.432
437.210;  738.805; -194.236;    1.426
437.499; 2457.663; -583.235; -432.576
437.787; 2708.004; -339.236;  -10.574
438.075;  647.911;   56.761;  162.430
438.364;  895.288;  -44.238;  250.429
438.652;  558.066; -286.226; -138.592
438.941;  172.806;    3.770;  269.415
439.229;   12.467; -665.252; -466.545
439.517;   47.771; -160.234;  -85.577
439.806;    5.532; -501.225; -290.595
440.094;  212.153;  377.766;  650.421
440.382;  234.282; -653.233; -302.580
440.670;  258.462; -361.235; -285.576
440.959;   49.899; -347.223; -170.599
441.247;   87.942; -151.229; -109.587
441.535;  118.019; -266.235;   31.423
441.823;   55.976; -497.234; -305.578
442.111;  192.071;  173.771;  327.412
442.400;  618.357; -628.245; -335.559
442.688; 1721.803; -111.234; -620.579
442.976; 1269.461; -786.213; -450.617
443.264;  134.664; -324.224; -364.597
443.552;  112.017; -258.226;   51.408
443.840;  171.743;  602.765;  876.423
444.128;  121.256;  265.767;  269.420
444.416;    5.074; -694.228; -312.588
444.704;   37.078; -465.219;  -92.605
444.992;   98.445;   -0.226;  240.407
445.280;   69.407; -517.230;  -94.585
445.568;   53.739; -694.212; -396.618
445.856;  396.438; -174.221;  357.398
446.143;  959.700;  -54.220;   -7.604
446.431;  774.828;  -25.228;  625.411
446.719;  263.897;  489.783;  675.391
447.007;  207.501;  481.769;  705.416
447.295;  187.846;  597.777;  871.402
447.583;   92.515; -464.229;  -34.587
447.870;  175.210; -434.221; -202.601
448.158;  490.705; -104.230;  129.415
448.446;  391.351; -800.219; -338.604
448.733;  189.265;   13.776;  269.403
449.021;  269.864;   60.788;  341.382
449.309;  188.654; -296.210;  208.379
449.596;  236.769;  128.783;   59.392
449.884;  167.103; -571.222; -325.600
450.172;  141.983; -756.227; -406.590
450.459;  410.744;  645.786;  780.387
450.747; 2195.317; -411.218; -147.608
451.034; 7217.304;  493.772;  889.411
451.322; 5863.297; -413.214; -170.614
451.609;  509.841;  292.777;  508.403
451.897;  563.316; -550.203; -183.634
452.184; 1728.046; -622.223; -400.598
452.472; 1626.775;   97.792;  269.375
452.759;  364.601;  512.781;  864.395
453.047;  121.561; -407.212; -125.617
453.334;   88.884; -732.219; -216.606
453.621;   98.399; -438.214; -161.615
453.909;  127.633;   13.796;  384.368
454.196;  117.728; -299.199; -123.641
454.483;  219.504;  317.798;  540.364
454.771;  140.478; -215.208;  196.374
455.058;   29.256; -316.207;  102.374
455.345;   98.607;   71.807;  344.347
455.632;   99.209; -128.207;  235.373
455.919;   47.625;  -82.196;  182.354
456.207;  -35.218; -774.198; -450.642
456.494;  -10.885; -475.200;  -66.639
456.781;   18.824; -399.202; -198.635
457.068;   65.266; -253.206;  -29.628
457.355;    0.767; -698.206; -401.629
457.642;    5.697; -552.205; -290.630
457.929;    8.273; -778.194; -417.651
458.216;   56.137; -575.212; -354.617
458.503;  233.878; -173.193;  -19.652
458.790;  210.126; -864.208; -630.625
459.077;  276.004;  -77.202;  110.364
459.364;  773.566; -350.195; -210.649
459.651; 1623.189;  -46.206;  220.372
459.938;  751.316; -864.209; -665.623
460.225;  167.732;  132.799;  276.363
460.512;  -36.953; -836.197; -688.645
460.799;  110.541;  -32.218;  320.392
461.086;   77.770; -370.200; -251.640
461.372;   66.057; -509.198; -279.642
461.659;  124.301; -165.196;  108.354
461.946;   77.076; -445.193;  -54.651
462.233;  239.718;  842.800;  888.361
462.519;  357.665; -814.201; -464.639
462.806;  984.473; -768.197; -497.645
463.093;  839.972; -445.191;  -66.656
463.380;  -18.987; -920.186; -824.664
463.666;   71.724; -259.197;  -18.646
463.953;   94.736; -406.195; -243.648
464.239;  206.336; -173.195;  -77.648
464.526;  406.972;  413.806;  743.350
464.813;  384.508; -565.190; -304.658
465.099;  381.627;  606.807;  607.348
465.386;  365.981;  903.807;  921.348
465.672;   35.623; -694.197; -522.645
465.959;   34.051; -598.188; -520.662
466.245;   24.031; -468.193; -359.652
466.532;  117.709; -109.195;   63.352
466.818;   84.637; -357.186; -216.664
467.104;   18.302; -488.182; -415.672
467.391;  -22.240; -628.189; -459.658
467.677;   41.491; -289.186;    9.335
467.964;    8.017; -682.189; -471.660
468.250;   61.818; -331.186; -160.665
468.536;   77.461;   90.811;  180.341
468.822;  -38.170; -821.184; -574.668
469.109;  153.757;  351.827;  471.311
469.395;  197.341;  729.808;  787.346
469.681;  185.064;   46.811;  156.341
469.967; 1211.594; -699.188; -382.660
470.254; 2606.902; -494.188; -306.662
470.540; 1644.675; -601.196; -476.646
470.826;  249.588; -488.181; -397.675
471.112;  296.659;  288.816;  113.331
471.398;   73.613; -253.183;  -58.670
471.684;   54.891; -626.177; -447.680
471.970;   -1.708; -918.180; -981.675
472.256;   16.990; -521.192; -441.654
472.542;   21.892; -499.171; -434.691
472.828;   22.523; -743.182; -607.672
473.114;   40.010; -380.166; -283.700
473.400;   22.682; -504.175; -293.684
473.686;   44.741; -452.166; -400.701
473.972;   75.071; -230.174; -131.687
474.258;  -49.643; -925.173; -843.689
474.544;  184.658; -183.178;   -2.679
474.830;  285.659;  -65.175;   45.316
475.116;  446.910; -123.190; -196.658
475.401;  592.594; -558.180; -467.676
475.687;  189.718; -725.180; -718.676
475.973;    3.731; -673.181; -770.673
476.259;  243.636;  736.825;  764.315
476.544;  363.624; -539.176; -437.682
476.830;  761.213; -398.172; -322.690
477.116;  638.122; -430.177; -336.682
477.401;  131.543;  346.820;  358.324
477.687;  -28.218; -289.175; -405.684
477.973;   38.084;   21.819;   28.326
478.258;  -10.738; -448.163; -348.706
478.544;   48.774;   21.815;   61.334
478.829;  -60.152; -818.171; -738.692
479.115;  -34.912; -749.172; -651.690
479.401;    1.567; -444.174; -449.686
479.686;   18.442; -253.180;  -74.676
479.972;  -39.887; -886.178; -776.680
480.257;   33.662; -258.166;  -65.700
480.542;   -7.898; -614.170; -469.693
480.828;  221.430; 1288.824; 1392.317
481.113;  -17.247; -464.176; -426.683
481.399;    4.535; -236.161; -202.711
481.684;  -61.264; -620.166; -462.700
481.969;   20.848; -158.159;  -73.713
482.255;    5.312; -439.169; -285.695
482.540;    1.388; -569.178; -441.680
482.825;    9.183; -395.187; -404.663
483.110;   84.115;  -85.169; -105.696
483.396;  135.620; -840.157; -652.718
483.681;  440.172;  543.826;  730.313
483.966;  133.142; -696.160; -700.712
484.251;  -10.179; -404.174; -310.687
484.536;    5.772; -356.165; -378.703
484.822;   24.899; -205.173; -218.687
485.107;  -26.768; -599.152; -502.726
485.392;  114.352;  662.836;  541.296
485.677;   76.275;  354.832;  163.302
485.962;  101.392;  160.843;  270.283
486.247;   84.744;  -14.162;   -8.707
486.532;   44.313; -178.166; -325.701
486.817;  161.205;  381.839;  431.291
487.102;  118.640; -453.154; -514.722
487.387;  602.546; -637.156; -652.718
487.672; 1083.857; -154.164;  -38.705
487.957;  662.012; -394.160; -286.711
488.241;  208.774; -290.150; -314.729
488.526;  665.359; -280.152; -148.726
488.811; 1100.290; -881.177; -818.680
489.096;  821.768; -666.154; -702.723
489.381;  486.005;    3.847;  162.275
489.666;  348.835; -428.161; -510.710
489.950;  176.621;  558.846;  627.277
490.235;  -44.081; -480.151; -458.728
490.520;  -42.766; -756.161; -723.710
490.804;  -61.952; -827.156; -736.719
491.089;   -6.136; -469.149; -299.732
491.374;   32.431; -132.164;  -75.704
491.658;    5.226; -817.147; -717.735
491.943;  185.238; -657.152; -609.727
492.227;  280.436; -178.155;  -38.721
492.512;   68.142; -294.157; -341.717
492.797;  -57.042; -713.149; -716.731
493.081;  -58.647; -588.147; -598.735
493.366;  -33.540; -751.161; -635.711
493.650;  190.856;  831.859;  917.254
493.935;   22.525; -648.147; -447.734
494.219;  -49.882; -778.142; -687.743
494.503;  -43.947; -585.150; -487.730
494.788;   53.358;   46.842;   74.285
495.072;  102.800;  184.850;  434.271
495.356;  177.867; -463.148; -343.733
495.641;  467.760; -812.146; -736.736
495.925;  465.978; -976.156; -903.719
496.209;   44.089; -599.149; -451.732
496.494;  -36.656; -763.142; -544.744
496.778;   10.091; -364.154; -360.722
497.062;  -57.772; -819.156; -627.719
497.346;  -28.287; -869.160; -640.711
497.631;  145.021;  580.852;  560.266
497.915;   76.670;  -64.145;  175.261
498.199;   56.920; -341.157; -277.718
498.483;   49.332; -562.152; -508.725
498.767;  175.776;  301.850;  300.271
499.051;  178.186; -126.149; -100.732
499.335;   19.585; -693.149; -739.731
499.619;  -30.345; -381.129; -423.767
499.903;   35.110; -272.155;  -65.721
500.187;   42.273; -588.153; -316.724
500.471;   25.562; -796.152; -595.727
500.755;  109.809;   62.839;  -96.710
501.039;   29.311; -270.155; -357.721
501.323;   92.807;  -21.141;  264.254
501.607;   46.012; -447.163; -503.706
501.891;    2.971; -607.156; -512.718
502.174;  -30.644; -726.144; -585.741
502.458;   62.191;   89.849;  370.273
502.742;   39.931; -180.138; -191.751
503.026;   97.949; -412.147; -254.734
503.310;  146.147; -437.159; -375.713
503.593;  113.676; -464.147; -325.735
503.877;  115.696; -232.133; -156.760
504.161;  185.100;    2.847;  -50.724
504.444;  140.936; -841.158; -710.716
504.728;  417.755; -487.164; -522.704
505.012;  665.523; -257.150;  -76.729
505.295;  521.335; -417.161; -212.711
505.579;  499.453; -256.156; -496.719
505.862;  690.466; -555.145; -333.738
506.146;  676.125; -681.159; -758.714
506.429;  387.325;  568.841;  461.286
506.713;   54.020; -732.151; -667.728
506.996;  312.540;   90.846;  295.278
507.280;  313.750; -633.165; -474.703
507.563;  225.034; -469.155; -261.721
507.847;   80.373; -423.153; -112.724
508.130;   77.461; -665.161; -456.711
508.413;  109.157; -758.167; -577.700
508.697;  239.508; -151.167;   12.300
508.980;  138.900; -422.153; -312.724
509.263;    3.705; -466.155; -450.720
509.547;   34.448; -124.150;   82.271
509.830;   56.913; -172.160;  140.289
510.113;   82.852;  128.844;  298.281
510.396;   34.455; -530.152; -300.725
510.680;  213.718; -818.145; -812.738
510.963;  786.219;  184.846;  180.277
511.246;  699.130; -493.150; -357.730
511.529;  293.148; -482.145;  -83.739
511.812;  346.442; -250.134;   10.241
512.095;  246.667; -740.151; -396.728
512.378;   71.830; -317.147; -245.736
512.661;   41.688; -703.137; -623.753
512.944;   26.445; -750.142; -637.744
513.227;   73.661; -170.137; -171.752
513.510;   24.356; -479.144; -671.741
513.793;   34.112; -485.140; -435.747
514.076;  129.301;  -43.127;  -39.771
514.359;  109.365; -294.149; -135.732
514.642;   83.173; -442.142; -567.744
514.925;  697.610;  581.860;  561.253
515.208;  909.539; -498.134; -443.758
515.491;  606.977; -276.133; -182.761
515.773;  360.935; -410.143; -337.742
516.056; 1965.670;  249.864;  409.246
516.339; 2671.699; -754.136; -652.755
516.622; 2039.353; -518.150; -488.730
516.904; 1489.417;  882.857;  975.257
517.187;  724.334; -730.138; -523.752
517.470;  407.390; -568.143; -510.743
517.752;  404.126; -624.136; -470.756
518.035;  323.272; -708.139; -725.749
518.318;  328.199; -799.136; -744.755
518.600; 2206.481; -300.132; -325.762
518.883; 3059.022;  310.858;   88.256
519.165; 1487.477; -585.138; -426.751
519.448;  420.630;  -61.132;  -19.762
519.730;  221.458; -573.126; -415.773
520.013;  342.123;  588.867;  664.240
520.295; 1031.719;  -94.134;  -15.759
520.578; 2329.143; -335.131; -305.764
520.860; 2566.106; -254.132;   56.238
521.143; 1276.128; -763.135; -584.756
521.425;  495.846; -251.125; -279.775
521.707;  669.401; -622.127; -380.771
521.990; 1656.277; -199.127;  167.229
522.272; 1871.663; -116.140;   -4.748
522.554;  914.235; -237.143; -157.742
522.836;  432.292;  -24.134;   99.241
523.119;  248.598; -496.148; -189.734
523.401;  167.000; -448.130; -314.766
523.683;   86.264; -865.137; -693.753
523.965;  257.732;  408.862;  260.248
524.247;  249.967;   54.878;  170.220
524.529;  189.619; -451.134; -367.759
524.812;  336.577;   -3.130;  191.234
525.094;  807.157; -773.138; -631.751
525.376; 1259.605; -143.124;   78.223
525.658;  747.396; -441.136; -339.754
525.940;   26.940; -805.131; -671.764
526.222;   52.849; -188.136;  -88.755
526.504;  135.938; -190.131;   32.237
526.786;  247.646; -960.133; -647.760
527.068;  372.835; -124.123;  -67.778
527.349;  184.117; -865.137; -774.754
527.631;  145.930; -137.132;   22.238
527.913;  124.825; -664.127; -450.771
528.195;  138.714; -761.125; -639.774
528.477;  234.064;  -93.134;  -30.758
528.759;  109.577; -648.130; -522.766
529.040;   49.084; -569.123; -293.778
529.322;   40.792; -235.125;  -10.774
529.604;  161.754;  -47.130;   93.233
529.886;  168.033; -546.126; -302.773
530.167;  138.596;  232.870;  192.235
530.449;   50.955;    1.853;   63.265
530.731;   17.241; -572.122; -459.779
531.012;   42.861; -513.120; -216.784
531.294;   80.500; -118.116;  -43.792
531.575;  125.496;  290.875;  538.225
531.857;   42.834; -548.135; -266.757
532.138;   82.681; -113.141;   40.254
532.420;  193.455;  294.865;  403.244
532.701;  256.474; -722.133; -751.760
532.983;  403.602;  232.867;  182.239
533.264;  139.006; -243.126;  175.228
533.546;  -27.726; -491.136; -508.755
533.827;   53.995;  173.867;   -1.759
534.109;   58.284; -352.135;  -80.757
534.390;  113.834; -725.132; -582.762
534.671;  251.805; -270.135;  -82.756
534.953;  145.587; -751.123; -611.779
535.234;   12.760; -426.117; -255.789
535.515;  -89.505; -891.119; -735.785
535.796;  -14.103; -431.128; -193.770
536.078; -125.120;-1050.124; -904.777
536.359;   -1.388;  -22.123;    3.221
536.640;  -23.309; -480.125; -197.774
536.921;  162.784;  225.871;  143.232
537.202;  366.054;  -87.138;  -16.751
537.483;  440.968;  251.869;  377.236
537.764;  165.871;   17.870;   98.235
538.045;  -40.837; -543.134; -371.758
538.326;  -42.789; -596.129; -447.768
538.607;   12.627; -686.127; -476.771
538.888;  155.203;   98.879;    5.218
539.169;  178.122; -704.122; -535.781
539.450;  335.983;  236.871;   16.233
539.731;  222.407; -361.121; -182.783
540.012;  150.086;  199.880;  412.216
540.293;   92.099;   82.876;  158.224
540.574;   19.520; -895.113; -717.796
540.855;  455.355;  435.879;  377.218
541.136;  535.070;   47.878;  139.220
541.416;  265.752; -161.130; -220.766
541.697;  172.788; -274.131; -170.763
541.978;  949.857; -270.135; -315.757
542.259; 1223.302; -211.127; -236.771
542.539;  590.469; -191.116; -186.790
542.820;  177.671;  461.875;  480.225
543.101;  138.819;  -52.145;  -77.738
543.381;   39.202; -638.127; -591.771
543.662;  258.199;  159.873; -254.771
543.942;  536.122; -751.127; -830.770
544.223;  981.846;  193.878;  161.219
544.504;  633.429; -275.124; -182.777
544.784;  555.708; -592.126; -408.773
545.065; 1556.498;  104.884; -254.791
545.345; 1835.145;  227.881;   14.215
545.626; 1184.520;  -14.113; -108.796
545.906;  825.545;   77.869;   98.235
546.186;  338.037;   92.874;  -95.773
546.467;  184.482;   99.877;  -95.778
546.747;  302.069;  264.884;  327.210
547.027;  358.478;   91.876;  111.223
547.308;  305.722; -376.127; -530.770
547.588;  376.387;  299.871;  371.232
547.868;  182.471;  458.870;  588.235
548.149;  184.980;  609.885;  593.207
548.429;  107.950; -347.127; -299.771
548.709;  171.636; -645.120; -461.784
548.989;  439.029;   84.882;   88.213
549.269; 1932.054;   10.868;  139.239
549.550; 4442.936;  215.877;  117.222
549.830; 3992.662; -758.111; -556.799
550.110;  774.520; -468.110; -320.801
550.390;  766.066; -128.122;  -56.779
550.670; 1065.640; -868.114; -783.795
550.950;  731.255; -509.121; -471.782
551.230;  178.226;  549.879;  460.218
551.510;  -10.796; -381.121; -326.782
551.790;   31.927; -173.109; -127.803
552.070;  242.232;  940.877; 1181.223
552.350;  371.199; -492.119; -377.786
552.630;  552.774;   -2.121;   77.219
552.909;  314.323;  181.884;   73.209
553.189;  207.760;  -49.132;   33.237
553.469;  178.923; -703.119; -514.786
553.749;  163.803; -469.127; -357.772
554.029;  146.214;   33.883;  -24.790
554.308;  129.984; -154.115;  -37.794
554.588;   52.720; -196.128; -204.770
554.868;   51.055; -366.121;  -47.782
555.147;  126.556; -114.115;  -46.793
555.427;  541.375; -260.116; -250.792
555.707; 3573.354; -284.115; -200.793
555.986; 4350.041; -719.111; -538.800
556.266; 2265.942;   23.884;   72.210
556.546;  100.454; -888.121; -675.782
556.825;  221.438; -657.114; -556.794
557.105; 1615.543; -125.128;   17.230
557.384; 1927.622;  122.884;  187.209
557.664;  715.800; -717.116; -508.792
557.943;   95.755; -557.121; -411.782
558.222;  161.332; -345.118; -344.788
558.502;  251.358; -116.115;  -76.793
558.781;  467.478;  194.885;  499.208
559.061;  369.932; -232.118; -227.788
559.340;  255.187;  302.883;  353.211
559.619;  646.142;   93.884;  148.210
559.899;  932.839; -239.117; -266.789
560.178;  873.757; -778.115; -593.793
560.457; 2900.990; -623.117; -562.790
560.736; 4018.992; -472.111; -482.800
561.015; 2679.241; -500.128; -502.769
561.295;  363.572;  180.893;  215.193
561.574;  331.230;  119.885;  116.207
561.853;  486.132;  274.891;  303.197
562.132;  456.385;  -45.114;  182.206
562.411;  403.649;  396.879;  553.219
562.690;  132.428; -592.115; -458.792
562.969;  118.427;  472.888;  630.203
563.248;  491.972; 2966.878; 2487.219
563.527;  257.791; -290.111; -408.800
563.806;  350.550; -650.127; -521.771
564.085;  377.562; -297.105; -206.810
564.364;  223.042; -594.117; -405.790
564.643;  444.175; -276.121; -223.781
564.922; 1720.351;  221.890;  397.198
565.201; 1720.729; -640.109; -700.803
565.479;  740.177; -297.115; -219.792
565.758;  296.794; -810.128; -712.770
566.037;  435.830; -155.109; -100.803
566.316;  215.922; -286.116;  -28.791
566.595;   27.779;  -17.115;  -12.793
566.873;   85.118; -166.111;  -79.801
567.152;  -66.749; -490.113; -590.797
567.431;   -3.982; -113.116;    6.210
567.709;   14.022; -344.107; -212.807
567.988;  237.613; -810.114; -769.794
568.266;  491.804; -160.115;  -68.793
568.545;  360.683; -644.100; -514.819
568.824;  537.726;  160.885;  356.208
569.102;  505.163; -351.114; -235.794
569.381;  181.700; -492.116; -407.792
569.659;  -51.027; -553.113; -553.796
569.938;   24.920; -743.122; -465.780
570.216;   91.633; -225.109; -225.804
570.494;  -29.109; -632.114; -572.795
570.773;   20.453;  202.879;  114.218
571.051;   11.535; -373.123; -357.778
571.330;   45.170; -221.113; -174.796
571.608;   46.376; -181.098; -173.823
571.886;  -82.140; -671.111; -581.799
572.164;  -75.420; -739.121; -621.782
572.443;  -46.234; -562.105; -512.811
572.721;  -46.309; -399.117; -289.790
572.999;  -33.741; -280.117; -168.788
573.277;   88.259;  379.894;  620.191
573.555;  249.461;   94.894;   37.190
573.834; 1194.284;  -86.117; -114.788
574.112; 1430.024;  880.893;  811.193
574.390;  438.342; -143.111;  -96.801
574.668;    1.552;  -91.112;  -61.797
574.946;  -20.214; -165.106; -187.810
575.224;    5.129;   71.891;  -16.803
575.502;  -21.530; -200.116; -204.791
575.780;  -87.572; -767.112; -829.798
576.058;  216.091; 1589.889; 1004.200
576.336;  -23.453; -210.110; -129.801
576.614;  -60.021; -511.112; -340.798
576.891;   38.309; -711.115; -823.794
577.169;  437.116; -158.108; -285.805
577.447;  506.724;  169.893;  202.193
577.725;  250.033;  629.888;  854.201
578.003;   -7.269;  -71.112; -371.798
578.280;   91.399; -208.104; -242.812
578.558;   60.583; -450.115; -422.793
578.836;  120.866; -210.114; -145.795
579.114;   37.752; -630.112; -670.797
579.391;   68.411;   -6.117;  -18.789
579.669;  -82.891; -595.114; -704.794
579.947;  155.321; -326.107; -127.806
580.224;  286.021; -692.107; -524.806
580.502;  293.575;  127.893;   76.193
580.779;   15.041;  -42.117;   75.210
581.057;  -71.167; -584.109; -470.804
581.334; -104.786; -726.102; -695.815
581.612;   32.762;   54.895;  511.190
581.889;  -27.448;  -83.101; -129.818
582.167;  -32.059; -298.099; -190.821
582.444;  -93.678; -845.102; -814.817
582.721;   90.447;  657.899;  715.183
582.999;   42.963; -326.100; -167.821
583.276;  471.564; -812.123; -713.779
583.553;  635.942; -364.102; -294.816
583.831;  212.321; -607.104; -631.812
584.108;   52.739;  349.892;  174.195
584.385;   -6.412; -122.102;  -98.815
584.662;  -79.856; -651.111; -828.801
584.940;   21.368;  204.889;  204.199
585.217;  -19.078;  -73.113; -303.796
585.494;   38.076;   71.890;  118.198
585.771;  190.034; -250.109; -354.804
586.048;  475.172; -196.113;  -76.796
586.325;  276.796; -721.110; -773.801
586.602;   78.875;  230.896;  213.188
586.879;  -28.790; -499.100; -580.820
587.156;   58.238; -156.105; -331.810
587.433;  -45.155; -701.102; -667.817
587.710;   61.629;  152.888;  234.202
587.987;  263.268; -264.105; -236.811
588.264;  763.156;  315.888;  387.202
588.541; 1265.152;  -61.104;   26.187
588.818; 2492.686;   72.892;  171.196
589.095; 2160.098; -163.104; -174.812
589.371;  349.757; -459.109; -414.804
589.648;    5.899; -581.107; -437.807
589.925;   24.292; -517.114; -621.795
590.202;    2.554; -741.112; -607.798
590.478;   76.920; -166.105;  -73.811
590.755;  231.317; -241.108; -132.806
591.032; 2255.573; -741.110; -699.802
591.308; 3106.290; -732.094; -790.831
591.585; 1607.048; -573.110; -560.802
591.862;  116.146;-1056.102; -950.817
592.138;   36.190; -475.108; -474.805
592.415;  124.901; -486.104; -495.813
592.691; 1356.773;  460.896;  518.188
592.968; 1753.453; -208.098; -123.824
593.244;  820.519; -695.116; -595.790
593.521;   62.797; -105.102;  -42.817
593.797;  -18.307; -810.122; -720.780
594.074;  292.915; -611.096; -588.826
594.350;  618.601;  828.905;  729.172
594.626;  277.869; -303.111; -283.801
594.903;   81.897; -643.101; -645.817
595.179;  176.454;  243.896;  418.187
595.455;   15.351; -136.107; -150.807
595.731;    4.231;  -19.103;  -38.814
596.008;  -49.212; -464.111; -434.800
596.284;   22.287; -187.100; -242.820
596.560;   44.971; -501.093; -493.833
596.836;  168.790; -173.105;  -70.810
597.112;  326.490; -582.108; -437.805
597.388;  250.063;  -49.097;  -48.826
597.665;  109.850;  437.887;  530.203
597.941;  -53.200; -572.089; -658.839
598.217;    4.701; -323.110; -293.802
598.493;  239.935;   61.891; -204.804
598.769;  462.557; -175.100;  -50.819
599.045;  257.518; -490.108; -562.806
599.321;   55.436; -193.100; -261.820
599.597;  119.585; -355.109; -476.804
599.872;  454.277;  409.896;  429.187
600.148;  325.964;  -61.097; -172.826
600.424;  270.548;   91.893;  202.193
600.700;  211.525; -170.107; -280.807
600.976;  108.059; -442.097; -464.825
601.252;  228.806; -226.109; -272.803
601.527;  177.828; -833.104; -840.813
601.803;  140.470; -453.105; -404.812
602.079;  165.007; -124.100; -118.819
602.354;  518.006; -620.092; -531.835
602.630;  755.647; -140.113; -482.796
602.906; 2102.002; -910.101; -863.818
603.181; 6169.824; -627.119; -534.786
603.457; 5235.362;   98.903; -278.826
603.733;  740.357; -605.120; -626.783
604.008;  878.412; -245.106; -164.810
604.284; 2817.048; -636.101; -580.817
604.559; 2417.208;   -3.112;  -42.799
604.835;  441.915; -163.105; -225.810
605.110;  353.467; -732.099; -892.821
605.385;  649.549;  224.907;  267.167
605.661;  576.304; -625.095; -729.829
605.936; 1065.719; -664.108; -737.806
606.211;  879.537;  -17.103; -170.815
606.487;  181.787; -329.114; -376.794
606.762;    9.574; -791.119; -745.786
607.037;  -18.435; -501.105; -433.810
607.313;  -56.328; -589.096; -574.828
607.588;  -13.564; -375.106; -137.810
607.863;   20.427;  -28.101; -143.818
608.138;  163.500;  513.890;  516.198
608.413;   13.995; -576.099; -592.822
608.688;   35.790; -203.108; -267.805
608.964;  160.756; -509.106; -218.809
609.239;  222.712; -107.105; -212.810
609.514;  220.345;  281.895;  240.188
609.789;  602.599; -187.104; -716.812
610.064;  794.321; -435.096; -609.827
610.339;  792.207; -855.109; -799.804
610.614; 1068.437; -131.100; -315.820
610.889;  581.570;  215.895;  107.188
611.163;   17.871; -407.104; -591.812
611.438;   72.513;   81.886; -167.794
611.713;   -5.552; -467.101; -499.817
611.988;   52.576; -144.101; -328.818
612.263;  -40.286; -771.102; -717.815
612.538;  198.547;  385.887;  251.204
612.812;  150.713; -832.100; -911.820
613.087;  117.875; -358.098; -338.823
613.362;  -72.275; -497.107; -557.807
613.637;   33.933;  261.897;  138.186
613.911;  -29.793; -256.092; -345.835
614.186;   93.249; -249.107; -292.807
614.460;  586.574; -842.081; -758.854
614.735;  715.398;  -55.087;  -17.843
615.010;  139.088;   43.912;  -82.841
615.284;  236.364;  360.892;  246.195
615.559;  330.256; -792.092; -955.835
615.833;  255.043;  -76.099;  -87.822
616.108;   -6.883; -225.090; -390.837
616.382;  123.225;  274.913;  402.156
616.656;  121.993; -241.090; -232.837
616.931;  451.994; -785.099; -700.822
617.205;  971.753; -973.104; -979.813
617.480;  913.694;  -91.125;    6.225
617.754;  135.491; -396.125; -128.774
618.028;   -2.513; -369.129; -382.768
618.302;   55.438;   73.892;  -25.805
618.577;  -63.865; -371.103; -518.815
618.851;  -76.646; -399.109; -600.803
619.125;  -54.306; -335.134; -378.759
619.399;  -32.596; -244.104; -374.813
619.673;  -45.124; -330.115; -515.792
619.947;  -62.334; -333.114; -448.795
620.222;  -12.606; -198.110; -204.801
620.496;  -21.070;  -47.121;  -96.782
620.770;   16.522; -187.122;  -93.781
621.044;  199.938;  323.895;  346.190
621.318;  688.208; -653.120; -614.783
621.592;  593.531; -430.121; -409.783
621.866;  316.709; -476.112; -572.799
622.140;   -0.780; -207.116; -356.791
622.413;   60.638;  138.889;  112.200
622.687;  -55.576; -746.101; -492.817
622.961;   16.788; -130.108; -143.805
623.235;  -67.661; -633.111; -661.800
623.509;  -96.880; -816.105; -848.811
623.783;    3.321;  -12.107;   48.193
624.056;  -16.666; -254.120; -280.783
624.330;   50.252;   63.888;   -3.797
624.604;   42.767; -271.116; -355.790
624.877;   74.374;  180.890;   26.198
625.151;   23.410; -249.114; -238.794
625.425;  -44.944; -150.103; -283.814
625.698;  -62.132; -367.119; -374.785
625.972; -102.024; -799.110; -765.802
626.245;   52.319;  685.884;  484.210
626.519;  -66.412; -426.120; -340.784
626.792;  -34.075; -192.107; -380.807
627.066;  -88.885; -485.122; -662.779
627.339; -101.353; -736.110; -663.802
627.613;   19.687;  351.880;  148.216
627.886;   54.453;  187.891; -612.803
628.160;  -28.942;  312.880; -161.783
628.433;  -87.828; -695.125; -703.775
628.706;  -93.087; -517.120; -615.784
628.979;   28.553;  296.876;  117.223
629.253;  -98.602; -785.119; -833.786
629.526;  331.406; -334.126; -253.772
629.799;  291.435; -641.123; -479.778
630.072;  144.389; -497.128; -516.769
630.346;  -74.981;-1115.116;-1080.790
630.619;  396.376; -467.107; -545.808
630.892;  563.064;  709.889;  593.200
631.165;  324.104;  790.896;  679.187
631.438;  -94.969;-1092.112;-1055.798
631.711;   46.438;  453.877;  257.221
631.984;  -64.661; -523.117; -624.789
632.257;  -68.864; -636.117; -681.789
632.530;  -57.882; -412.119; -433.785
632.803;   17.008; -109.115;    7.207
633.076;  -80.843; -360.123; -422.777
633.349;   -0.607;  173.872;  121.231
633.622;  -34.483; -187.119; -240.785
633.895; -121.041; -903.120; -823.783
634.167;  -68.217; -496.126; -525.773
634.440;  -16.500;  -19.116; -137.792
634.713;  -18.503;  -22.119; -120.786
634.986;   80.333;  593.871;  453.233
635.258;  -85.893; -507.115; -597.793
635.531;   92.807;  742.882; -343.788
635.804;  -29.512; -303.117; -318.789
636.077;  -84.804; -830.116; -852.791
636.349;   -8.895; -586.115; -474.793
636.622;  374.081; 1695.874; 1392.228
636.894;  200.913; -474.120; -909.784
637.167;  136.950; -836.127; -789.771
637.439;   32.271; -278.128; -213.770
637.712;  -41.393; -312.126; -293.772
637.984;  -83.328; -635.116; -707.791
638.257;  358.457;  515.877;  488.222
638.529;  527.748; -881.125; -924.776
638.802;  231.264; -508.128; -449.769
639.074; -118.704; -927.122; -952.781
639.346; -120.890; -942.135; -930.757
639.619;    1.596;  -79.142; -319.744
639.891;  -18.560;  -83.122; -168.779
640.163;  -79.208; -689.122; -756.780
640.435;   20.519;  273.878;  103.220
640.708;    0.545;  -72.122; -132.780
640.980;  -27.303; -366.122; -362.781
641.252;  175.524;  -25.121;  -71.781
641.524; 1692.826;  580.879;  573.219
641.796; 1721.178;-1094.121; -907.782
642.068;  306.329; -191.121; -300.782
642.340;  -55.644; -486.121; -566.783
642.613;   33.208;  294.880;  323.217
642.885; -106.815; -787.120; -878.783
643.157;  -40.163; -810.120; -658.784
643.428;   54.138;  170.880;  218.216
643.700;  -74.610; -498.120; -425.784
643.972;  -52.933;  -16.119; -133.785
644.244;  -78.456; -474.119; -559.785
644.516;  -54.379; -250.119; -114.786
644.788;   60.947;  662.881;  548.214
645.060;  -21.926;  -12.119; -124.786
645.332;  -89.849; -525.118; -535.787
645.603;   35.803;  479.882;  342.213
645.875;  -71.945; -334.118; -369.787
646.147;  143.681; 1487.882; 1242.212
646.418;  -86.942; -931.117; -918.788
646.690;  116.860; -714.117; -715.789
646.962;   21.912; -413.117; -451.789
647.233;  -18.736;   15.883;   11.211
647.505; -108.560; -595.117; -475.790
647.776;    4.742;  328.884;  229.210
648.048;    3.119; -248.116; -418.790
648.320;  -89.654; -752.116; -679.791
648.591; -168.402;-1055.116; -958.791
648.862; -100.276; -505.116; -577.792
649.134;   12.651;  115.885;  198.208
649.405;  -62.597; -661.115; -618.792
649.677;  -68.720; -475.115; -598.793
649.948;  -30.993; -181.115; -296.793
650.219;   -9.167;  -37.115; -147.793
650.491;  -86.940; -431.114; -520.794
650.762; -116.538; -705.114; -731.794
651.033;  -85.686; -437.114; -424.795
651.304;  -91.234; -743.114; -728.795
651.576;  -75.308; -680.114; -645.795
651.847;  -47.181; -250.113; -140.796
652.118;  -29.429;  -32.113; -189.796
652.389; -121.802; -639.113; -722.796
652.660;  -43.300; -147.113;  -89.797
652.931; -142.124; -897.112; -871.797
653.202;  -92.447; -382.112; -541.798
653.473;  -80.970; -633.112; -533.798
653.744;  128.232; -595.112; -590.798
654.015;  126.059; -356.112; -303.799
654.286;  -78.790; -642.111; -663.799
654.557;  -68.538; -586.111; -521.799
654.828; -164.736;-1114.111;-1088.800
655.099;  -76.234; -404.111; -291.800
655.370; -102.182; -427.111; -543.801
655.641; -116.731; -656.110; -714.801
655.911; -119.429; -618.110; -638.801
656.182;   43.348;  437.890;  387.198
656.453;   84.350;  830.890;  746.198
656.724;  -65.423; -466.110; -426.802
656.994;  -82.697; -553.109; -568.803
657.265; -107.170; -862.109; -873.803
657.536;  -98.643; -500.109; -377.804
657.806; -113.716; -561.109; -593.804
658.077; -136.814; -866.109; -950.804
658.347; -100.363; -523.108; -598.805
658.618; -125.186; -646.108; -694.805
658.888;  -19.109;  -41.108;  112.195
659.159;  -88.207; -432.108; -548.806
659.429;  -24.880; -292.108; -349.806
659.700;    7.546; -435.107; -390.807
659.970;  -18.002; -370.107; -359.807
660.241;  -14.575; -754.107; -921.807
660.511;  466.777; -147.107; -174.808
660.781;   74.154; -793.106; -748.808
661.052;  -49.895; -222.106; -381.808
661.322;  -25.843;   21.894;   -9.809
661.592;   19.059;  257.894;  148.191
661.862;  -95.339; -369.106; -382.810
662.133; -111.512; -551.105; -502.810
662.403; -130.611; -770.105; -676.810
662.673;  -53.934; -256.105; -213.811
662.943; -105.782; -612.105; -551.811
663.213;  -17.255;  -85.105;  -81.811
663.483;  -87.303; -593.104; -568.812
663.753;  -43.002; -194.104; -152.812
664.023;  -13.975;   68.896;  -32.813
664.293;  -60.748; -319.104; -126.813
664.563; -117.046; -694.104; -648.813
664.833; -117.169; -743.103; -608.814
665.103; -130.618; -730.103; -793.814
665.373; -112.666; -766.103; -806.814
665.643;  -98.064; -863.103; -918.815
665.913;   22.688; -534.103; -714.815
666.182;  112.190; -685.102; -719.816
666.452;  233.466;  -22.102;  -89.816
666.722;  -33.457; -724.102; -784.816
666.992; -128.480; -948.102; -921.817
667.261; -108.528; -824.102; -808.817
667.531;  174.149;  134.899;   45.183
667.801;  532.200; -440.101; -412.818
668.070;  234.577;  714.899;  697.182
668.340; -121.571; -883.101; -840.819
668.609;   75.656;  588.900;  301.181
668.879;  -84.567; -490.100; -558.819
669.149;  -86.441; -539.100; -516.820
669.418; -108.764; -698.100; -726.820
669.688;  -50.812; -482.100; -666.820
669.957;   59.140; -423.099; -546.821
670.226;  -30.583; -268.099; -331.821
670.496; -103.282; -431.099; -635.822
670.765;  -77.980; -418.099; -501.822
671.034; -150.003; -872.099; -828.822
671.304;   -6.651;   55.902; -111.823
671.573; -158.274;-1085.098; -957.823
671.842;   62.977; -380.098; -294.823
672.112;   11.229; -692.098; -586.824
672.381;  -10.944; -239.098; -214.824
672.650; -149.817;-1005.097;-1021.825
672.919;  -94.940; -631.097; -507.825
673.188;  -94.864; -681.097; -878.825
673.457; -160.362;-1101.097;-1143.826
673.726;  -81.685; -579.096; -646.826
673.995;  -42.858; -533.096; -479.826
674.265;  -33.631; -263.096; -333.827
674.534;   -5.155; -183.096; -235.827
674.802;  -14.403; -618.096; -703.828
675.071;  900.874; -886.095; -801.828
675.340; 3560.476; -464.095; -339.828
675.609; 1193.053;  103.905;   82.171
675.878;   54.479; -949.095; -893.829
676.147;   36.831;  -26.095;   -8.829
676.416;   64.083; -210.094; -294.830
676.685;  677.235; 1000.906; -622.830
676.953;   88.637; -603.094; -452.831
677.222;  -34.162; -193.094; -273.831
677.491;  -34.185;  -24.094; -127.831
677.759;   -2.108;   11.907;  172.168
678.028;  -27.856; -279.093; -222.832
678.297;   -8.004;   71.907;  197.168
678.565; -137.128; -898.093; -944.833
678.834;  -55.351; -311.093; -268.833
679.102;  -74.999; -411.092; -391.834
679.371; -137.472; -898.092; -727.834
679.639; -130.570; -797.092; -786.834
679.908; -123.869; -794.092; -724.835
680.176; -155.342; -895.091; -941.835
680.445;  -76.490; -346.091; -352.835
680.713;  -23.613;  -58.091;  -23.836
680.982;  -95.161; -523.091; -525.836
681.250; -108.785; -578.091; -507.837
681.518;  -97.408; -534.090; -751.837
681.787;  -16.606; -204.090; -167.837
682.055;  -63.104; -490.090; -422.838
682.323; -156.477; -993.090; -992.838
682.591;   15.049; -216.090; -538.838
682.859;   61.001;    9.911;  -35.839
683.128;    7.703;  232.911;  497.161
683.396; -167.370;-1102.089;-1122.840
683.664;  -39.993; -241.089;   21.160
683.932;   -8.142;  144.911;  -76.840
684.200;  -95.115; -576.088; -320.841
684.468;  -31.463;  -73.088; -124.841
684.736;  -29.186; -214.088; -175.841
685.004; -128.834;-1024.088; -982.842
685.272;  -64.483; -880.088; -774.842
685.540;  -74.956; -499.087; -557.843
685.808;  -85.154; -651.087; -682.843
686.076; -118.302; -894.087; -969.843
686.343;  -64.150; -601.087; -815.844
686.611;   23.676; -195.087; -224.844
686.879;  393.253; -530.086; -553.844
687.147; 3034.330; -483.086; -480.845
687.414;  860.982;  -12.086; -169.845
687.682;  -12.966; -658.086; -757.846
687.950;  268.910;  259.915;  263.154
688.217;   -2.438; -792.085; -760.846
688.485;   -0.011; -632.085; -636.847
688.753;  475.391;  -11.085; -102.847
689.020;  140.368; -820.085; -851.847
689.288; -105.331; -853.084; -787.848
689.555;  -30.804; -195.084; -148.848
689.823;  -54.702; -241.084; -345.849
690.090;  -84.650; -546.084; -651.849
690.358; -156.223; -877.084; -897.849
690.625;    3.653;  120.917;   45.150
690.892;  -79.820; -403.083; -369.850
691.160;  -12.568;   72.917;  -35.850
691.427;  -11.766;  141.917;  130.149
691.694; -144.664; -855.083; -929.851
691.962; -143.763;-1177.082;-1060.852
692.229;    7.114;  127.918;   56.148
692.496;   69.091;  130.918;  -49.852
692.763;    6.218; -164.082; -201.853
693.031;  -75.205; -739.082; -716.853
693.298;  -48.379; -509.081; -368.853
693.565;  272.998; -155.081; -163.854
693.832; 1167.050;   -5.081;   -9.854
694.099;  127.552; -643.081; -642.855
694.366;  -63.571; -882.081; -896.855
694.633;  -55.295; -920.080; -633.855
694.900;  730.982; 4367.920; -114.856
695.167;  399.209; -214.080; -380.856
695.434;   86.436; -646.080; -623.856
695.701;  185.113;  121.921;  -61.857
695.968;  433.264; -365.079; -361.857
696.234;  961.316; -415.079; -646.858
696.501;10237.393; -776.079; -614.858
696.768; 5275.220; -554.079; -617.858
697.035;  305.647; -632.078; -667.859
697.302;   37.123; -448.078; -552.859
697.568;   12.450; -458.078; -497.859
697.835;  -54.348; -683.078; -624.860
698.102;  -35.171; -498.078; -407.860
698.368;   62.756;  384.923;  396.139
698.635;  -33.718;  -47.077; -424.861
698.901;  -28.316; -240.077; -348.861
699.168;   52.136; -534.077; -456.862
699.435;   57.588;  -72.077;  -13.862
699.701; -107.735; -868.076; -764.862
699.968;   -5.909;  144.924; -441.863
700.234; -103.757; -783.076; -822.863
700.500;  -70.280; -448.076; -539.864
700.767;  -14.103;   -1.075;   26.136
701.033; -146.051;-1015.075; -963.864
701.299;  -58.050; -450.075; -483.865
701.566;   99.052;  950.925;  763.135
701.832;   10.829;  -31.075;  -76.865
702.098; -112.644;-1054.074;-1034.866
702.365;  -92.692;-1098.074;-1030.866
702.631;  -43.766;-1038.074;-1063.867
702.897; 1271.161; -765.074; -676.867
703.163; 2144.313;  348.926;  254.133
703.429;  160.565; -256.073; -273.868
703.695;  -34.308; -796.073; -792.868
703.961;   20.443; -214.073; -210.868
704.227;  -75.955; -630.073; -725.869
704.493;  115.422;  613.927;  510.131
704.759;  -26.601; -565.072; -540.870
705.025;   35.576; -203.072; -194.870
705.291;  -29.248; -666.072; -562.870
705.557;  210.129;  719.928;   34.129
705.823;   29.756; -742.072; -694.871
706.089;  133.608; -307.071; -326.871
706.355;  361.960; -315.071; -244.872
706.620; 5646.511; -776.071; -729.872
706.886; 7942.813; -309.071; -362.873
707.152;  732.990; -818.070; -973.873
707.418;  -26.933;-1153.070;-1186.873
707.683;   -3.206; -550.070; -530.874
707.949;  -42.230; -547.070; -578.874
708.215;    3.422; -129.070; -207.874
708.480;  -26.676; -520.069; -420.875
708.746;   87.826;   68.931;   28.125
709.011;  -70.422; -578.069; -612.876
709.277;  -85.146; -538.069; -543.876
709.542;  -51.094; -428.069; -387.876
709.808;   -3.692;  -59.068;   89.123
710.073;  -86.640; -577.068; -695.877
710.339;  -18.038; -242.068; -228.877
710.604;   70.838; -780.068; -845.878
710.869;  308.565; -277.068; -366.878
711.135;  -65.183; -715.067; -628.879
711.400;  -83.981; -507.067; -608.879
711.665;  -59.529; -404.067; -479.879
711.931; -105.003; -661.067; -677.880
712.196; -117.026; -876.067; -954.880
712.461;  102.201; -402.066; -490.880
712.726;  108.403; -727.066; -771.881
712.991;  -99.770; -647.066; -664.881
713.256;  -61.694; -350.066; -332.882
713.521;  -51.017; -417.065; -381.882
713.787;  -63.615; -454.065; -472.882
714.052;  -29.488; -214.065; -400.883
714.317;  -99.411;-1045.065; -981.883
714.581; 1012.515; -374.065; -268.883
714.846; 1413.067; -822.064; -888.884
715.111;  137.244;  261.936;  257.116
715.376;  -29.504;  -86.064; -223.885
715.641;  -15.802; -365.064; -367.885
715.906;  243.374;   15.936; -551.885
716.171;  127.076;  221.937;  209.114
716.436;   29.353;  -78.063; -104.886
716.700; -100.570; -818.063; -692.886
716.965; -128.368; -794.063; -807.887
717.230;  -70.792; -339.063; -392.887
717.494;  -31.165;  -40.062; -134.888
717.759;  -92.088; -784.062; -640.888
718.024;   -3.661;  269.938;  250.112
718.288;   81.616;  685.938;  395.111
718.553; -149.158; -803.062; -977.889
718.817; -136.906; -883.061; -899.889
719.082;  -43.204; -115.061; -125.890
719.346; -142.027;-1000.061; -947.890
719.611;  -51.300; -300.061; -255.891
719.875; -101.549; -568.060; -537.891
720.140;  -70.947; -453.060; -603.891
720.404;   12.280; -136.060; -249.892
720.668;  767.807; -475.060; -411.892
720.933;  310.909;  146.940;  137.108
721.197; -113.115; -667.059; -600.893
721.461; -139.213; -851.059; -826.893
721.725;  -20.361;  -21.059; -250.894
721.990;  -64.509; -284.059; -204.894
722.254;  -36.232;  -26.059; -108.894
722.518;  -72.881; -286.058; -442.895
722.782; -100.379; -743.058; -594.895
723.046;  122.073;  614.942;  570.105
723.310;   13.475;  374.942;  210.104
723.574;  -89.548; -654.058; -614.896
723.838; -114.447; -576.057; -642.897
724.102;  -38.095; -226.057; -239.897
724.366; -145.743;-1032.057; -978.897
724.630;  -95.066; -749.057; -571.898
724.894;  -81.339; -722.057; -514.898
725.158;   -0.338;   38.944; -295.898
725.422;  -68.861; -394.056; -327.899
725.685;  -61.409; -441.056; -349.899
725.949;  -87.482; -566.056; -519.900
726.213;  -75.831; -732.056; -811.900
726.477;  141.796;-1020.055; -933.900
726.740;  134.998; -274.055; -104.901
727.004;  315.950; -384.055; -510.901
727.268; 3344.327; -442.055; -400.901
727.531;  950.628; -961.055; -775.902
727.795;  -40.145; -713.054; -673.902
728.059;  -60.968; -552.054; -557.903
728.322;  -74.616; -841.054; -669.903
728.586;   13.036; -692.054; -701.903
728.849;  -83.388; -695.053; -756.904
729.112; -108.986; -812.053; -912.904
729.376; -125.959; -959.053; -905.904
729.639;  -73.707; -536.053; -536.905
729.903; -101.055; -733.053; -699.905
730.166;  -50.579; -437.052; -399.906
730.429;  -43.602; -317.052; -468.906
730.693;  -67.825; -355.052; -894.906
730.956;  194.127;  810.948;  651.093
731.219;  661.879; -310.052; -103.907
731.482;  107.605;-1003.051; -894.907
731.745;   72.882; -794.051; -935.908
732.009;   23.059;  -30.051;   50.092
732.272; -107.264; -904.051; -771.909
732.535;  -40.987; -300.051; -310.909
732.798; -152.836;-1083.050;-1166.909
733.061;  -62.684; -430.050; -456.910
733.324;   -8.082;   31.950; -180.910
733.587;   54.745;  290.950;  365.090
733.850;  -86.903; -973.049;-1050.911
734.113;   33.098;   33.951;   32.089
734.376;   -2.725; -328.049; -447.912
734.639;  199.377; 1188.951; 1011.088
734.901;   45.929; -180.049; -402.912
735.164;  451.806; -883.048; -837.913
735.427; 1238.582; -166.048; -355.913
735.690;  121.734; -205.048; -234.913
735.952;  -35.364; -923.048; -925.914
736.215;  -35.837;-1113.048;-1009.914
736.478;   28.390; -771.047; -774.915
736.740;  204.916;   33.953;  129.085
737.003;  583.943; -658.047; -672.915
737.266; 3790.795;  -94.047;   46.084
737.528;  411.672; -682.047; -660.916
737.791;  316.799; -316.046; -327.916
738.053;  775.150;  465.954;  649.083
738.316;10557.602; -162.046; -136.917
738.578; 7698.479; -770.046; -736.918
738.841;  445.156; -382.046; -446.918
739.103;  169.633; -875.045; -777.918
739.365;  486.259;   79.955;  -69.919
739.628;   -9.839; -884.045; -805.919
739.890;  -21.537; -758.045; -710.919
740.152;  -57.685; -692.044; -754.920
740.414;  -11.083; -408.044; -359.920
740.677;  -49.182; -785.044; -634.921
740.939;  -42.780; -587.044; -487.921
741.201;  248.997; -432.044; -572.921
741.463;   30.299; -689.043; -745.922
741.725;   -5.924;  -21.043; -199.922
741.987;   55.327;  220.957;  116.078
742.249;  -10.346; -751.043; -859.923
742.511;  190.731; -703.043; -794.923
742.773;  -16.617; -546.042; -546.924
743.035;  127.060;  796.958;  533.076
743.297;  -56.389; -963.042;-1013.924
743.559;  685.913; -278.042; -262.925
743.821;   63.865; -735.042; -744.925
744.083;    1.642;  -44.041; -149.925
744.345;  -94.256; -869.041; -892.926
744.607;   37.320;   75.959;  122.074
744.868;  -63.053; -490.041; -554.927
745.130; -119.701; -994.041;-1008.927
745.392;   35.076;   -1.040;  -44.927
745.653;  -16.847; -411.040; -378.928
745.915;  144.579;  896.960;  631.072
746.177;   52.731;   35.960;  -43.928
746.438;  -20.367; -428.040; -543.929
746.700;  -51.415; -947.039; -988.929
746.961;    0.512; -659.039; -740.930
747.223;  135.713; -190.039;  -74.930
747.484;   87.290; -391.039; -471.930
747.746;  154.467;  -23.038; -106.931
748.007;  101.894; -647.038; -689.931
748.269;  288.646; -468.038; -440.931
748.530;  431.197; -852.038; -638.932
748.791;  234.849; -354.038; -420.932
749.053;  402.176;  286.963;  163.067
749.314;  449.328; -236.037; -169.933
749.575;  488.905; -945.037; -905.933
749.836;  824.181; -217.037;   86.066
750.098; 2292.883;  -60.037;  -21.934
750.359;35090.160;  414.964;  555.066
750.620; 9221.712; -121.036; -220.935
750.881;  991.714; -585.036; -513.935
751.142; 1296.715; -950.036; -938.936
751.403;16257.767; -789.036; -705.936
751.664; 7374.994;-1034.035; -999.936
751.925;  488.471; -175.035; -262.937
752.186;  266.148; -298.035; -278.937
752.447;  136.174; -590.035; -445.937
752.708;   29.401; -532.035; -648.938
752.969;    5.603; -566.034; -576.938
753.230;  -22.020; -777.034; -672.939
753.491;  -13.568; -650.034; -631.939
753.751;   53.508;  109.966;   19.061
754.012;   91.485;  258.967;  181.060
754.273;   48.462; -174.033;  -71.940
754.534;  -11.761; -487.033; -580.940
754.794;  -98.334; -926.033; -911.941
755.055;  137.217; 1051.967;  881.059
755.316;  -54.756; -700.032; -566.942
755.576;  -32.304; -606.032; -576.942
755.837;  -62.452; -527.032; -695.942
756.097;  -37.350; -530.032; -564.943
756.358;  -75.624; -725.032; -770.943
756.618;  -51.472; -705.031; -641.943
756.879;   -8.095; -254.031; -349.944
757.139; -130.393;-1098.031;-1116.944
757.400;  -59.316; -538.031; -553.945
757.660;  -38.190; -365.031; -401.945
757.920;  -13.413; -266.030; -228.945
758.181;  -21.261; -468.030; -351.946
758.441;  -91.509; -870.030; -809.946
758.701;  -30.482; -308.030; -215.946
758.961;  -35.481; -220.030; -278.947
759.222;  -62.554; -574.029; -502.947
759.482;  -94.777; -683.029; -723.948
759.742;  -87.225; -706.029; -547.948
760.002;    0.302;  -83.029; -143.948
760.262;   31.753;   50.972;  182.051
760.522;  -30.945; -498.028; -574.949
760.782;  -52.168; -738.028; -612.949
761.042;  -42.716; -618.028; -573.950
761.302;   51.611;   55.972;  -18.950
761.562;   35.112; -164.027; -154.951
761.822;   64.989; -710.027; -551.951
762.082;  -44.484;-1104.027;-1093.951
762.342;   68.068; -328.027; -403.952
762.601;   69.895; -567.027; -506.952
762.861;  325.821; -281.026; -207.952
763.121;  410.948; -406.026; -411.953
763.381; 7154.950; -499.026; -485.953
763.640; 8188.627; -139.026; -307.954
763.900;  369.454; -242.026; -203.954
764.160;   77.180; -458.025; -491.954
764.419;  -21.368; -726.025; -782.955
764.679;  -61.566; -795.025; -726.955
764.939;   -7.539; -124.025; -210.955
765.198;  -84.937; -608.025; -563.956
765.458;  -81.036; -710.024; -612.956
765.717;  -82.434; -454.024; -590.957
765.976;  -61.307; -428.024; -411.957
766.236;  -89.855; -475.024; -610.957
766.495;   18.097;  260.977;   73.042
766.755; -108.602;-1090.023; -987.958
767.014;   -8.725; -594.023; -665.958
767.273;  -85.598; -373.023; -397.959
767.533;  -40.421; -228.023; -307.959
767.792;  -33.019; -151.022; -188.960
768.051;  -54.268; -228.022; -276.960
768.310;  -87.166; -546.022; -650.960
768.569;  -10.464; -161.022;    4.039
768.828;  -32.387; -285.022; -363.961
769.088; -110.160;-1050.021; -942.961
769.347;  -94.259; -755.021; -599.962
769.606;  -95.507; -876.021; -857.962
769.865; -126.930;-1016.021;-1033.963
770.124;    1.547; -411.021; -336.963
770.383;  -52.876; -778.020; -910.963
770.641;   -1.825; -398.020; -400.964
770.900;  -74.773; -953.020; -846.964
771.159;  -49.021; -851.020; -951.964
771.418;  -23.494; -917.020; -779.965
771.677;  145.183; -224.019; -293.965
771.936;  131.734; -794.019; -865.966
772.194; 2124.786; -465.019; -437.966
772.453;11297.513; -213.019; -391.966
772.712;  783.690;  416.982;  329.033
772.970;  114.767;   32.982;   63.033
773.229;   93.393;  -22.018;  102.033
773.488;  -89.280; -814.018; -770.968
773.746;   66.447;  296.982;  335.032
774.005;    8.124;  190.983;  -22.969
774.263;    7.176;  243.983;  177.031
774.522;  -47.248; -422.017; -548.969
774.780;  -83.121; -484.017; -417.970
775.039;  -97.369; -551.017; -531.970
775.297;  -20.592; -135.016; -351.970
775.555; -108.640; -489.016; -612.971
775.814; -118.414; -618.016; -570.971
776.072; -131.287; -749.016; -740.971
776.330;  -94.010; -630.016; -520.972
776.589; -122.883; -703.015; -721.972
776.847; -131.756; -645.015; -624.973
777.105; -170.280;-1016.015;-1032.973
777.363;  -79.653; -459.015; -454.973
777.621; -160.951; -660.015; -717.974
777.879;  -39.524;  -42.014;   32.026
778.138; -101.872; -554.014; -717.974
778.396; -101.546; -585.014; -526.975
778.654; -177.169;-1015.014; -970.975
778.912;  -68.667; -269.014; -371.976
779.170; -150.615; -880.013; -803.976
779.427; -150.763; -922.013; -897.976
779.685; -139.712; -880.013; -832.977
779.943;  -92.385; -654.013; -593.977
780.201; -167.283; -964.012; -883.978
780.459; -117.631; -651.012; -610.978
780.717;  -86.779; -440.012; -390.978
780.974; -122.478; -449.012; -490.979
781.232;  -68.251; -358.012; -338.979
781.490;  -88.524; -551.011; -472.979
781.747; -100.172; -555.011; -476.980
782.005;    4.655;  462.989;  254.020
782.263; -163.644; -542.011;-1004.981
782.520;  -92.492; -326.011; -501.981
782.778; -167.490;-1013.010;-1051.981
783.035; -170.038; -962.010; -938.982
783.293;  -72.311; -248.010; -206.982
783.550;  -58.210; -134.010; -198.982
783.808; -139.633; -764.010; -776.983
784.065; -160.356; -745.009; -874.983
784.322;  -51.354;   25.991;  -86.984
784.580; -145.952; -915.009; -771.984
784.837;  -91.276; -392.009; -466.984
785.094; -133.199; -783.009; -762.985
785.352;  -71.847; -304.008; -404.985
785.609; -108.870; -934.008; -839.985
785.866;  -98.118; -345.008; -401.986
786.123;  -67.217; -639.008; -583.986
786.380; -109.090; -665.008; -604.987
786.637;  -50.838; -225.007; -380.987
786.895;  -21.711; -456.007; -543.987
787.152;  -43.884; -135.007; -267.988
787.409;  -58.183; -123.007; -225.988
787.666;  -90.731; -299.006; -378.988
787.923; -129.554; -616.006; -695.989
788.179; -100.502; -551.006; -584.989
788.436; -113.075; -585.006; -585.990
788.693;  -37.724;  -92.006;  -87.990
788.950;  116.003; -125.005; -112.990
789.207;  198.705; -381.005; -372.991
789.464;  -52.418; -161.005; -301.991
789.720;  -20.116;  150.995;  110.009
789.977; -179.165;-1003.005; -671.992
790.234;  -40.438;   44.996;  -66.992
790.490; -146.086; -884.004;-1031.993
790.747;  -18.909;  -85.004;   22.007
791.004;  -32.257; -426.004; -348.993
791.260;  -79.056; -430.004; -560.994
791.517;  -98.429; -843.003; -788.994
791.773;  -56.277; -379.003; -342.994
792.030; -113.425; -596.003; -660.995
792.286; -106.973; -686.003; -636.995
792.543;  -26.347;  -74.002; -159.995
792.799;  -63.195; -584.002; -382.996
793.055; -166.793;-1179.002;-1210.996
793.312; -103.266; -827.002; -816.997
793.568;  -74.164; -746.002; -599.997
793.824;   -1.663; -226.001; -284.997
794.081;   14.414; -447.001; -508.998
794.337;   70.091; -664.001; -561.998
794.593; 1220.818; -319.001; -271.999
794.849; 6463.895; -746.001; -772.999
795.105;  338.321; -270.000; -261.999
795.361;    6.448; -490.000; -457.000
795.617;  -81.000; -875.000; -945.000
795.873;  -47.350; -360.000; -407.000
796.129;  -52.600; -368.000; -306.000
796.385;  -10.975; -124.000; -156.000
796.641;   62.800;  412.000;  550.000
796.897;  -89.500; -666.000; -635.000
797.153;   47.000;  453.000;  357.000
797.409; -103.550; -785.000; -868.000
797.665;  -81.450; -625.000; -732.000
797.921;  -86.875; -775.000; -762.000
798.176;  -63.200; -744.000; -747.000
798.432;  -40.000; -824.000; -596.000
798.688;  -88.400;-1174.000;-1078.000
798.943;   84.900; -165.000; -147.000
799.199;   -9.950;-1005.000; -959.000
799.455;  244.450;  369.000;  316.000
799.710;  135.950; -813.000; -380.000
799.966;  312.475; -162.000; -160.000
800.221;  483.100; -638.000; -721.000
800.477;10079.550; -743.000; -710.000
800.732; 9484.500; -773.000; -800.000
800.988;  659.200;  205.000;  -19.000
801.243; 1754.275; -454.000; -344.000
801.498; 8264.250; -814.000; -739.000
801.754;  481.025; -289.000; -163.000
802.009;   91.850; -257.000; -335.000
802.264;  -54.975; -967.000;-1033.000
802.520;   15.275;  222.000;   -3.000
802.775;  -57.150; -524.000; -359.000
803.030;   50.825;  395.000;  356.000
803.285; -116.175; -840.000; -903.000
803.540;  -64.100; -686.000; -699.000
803.795;  -46.675; -648.000; -583.000
804.051;  -41.525; -279.000; -346.000
804.306;   16.900;  168.000;  128.000
804.561;  122.875;  451.000;  362.000
804.816;  125.575;  714.000;  861.000
805.071;   -8.125; -185.000; -280.000
805.325;  177.025; -257.000; -427.000
805.580; -107.500; -841.000; -877.000
805.835;  -30.175; -204.000; -297.000
806.090;  -67.575; -760.000; -676.000
806.345;  -16.250; -344.000; -264.000
806.600;  -23.125; -549.000; -632.000
806.854;  -23.250; -408.000; -538.000
807.109;  -15.975; -493.000; -577.000
807.364;   -1.700; -407.000; -328.000
807.618;    3.150; -415.000; -381.000
807.873;   42.200; -470.000; -494.000
808.128;   92.725; -257.000; -518.000
808.382;   97.875; -224.000; -332.000
808.637;   76.775; -440.000; -511.000
808.891;  157.325; -257.000; -180.000
809.146;   91.525; -902.000; -794.000
809.400;  244.525; -848.000; -923.000
809.654;  321.325; -779.000; -551.000
809.909;  464.175; -841.000; -927.000
810.163; 6046.425; -813.000; -651.000
810.418;16580.325; -940.000; -861.000
810.672; 1026.100; -685.000; -690.000
810.926;  702.675; -993.000; -973.000
811.180; 1372.100; -439.000; -372.000
811.434;31319.275;  240.000;  135.000
811.689;13440.075; -231.000; -365.000
811.943;  648.625; -936.000; -953.000
812.197;  342.575; -893.000; -671.000
812.451;  126.950; -379.000; -514.000
812.705;  -22.950; -809.000; -619.000
812.959;  -26.300; -263.000; -388.000
813.213;    5.625; -283.000; -209.000
813.467;   53.450;  470.000;  253.000
813.721;  -94.000; -764.000; -792.000
813.975; -120.700; -826.000; -877.000
814.229;   38.600;  430.000;  353.000
814.482;  -83.675; -517.000; -566.000
814.736; -122.975; -766.000; -744.000
814.990; -143.125; -779.000; -872.000
815.244;  -54.625; -228.000; -285.000
815.497; -104.425; -636.000; -601.000
815.751;  -32.075; -141.000;   82.000
816.005;  -87.375; -470.000; -586.000
816.258;  -67.450; -510.000; -363.000
816.512; -114.925; -693.000; -610.000
816.766;    6.450;  121.000;  157.000
817.019;   22.500;  148.000;  149.000
817.273; -115.975;-1000.000; -802.000
817.526;  -16.300; -206.000; -173.000
817.779;  -56.975;-1049.000; -960.000
818.033;  -83.500; -693.000; -807.000
818.286; -126.700; -725.000; -792.000
818.540;  -87.850; -403.000; -403.000
818.793;  -79.750; -402.000; -489.000
819.046; -120.325; -582.000; -520.000
819.299;  -58.475; -157.000; -166.000
819.553; -105.450; -552.000; -592.000
819.806; -163.125;-1016.000; -838.000
820.059;  -73.150; -334.000; -354.000
820.312;   13.000;  152.000;  185.000
820.565;  -38.500;  110.000;  -27.000
820.818;  -40.875;  -59.000; -173.000
821.071; -166.475;-1041.000; -957.000
821.324; -114.525; -536.000; -540.000
821.577; -115.025; -457.000; -483.000
821.830;  -68.800; -270.000; -172.000
822.083; -149.575; -733.000; -288.000
822.336;  -60.150; -261.000; -167.000
822.589; -153.075; -805.000; -688.000
822.842; -152.275; -875.000; -770.000
823.094; -181.025;-1076.000;-1114.000
823.347; -128.800; -925.000; -729.000
823.600;   -4.550;  402.000;  187.000
823.853;  -61.425; -311.000; -267.000
824.105;  -68.650; -331.000; -575.000
824.358; -104.975; -617.000; -716.000
824.611;   -1.350;  234.000;   40.000
824.863;  -61.800; -612.000; -591.000
825.116;   46.975;  -33.000;   27.000
825.368;   60.575; -366.000; -372.000
825.621;  153.650; -186.000; -240.000
825.873;   74.425; -704.000; -737.000
826.126;  540.100; -669.000; -641.000
826.378;11263.350; -389.000; -505.000
826.630; 2989.450; -890.000; -898.000
826.883;   37.250; -754.000; -693.000
827.135;   32.325; -279.000; -270.000
827.387; -106.250; -893.000; -839.000
827.639;  -41.375;  -86.000;   32.000
827.892; -124.850; -742.000; -582.000
828.144; -153.750; -848.000; -804.000
828.396;  -29.925;  104.000;  -80.000
828.648; -107.200; -440.000; -333.000
828.900; -144.250; -702.000; -795.000
829.152; -122.300; -684.000; -683.000
829.404;  -74.675; -215.000; -267.000
829.656;  -56.775;  321.000;  214.000
829.908;  -28.200;  393.000;  229.000
830.160; -176.550;-1064.000;-1047.000
830.412;  -95.875; -481.000; -430.000
830.664; -127.025; -557.000; -665.000
830.916;  -75.250; -268.000; -206.000
831.167; -184.125;-1073.000; -951.000
831.419; -117.375; -623.000; -566.000
831.671; -156.000; -764.000; -809.000
831.923;  -93.775; -311.000; -447.000
832.174;  -95.750; -273.000; -331.000
832.426; -118.925; -493.000; -582.000
832.678; -191.550;-1043.000;-1091.000
832.929; -171.325; -947.000; -935.000
833.181;  -82.150; -575.000; -677.000
833.432;  -55.700;  -59.000; -186.000
833.684;  -29.175;  112.000;  -27.000
833.935; -130.475; -610.000; -566.000
834.187; -120.525; -829.000; -823.000
834.438;  -38.875;  -58.000;  -25.000
834.689;  -74.950; -255.000; -123.000
834.941;  -79.450; -343.000; -244.000
835.192; -108.050; -590.000; -533.000
835.443;  -98.575; -419.000; -506.000
835.695;   -9.600;  138.000;  -16.000
835.946;  -95.775; -608.000; -378.000
836.197; -105.200; -599.000; -622.000
836.448;  -88.225; -528.000; -395.000
836.699;  -67.975; -253.000; -341.000
836.950;   -8.325;   72.000;    7.000
837.201; -157.525;-1003.000; -987.000
837.452;  -65.625; -356.000; -170.000
837.703; -122.050; -791.000; -737.000
837.954;  -41.500; -205.000; -365.000
838.205;  -88.500;-1029.000;-1008.000
838.456;  152.450; -196.000; -282.000
838.707;   -9.800; -423.000; -519.000
838.958;    2.725; -634.000; -647.000
839.209;  251.625;   18.000;   40.000
839.460;  117.550; -439.000; -201.000
839.710;  154.300; -135.000; -297.000
839.961;  394.525;  730.000;  612.000
840.212;  330.600; -382.000; -497.000
840.462; 1082.250; -328.000; -277.000
840.713;17321.100; -571.000; -536.000
840.964; 7481.600;  -62.000; -143.000
841.214;  490.175; -384.000; -624.000
841.465;  542.200; -214.000; -141.000
841.715;  468.550; -417.000; -380.000
841.966;  606.850; -746.000; -685.000
842.216; 8050.025; -330.000; -431.000
842.466;32929.900; -169.000; -313.000
842.717; 1946.825; -964.000; -952.000
842.967;  288.675; -635.000; -641.000
843.217;  260.400;   20.000;   28.000
843.468;   63.150; -104.000; -132.000
843.718;  -46.800; -718.000; -726.000
843.968;  -85.425; -837.000; -765.000
844.218;   10.675; -315.000; -262.000
844.469;  -54.800; -577.000; -561.000
844.719;  -91.550; -537.000; -682.000
844.969;  -89.125; -550.000; -580.000
845.219; -151.250; -814.000; -862.000
845.469;  -84.525; -392.000; -342.000
845.719; -144.225; -792.000; -884.000
845.969;  -16.875;  119.000;  174.000
846.219; -130.600; -738.000; -720.000
846.469;   20.125;  464.000;  432.000
846.718;  -49.650; -115.000;   31.000
846.968; -135.075; -827.000; -827.000
847.218;  -52.275; -224.000; -371.000
847.468;  -63.450; -586.000; -555.000
847.718; -153.700; -827.000; -798.000
847.967; -142.475; -826.000; -915.000
848.217;  -91.100; -449.000; -569.000
848.467;  -76.175; -405.000; -376.000
848.716; -130.125; -708.000; -725.000
848.966;   -3.000; -372.000; -358.000
849.215;  -77.700; -428.000; -419.000
849.465;  -87.100; -785.000; -615.000
849.714; -148.850;-1132.000;-1150.000
849.964;  -70.075; -551.000; -613.000
850.213;  -45.900; -393.000; -355.000
850.463;   77.725;  137.000;  340.000
850.712;   -2.525; -542.000; -567.000
850.961;    7.750; -739.000; -678.000
851.211;   83.925; -513.000; -504.000
851.460;  163.950; -635.000; -650.000
851.709;  547.900;  -25.000;   18.000
851.958; 9914.025; -912.000; -750.000
852.208;13029.300; -859.000; -879.000
852.457;  496.500; -181.000;  -13.000
852.706;   50.625; -791.000; -823.000
852.955;   24.575; -507.000; -528.000
853.204;  -64.900; -521.000; -461.000
853.453;  -68.075; -418.000; -458.000
853.702; -131.875; -660.000; -750.000
853.951; -116.350; -532.000; -520.000
854.200; -118.425; -613.000; -562.000
854.449; -150.175; -695.000; -661.000
854.698; -105.900; -340.000; -279.000
854.946;  -89.450; -181.000; -284.000
855.195; -153.975; -843.000; -868.000
855.444;  -92.500; -395.000; -420.000
855.693; -123.775; -345.000; -432.000
855.941; -107.850; -387.000; -516.000
856.190;  -66.675; -256.000; -382.000
856.439; -127.575; -652.000; -703.000
856.687;  -64.475;  -99.000;  -72.000
856.936; -120.400; -621.000; -323.000
857.184; -177.775;-1067.000;-1020.000
857.433; -112.175; -423.000; -512.000
857.681; -168.525; -989.000; -953.000
857.930;  -82.375; -282.000; -433.000
858.178; -176.175; -856.000; -929.000
858.427; -150.150; -802.000; -781.000
858.675; -112.625; -377.000; -544.000
858.923; -110.375; -527.000; -819.000
859.172; -182.975;-1094.000;-1070.000
859.420;  -97.075; -339.000; -239.000
859.668; -142.825; -624.000; -628.000
859.916;  -30.475;  109.000;  115.000
860.164; -125.375; -699.000; -603.000
860.413;  243.100; -878.000; -696.000
860.661;  196.025; -709.000; -577.000
860.909;  -85.625; -339.000; -325.000
861.157; -104.550; -277.000; -444.000
861.405; -127.950; -534.000; -670.000
861.653;   14.950;  310.000;  310.000
861.901;  142.525; -543.000; -613.000
862.149;  -22.250; -801.000; -824.000
862.396;  -71.550; -297.000; -187.000
862.644; -101.475; -368.000; -347.000
862.892;  -39.975;   98.000;  138.000
863.140; -146.550; -549.000; -530.000
863.388; -163.025; -815.000; -759.000
863.635; -132.675; -642.000; -601.000
863.883;  -23.550;  231.000;  190.000
864.131; -113.525; -288.000; -357.000
864.378; -144.525; -675.000; -540.000
864.626; -109.300; -347.000; -415.000
864.873; -115.325; -556.000; -505.000
865.121; -144.275; -714.000; -799.000
865.368;  -65.225; -173.000;   75.000
865.616;  -48.675;  -33.000;  -40.000
865.863;  -80.450; -462.000; -506.000
866.111; -114.925; -795.000; -824.000
866.358;   28.375; -426.000; -420.000
866.605; 2293.275;  -64.000; -804.000
866.853; 2522.450; -621.000; -537.000
867.100;  -37.550; -728.000; -775.000
867.347; -100.550; -672.000; -611.000
867.594;  -96.525; -740.000; -714.000
867.841;   70.575;   97.000;   17.000
868.089; -153.825; -746.000; -698.000
868.336; -105.900; -477.000; -420.000
868.583; -149.775; -637.000; -741.000
868.830;  -59.475; -131.000; -170.000
869.077; -167.425; -859.000; -787.000
869.324; -121.125; -502.000; -458.000
869.571; -132.775; -398.000; -430.000
869.818; -136.675; -485.000; -439.000
870.065; -116.675; -439.000; -513.000
870.311; -117.525; -456.000; -542.000
870.558; -117.025; -332.000; -311.000
870.805; -103.900; -320.000; -384.000
871.052; -119.725; -494.000; -369.000
871.298;  -65.950; -204.000; -131.000
871.545;  -82.475; -151.000; -185.000
871.792;  -92.975; -173.000; -222.000
872.038;  -72.450;   43.000; -126.000
872.285; -127.200; -496.000; -387.000
872.532; -111.900; -357.000; -387.000
872.778;    4.200;  556.000;  403.000
873.025; -112.350; -384.000; -359.000
873.271;   11.200;  501.000;  578.000
873.517;  -45.050; -133.000; -209.000
873.764;  -34.850; -193.000;  -80.000
874.010;  -73.225; -143.000; -230.000
874.257;  -47.675;  123.000;   90.000
874.503; -149.550; -579.000; -479.000
874.749;  -79.475;   31.000;  275.000
874.995;  -79.375;  -80.000;  -20.000
875.242; -123.125; -540.000; -478.000
875.488; -111.325; -414.000; -439.000
875.734;  -53.825; -106.000; -234.000
875.980;  120.375; -872.000;-1032.000
876.226;  343.950; -157.000; -255.000
876.472;  -28.525;  343.000;  237.000
876.718;  -45.750;  184.000;  158.000
876.964;  -50.700;   56.000;   55.000
877.210; -146.975; -547.000; -677.000
877.456; -150.525; -630.000; -557.000
877.702; -182.300; -821.000; -832.000
877.948; -132.050; -377.000; -497.000
878.193;   15.225;  361.000;  255.000
878.439;  -98.425; -487.000; -472.000
878.685;  -98.275; -272.000; -343.000
878.931; -141.025; -618.000; -676.000
879.176;  -79.125; -201.000; -201.000
879.422; -188.250; -933.000; -820.000
879.668;   54.350;   10.000;   79.000
879.913;  125.525;   53.000;  137.000
880.159;  -63.925; -112.000;  -17.000
880.404;  -65.775; -152.000; -162.000
880.650;  -50.250;   91.000;  141.000
880.895; -173.725; -670.000; -710.000
881.141; -124.075; -454.000; -428.000
881.386; -153.025; -503.000; -658.000
881.631;  -89.900; -311.000; -166.000
881.877;  -42.775;  112.000;  -13.000
882.122; -139.400; -684.000; -600.000
882.367;  -92.275; -136.000; -186.000
882.612;  -77.225;  -80.000; -176.000
882.858; -182.750; -877.000; -823.000
883.103; -103.175; -297.000; -267.000
883.348; -148.500; -759.000; -852.000
883.593; -137.175; -677.000; -602.000
883.838;  -65.350; -311.000;  -24.000
884.083;   11.500;  353.000;  288.000
884.328; -111.975; -564.000; -545.000
884.573;  -55.575; -196.000; -143.000
884.818;  159.000; -694.000; -531.000
885.063;  157.300; -348.000; -315.000
885.308; -111.375; -475.000; -398.000
885.553;  -23.050;  245.000;  325.000
885.797; -137.450; -545.000; -615.000
886.042;  -59.600;    8.000;   58.000
886.287;  -91.925; -253.000; -211.000
886.532;  -49.225;   26.000;  204.000
886.776; -120.150; -407.000; -525.000
887.021; -148.900; -621.000; -574.000
887.265; -162.475; -685.000; -689.000
887.510; -139.600; -557.000; -496.000
887.755;  -98.650; -194.000; -164.000
887.999; -153.475; -552.000; -575.000
888.244;  -71.525;  -58.000;  161.000
888.488;    3.125;  371.000;  393.000
888.732; -136.450; -368.000; -520.000
888.977; -133.100; -622.000; -567.000
889.221; -178.200; -683.000; -659.000
889.465; -128.175; -422.000; -566.000
889.710;  -85.225;  -56.000; -299.000
889.954;    3.350;  579.000;  467.000
890.198; -158.225; -584.000; -707.000
890.442; -162.950; -716.000; -712.000
890.687; -164.725; -800.000; -753.000
890.931; -104.375; -273.000; -210.000
891.175; -142.475; -502.000; -500.000
891.419;  -93.000; -105.000; -110.000
891.663; -116.200; -239.000; -112.000
891.907; -160.450; -801.000; -545.000
892.151; -174.775; -920.000; -815.000
892.395; -115.050; -274.000; -387.000
892.638;  -26.975;  408.000;  291.000
892.882; -177.075; -780.000; -867.000
893.126;    5.775;  758.000;  558.000
893.370;  -90.075; -167.000; -168.000
893.614; -156.150; -714.000; -715.000
893.857; -112.500; -183.000; -197.000
894.101; -152.200; -527.000; -631.000
894.345;  -62.450;  300.000;  150.000
894.588;    7.400;  569.000;  380.000
894.832;  -97.900; -178.000;  -84.000
895.075;  -91.850;   15.000;  -92.000
895.319; -131.575; -552.000; -420.000
895.563; -118.875; -413.000; -353.000
895.806; -154.950; -628.000; -741.000
896.049;  -81.050; -576.000; -368.000
896.293;   86.675;  527.000;  405.000
896.536;  -82.300; -465.000; -468.000
896.779;  -58.000; -149.000;   -1.000
897.023; -148.000; -751.000; -714.000
897.266;  -38.700;  325.000;  269.000
897.509; -191.800; -900.000; -901.000
897.752;  -51.075;  149.000;  171.000
897.996; -197.000; -972.000; -864.000
898.239;  -56.675;  168.000;  102.000
898.482; -136.400; -431.000; -453.000
898.725;  -37.825;  101.000;   53.000
898.968; -162.900; -609.000; -744.000
899.211; -112.850; -513.000; -361.000
899.454; -142.500; -633.000; -539.000
899.697;  -73.875;   90.000;  -43.000
899.940; -169.625; -761.000; -757.000
900.182;  -94.075; -335.000; -405.000
900.425;  -86.025; -150.000; -298.000
900.668;  -24.750;  491.000;  350.000
900.911; -115.900; -292.000; -345.000
901.154;  -62.275;  141.000;   -3.000
901.396; -145.950; -407.000; -412.000
901.639; -136.825; -430.000; -496.000
901.882; -189.675; -790.000; -809.000
902.124;  -85.325;  -29.000; -143.000
902.367; -138.500; -315.000; -361.000
902.609; -137.125; -476.000; -453.000
902.852; -110.125; -108.000; -260.000
903.094; -127.150; -458.000; -337.000
903.337;  -76.625;  -26.000;   53.000
903.579; -123.350; -228.000; -441.000
903.821; -159.450; -597.000; -744.000
904.064;  -64.700;   85.000;  127.000
904.306;  -88.850; -126.000; -166.000
904.548; -106.125; -152.000; -366.000
904.790; -116.550; -195.000; -340.000
905.033; -128.750; -625.000; -577.000
905.275; -137.800; -513.000; -524.000
905.517;   16.800;  468.000;  256.000
905.759;  -91.775; -667.000; -761.000
906.001; -114.800; -322.000; -369.000
906.243;  -69.600; -162.000; -224.000
906.485;   93.025; -265.000; -207.000
906.727;   85.525; -499.000; -542.000
906.969;  -48.750;  -30.000; -135.000
907.211;   80.075; -316.000; -382.000
907.453;  241.900; -188.000; -237.000
907.695;  -16.650; -158.000; -385.000
907.936;   23.575;  818.000;  706.000
908.178;  -64.675;   92.000; -135.000
908.420;  -74.625; -111.000; -162.000
908.662; -136.275; -633.000; -682.000
908.903;  -90.350; -208.000; -123.000
909.145;  -71.975; -240.000; -305.000
909.386;    1.950;  315.000;  280.000
909.628;   39.725;  363.000;  397.000
909.870;    3.850;   29.000;  264.000
910.111; -101.325; -809.000; -949.000
910.353;    5.725; -123.000; -161.000
910.594;   -3.050; -574.000; -606.000
910.835;   70.925; -265.000; -326.000
911.077;  134.250; -503.000; -604.000
911.318;  275.275; -505.000; -471.000
911.559;  442.725; -577.000; -880.000
911.801; 1327.825; -284.000; -280.000
912.042; 9930.550;  -50.000; -159.000
912.283;26992.325;  404.000;  371.000
912.524; 4354.475; -396.000; -457.000
912.765;  481.900; -193.000;   79.000
913.006;  230.175; -307.000; -338.000
913.247;   49.475; -270.000; -290.000
913.488;  -22.550;  -43.000;   30.000
913.729;  -82.350; -373.000; -373.000
913.970;  -76.575;  -96.000; -292.000
914.211;  -86.800; -160.000; -198.000
914.452;  -69.225; -118.000;  -11.000
914.693;    4.500;  510.000;  592.000
914.934;    7.600;  510.000;  440.000
915.175;  -77.500;   53.000;  -95.000
915.415;  -87.850; -137.000;   27.000
915.656;  -66.275;  -28.000;  192.000
915.897; -108.875; -252.000;  -82.000
916.137;  -73.675;   74.000;   -9.000
916.378; -144.900; -573.000; -517.000
916.619;  -89.050; -159.000;  -63.000
916.859;  -30.575;  303.000;  330.000
917.100;  125.500; 1655.000; 1070.000
917.340;   34.400;  930.000;  728.000
917.581;   47.025;  965.000;  789.000
917.821;  -49.775; -171.000;  143.000
918.061;   -2.975; -199.000;  -72.000
918.302;  -50.625; -152.000; -211.000
918.542;  -37.175;  -22.000;    3.000
918.782;   24.675;  369.000;  377.000
919.023;  120.550;  360.000;  427.000
919.263; 1674.575; 8131.000;  202.000
919.503; 1077.675; -137.000;  -54.000
919.743;  567.800;  390.000;  266.000
919.983;  267.800; -134.000;  -26.000
920.223;   48.675;  135.000;   14.000
920.463;  127.450;  631.000;  554.000
920.703;  136.525;   84.000;   39.000
920.943;  168.950; -110.000;   90.000
921.183;  209.150; -414.000; -405.000
921.423;  518.100;  307.000;  546.000
921.663;  726.150; -174.000; -257.000
921.903; 1533.500;  237.000;  173.000
922.143; 8546.025;  372.000;  389.000
922.383;33828.925;  158.000;  115.000
922.622;12095.125; -120.000;  -15.000
922.862; 1283.075;  796.000;  785.000
923.102;  480.250;  -51.000;   33.000
923.341;  197.200;   59.000;   74.000
923.581;   74.075;  450.000;  360.000
923.821;   21.825;  301.000;  398.000
924.060;   14.625;  351.000;  193.000
924.300;  -58.350;  -16.000; -128.000
924.539;  -24.875;  584.000;  473.000
924.779;   10.125;  812.000;  597.000
925.018;  -57.975;  247.000;  353.000
925.257;  -11.150;  595.000;  666.000
925.497;  -43.125;  447.000;  412.000
925.736;  -70.125;  -35.000;  102.000
925.975;    3.400;  687.000;  669.000
926.214;   31.400;  907.000;  850.000
926.454;   10.325;  706.000;  757.000
926.693;  -31.500;  419.000;  543.000
926.932;   13.075; 1021.000;  825.000
927.171;   66.625; 1107.000; 1044.000
927.410;   49.200; 1144.000;  967.000
927.649;   24.550;  924.000;  742.000
927.888;  -18.650;  590.000;  564.000
928.127;   -5.725;  680.000;  678.000
928.366;   22.750;  842.000;  826.000
928.605;   38.800;  831.000;  737.000
928.844;  224.525; 1451.000; 1393.000
929.083;  576.950;  770.000;  613.000
929.321;  321.550; 1335.000; 1359.000
929.560;   86.350; 1158.000; 1122.000
929.799;  -51.525;  574.000;  475.000
930.038;   86.525; 1025.000; 1394.000
930.276;  -60.700;  334.000;  397.000
930.515;   -9.200;  827.000;  681.000
930.753;  -19.725;  614.000;  589.000
930.992;  -17.225;  664.000;  717.000
931.230;   10.025;  847.000;  847.000
931.469;  169.300; 2162.000;  892.000
931.707;   63.875;  840.000;  751.000
931.946;   51.425; 1278.000; 1344.000
932.184;   62.950; 1437.000; 1175.000
932.423;   47.025; 1265.000;  963.000
932.661;   62.275; 1296.000; 1428.000
932.899;   17.550;  987.000;  821.000
933.137;    5.150;  754.000;  564.000
933.376;  152.550; 1664.000; 1335.000
933.614;  144.025; 1759.000; 1196.000
933.852;   63.175; 1357.000; 1171.000
934.090;  113.925; 1722.000; 1747.000
934.328;  104.125; 1252.000; 1457.000
934.566;   91.725; 1431.000; 1110.000
934.804;  135.000; 1263.000; 1309.000
935.042;  498.600; 1861.000; 1850.000
935.280; 1893.700; 2088.000; 2063.000
935.518; 1885.775; 2113.000; 2007.000
935.756;  395.200; 2481.000; 2316.000
935.994;  152.975; 1808.000; 1751.000
936.231;  336.000; 2890.000; 2950.000
936.469;  182.750; 2367.000; 2378.000
936.707;  156.750; 2220.000; 2167.000
936.945;  223.975; 2825.000; 2882.000
937.182;  188.025; 2679.000; 2741.000
937.420;  290.125; 3602.000; 3031.000
937.657;  402.825; 3365.000; 3478.000
937.895;  338.525; 3331.000; 3488.000
938.133;  288.025; 3540.000; 3528.000
938.370;  344.050; 3896.000; 4191.000
938.607;  406.250; 4488.000; 4205.000
938.845;  539.800; 5587.000; 5549.000
939.082;  477.750; 5387.000; 5177.000
939.320;  535.250; 5799.000; 5728.000
939.557;  646.575; 6549.000; 6491.000
939.794;  718.325; 7285.000; 7097.000
940.031;  900.300; 8421.000; 8368.000
940.269; 1074.400; 9552.000; 9107.000
940.506; 1118.650;10901.000;10507.000

