
Integration time [ms]: 100.000
Averaging Nr. [scans]: 40
Smoothing Nr. [pixels]: 0
Data measured with spectrometer [name]: 2101013U2
Wave   ;Sample   ;Dark     ;Reference
[nm]   ;[counts] ;[counts] ;[counts] 

394.013;   30.274; -450.257; -315.536
394.305;  159.246; -461.258; -419.536
394.596; 1547.399; -676.269; -527.514
394.887; 4064.219; -796.268; -654.518
395.178; 1483.355;  145.736;   11.476
395.470;   81.243; -210.263; -356.526
395.761;  125.562;  305.734;  394.479
396.052;   92.701; -545.284; -306.489
396.343;   73.208; -557.276; -454.503
396.634;   27.096; -200.279; -290.497
396.926;   14.966; -618.268; -565.517
397.217;   65.039;   11.725;  -17.504
397.508;   14.408; -366.273; -154.507
397.799;    7.046; -555.279; -571.497
398.090;   -7.185; -973.280; -902.495
398.381;   60.961;   11.708;  -11.473
398.672;  -31.537; -585.292; -742.473
398.963;   11.854; -348.279; -373.498
399.254;   72.124;   54.709; -209.475
399.545;  -52.242;-1017.266; -883.520
399.836;   38.945; -407.277; -343.501
400.127;   34.433; -205.295; -209.468
400.418;   23.476; -423.274; -392.506
400.709;   19.724; -359.281; -333.493
401.000;   33.003; -268.291; -309.476
401.290;  107.033;  225.698;  115.545
401.581;   56.455; -166.286; -228.485
401.872;   23.600; -542.298; -486.462
402.163;   41.699; -313.296; -252.467
402.454;   84.599; -123.291; -163.475
402.744;   37.064; -844.297; -813.465
403.035;  215.501; -226.293;  -86.471
403.326;  282.966; -366.292; -384.474
403.617;  279.443;  204.701;  165.539
403.907;  334.407; -593.283; -679.490
404.198; 3538.028; -545.307; -599.446
404.489; 8963.588; -618.283; -588.491
404.779; 2491.937; -618.302; -660.456
405.070;  263.587;  -67.304; -174.451
405.360;  461.753; -259.293; -238.472
405.651;  447.075;  125.699;   98.542
405.942;  151.074;  209.714;  127.516
406.232;   69.967; -432.285; -413.487
406.523;  235.020;  641.706;  758.530
406.813;   28.777; -579.286; -644.484
407.104;  179.610;  261.708;  144.527
407.394;   48.370; -604.299; -591.462
407.685;  120.966;  336.715;  222.513
407.975;   38.736; -400.283; -382.490
408.265;  100.291; -134.289; -190.478
408.556;   41.221; -472.291; -459.475
408.846;  157.071;  474.706;  429.530
409.137;   93.401;   -1.288; -216.480
409.427;   58.991; -193.285; -271.487
409.717;   46.336; -776.273; -692.508
410.007;  128.659;    4.715; -170.486
410.298;   95.736; -360.295; -342.469
410.588;  101.238; -495.285; -510.486
410.878;   36.690; -792.287; -873.482
411.168;  115.453; -481.298; -478.463
411.459;  131.230; -295.283; -242.489
411.749;   76.669; -609.292; -507.474
412.039;   62.074; -755.289; -386.480
412.329;  218.987;   40.722;  132.501
412.619;  200.752;  -62.286; -148.485
412.909;  366.795;  639.711;  594.521
413.199;  313.090; -130.280; -251.495
413.490;  375.884;  521.710;  352.523
413.780;  196.795;-1013.279; -913.496
414.070;  379.285;  -46.276;  235.497
414.360;  378.682; -729.278; -666.498
414.650;  529.160; -726.288; -688.482
414.940;  703.419; -538.280; -441.496
415.230; 1191.031;   50.712;   74.519
415.520; 8302.198;  155.730;   66.486
415.809;33392.799; -305.281; -125.493
416.099;25436.373; -388.277; -229.501
416.389; 7580.798;  435.726;  236.494
416.679; 4447.973;   91.738;   85.473
416.969;  719.470; -527.287; -503.483
417.259;  621.147;  341.721;  171.503
417.549;  862.097;  522.718;  318.508
417.838; 2354.193; -205.268; -147.518
418.128; 8123.640;  650.710;  492.522
418.418; 6683.544; -491.272; -579.509
418.708; 4446.124;    9.726;  -48.506
418.997;17398.769; -474.275; -480.505
419.287;17799.157; -733.273; -790.507
419.577;17559.029; -160.283; -123.489
419.866;56045.171; -588.277; -498.501
420.156;54419.893; -242.270;  -55.513
420.446; 9013.989; -112.263;  -26.526
420.735;  860.711; -376.271; -446.512
421.025;  894.381; 1830.722;  315.502
421.314;  522.009; -203.271; -226.512
421.604;  647.535;   89.732;  233.484
421.893;  397.780; -705.271; -602.511
422.183;  247.339; -487.263; -461.526
422.472;  399.306;  -36.271; -107.511
422.762;  408.315; -416.266; -379.521
423.051;  262.510; -916.276; -916.503
423.341;  319.834; -491.273; -439.507
423.630;  393.897; -121.265;   15.477
423.919;  419.343;   58.725;   49.495
424.209;  468.696;  -31.263;   56.473
424.498;  635.690;   68.732;  161.483
424.787; 1437.173; -535.267; -601.518
425.077; 4237.370;   34.735;   29.478
425.366; 4661.402; -734.262; -744.528
425.655;13486.560;  639.727;  259.493
425.945;34614.580; -313.247; -268.554
426.234;18413.204;  117.741;  300.467
426.523; 7076.560;  -86.259; -350.534
426.812; 9652.360;  107.734;  159.480
427.101;14687.380; -127.269; -323.515
427.390;17193.448;  -55.270;  -86.514
427.680; 2471.134; -624.257; -411.538
427.969;  484.721; -330.255; -301.540
428.258;  347.299; -385.257; -477.536
428.547;  484.799;  449.728;  397.490
428.836;  707.766; -421.253; -398.543
429.125;  987.312; -199.259;  -72.534
429.414;  750.943; -330.251; -294.548
429.703; 4412.968; -231.251; -213.548
429.992;13712.922; -938.250; -828.549
430.281; 8674.105; -397.264; -331.524
430.570;  567.131;  -21.252;   32.454
430.859;  385.910;  279.741;  352.466
431.148;  401.025;  636.752;  631.446
431.437;  313.206;  391.748;  367.454
431.725;  194.475; -544.257; -481.536
432.014;  196.749; -845.253; -756.545
432.303;  403.340; -149.239; -105.569
432.592;  536.113; -460.263; -178.525
432.881; 1370.877; -601.248; -437.554
433.169; 9372.997; -343.255;  -61.540
433.458;19002.030;  445.765;  540.424
433.747; 7460.109; -397.261; -289.529
434.036;  934.611; -275.242; -280.564
434.324; 2872.786; -395.249; -379.551
434.613; 5143.904;   40.757;  159.437
434.902; 1502.903;  333.760;  439.433
435.190;  277.439;   75.761;  295.431
435.479;  159.307;  -52.245;   83.441
435.767;   78.892; -411.244; -427.561
436.056;  190.431; -340.242; -294.563
436.345;  462.581; -372.240; -223.568
436.633;  439.931;   60.750;  383.450
436.922;  177.334;  208.760;  414.432
437.210;  179.443; -194.236;    1.426
437.499;  426.853; -583.235; -432.576
437.787;  490.993; -339.236;  -10.574
438.075;  169.670;   56.761;  162.430
438.364;  182.023;  -44.238;  250.429
438.652;   98.347; -286.226; -138.592
438.941;   69.080;    3.770;  269.415
439.229;  -23.097; -665.252; -466.545
439.517;   26.913; -160.234;  -85.577
439.806;   -6.159; -501.225; -290.595
440.094;  131.272;  377.766;  650.421
440.382;   34.851; -653.233; -302.580
440.670;   16.277; -361.235; -285.576
440.959;   -7.113; -347.223; -170.599
441.247;   44.718; -151.229; -109.587
441.535;   36.111; -266.235;   31.423
441.823;   -4.731; -497.234; -305.578
442.111;  146.548;  173.771;  327.412
442.400;  278.556; -628.245; -335.559
442.688;  479.346; -111.234; -620.579
442.976;  202.016; -786.213; -450.617
443.264;   35.399; -324.224; -364.597
443.552;   32.449; -258.226;   51.408
443.840;  133.334;  602.765;  876.423
444.128;   65.725;  265.767;  269.420
444.416;  -14.274; -694.228; -312.588
444.704;    9.647; -465.219;  -92.605
444.992;   47.802;   -0.226;  240.407
445.280;   12.256; -517.230;  -94.585
445.568;  -12.580; -694.212; -396.618
445.856;  129.628; -174.221;  357.398
446.143;  197.317;  -54.220;   -7.604
446.431;  210.831;  -25.228;  625.411
446.719;  135.120;  489.783;  675.391
447.007;  145.074;  481.769;  705.416
447.295;  162.933;  597.777;  871.402
447.583;   73.116; -464.229;  -34.587
447.870;  102.374; -434.221; -202.601
448.158;  230.379; -104.230;  129.415
448.446;  121.144; -800.219; -338.604
448.733;  127.451;   13.776;  269.403
449.021;  174.269;   60.788;  341.382
449.309;  157.887; -296.210;  208.379
449.596;  212.915;  128.783;   59.392
449.884;  182.241; -571.222; -325.600
450.172;  258.587; -756.227; -406.590
450.459;  628.471;  645.786;  780.387
450.747; 3745.888; -411.218; -147.608
451.034;12035.907;  493.772;  889.411
451.322; 9741.224; -413.214; -170.614
451.609;  721.902;  292.777;  508.403
451.897;  881.337; -550.203; -183.634
452.184; 2642.083; -622.223; -400.598
452.472; 2379.888;   97.792;  269.375
452.759;  343.069;  512.781;  864.395
453.047;   70.092; -407.212; -125.617
453.334;   34.129; -732.219; -216.606
453.621;   30.177; -438.214; -161.615
453.909;   91.377;   13.796;  384.368
454.196;   94.031; -299.199; -123.641
454.483;  223.302;  317.798;  540.364
454.771;  143.066; -215.208;  196.374
455.058;   42.770; -316.207;  102.374
455.345;  148.497;   71.807;  344.347
455.632;  127.674; -128.207;  235.373
455.919;   53.408;  -82.196;  182.354
456.207;  -54.263; -774.198; -450.642
456.494;  -19.008; -475.200;  -66.639
456.781;   18.897; -399.202; -198.635
457.068;   55.957; -253.206;  -29.628
457.355;  -13.692; -698.206; -401.629
457.642;   -1.535; -552.205; -290.630
457.929;   13.736; -778.194; -417.651
458.216;  104.417; -575.212; -354.617
458.503;  385.567; -173.193;  -19.652
458.790;  396.514; -864.208; -630.625
459.077;  373.478;  -77.202;  110.364
459.364; 1157.978; -350.195; -210.649
459.651; 2467.529;  -46.206;  220.372
459.938; 1119.577; -864.209; -665.623
460.225;  104.982;  132.799;  276.363
460.512;  -41.995; -836.197; -688.645
460.799;  124.662;  -32.218;  320.392
461.086;   81.697; -370.200; -251.640
461.372;   14.337; -509.198; -279.642
461.659;   50.109; -165.196;  108.354
461.946;   20.965; -445.193;  -54.651
462.233;  210.644;  842.800;  888.361
462.519;  485.490; -814.201; -464.639
462.806; 1487.355; -768.197; -497.645
463.093; 1247.589; -445.191;  -66.656
463.380;   -2.387; -920.186; -824.664
463.666;   50.057; -259.197;  -18.646
463.953;  134.522; -406.195; -243.648
464.239;  260.696; -173.195;  -77.648
464.526;  390.809;  413.806;  743.350
464.813;  318.278; -565.190; -304.658
465.099;  333.716;  606.807;  607.348
465.386;  260.771;  903.807;  921.348
465.672;  -13.070; -694.197; -522.645
465.959;   35.274; -598.188; -520.662
466.245;    1.321; -468.193; -359.652
466.532;   54.969; -109.195;   63.352
466.818;   20.438; -357.186; -216.664
467.104;  -19.289; -488.182; -415.672
467.391;  -13.920; -628.189; -459.658
467.677;   23.542; -289.186;    9.335
467.964;  -10.587; -682.189; -471.660
468.250;   35.545; -331.186; -160.665
468.536;   66.557;   90.811;  180.341
468.822;  -27.516; -821.184; -574.668
469.109;  136.481;  351.827;  471.311
469.395;  193.032;  729.808;  787.346
469.681;  224.560;   46.811;  156.341
469.967; 1742.516; -699.188; -382.660
470.254; 3966.925; -494.188; -306.662
470.540; 2432.308; -601.196; -476.646
470.826;  355.399; -488.181; -397.675
471.112;  416.314;  288.816;  113.331
471.398;   84.694; -253.183;  -58.670
471.684;   28.632; -626.177; -447.680
471.970;   18.203; -918.180; -981.675
472.256;   53.131; -521.192; -441.654
472.542;   11.469; -499.171; -434.691
472.828;   18.606; -743.182; -607.672
473.114;   36.171; -380.166; -283.700
473.400;   16.877; -504.175; -293.684
473.686;   32.278; -452.166; -400.701
473.972;   38.169; -230.174; -131.687
474.258;   -5.819; -925.173; -843.689
474.544;  323.347; -183.178;   -2.679
474.830;  516.579;  -65.175;   45.316
475.116;  836.830; -123.190; -196.658
475.401; 1110.731; -558.180; -467.676
475.687;  291.205; -725.180; -718.676
475.973;  -18.210; -673.181; -770.673
476.259;  230.206;  736.825;  764.315
476.544;  544.617; -539.176; -437.682
476.830; 1396.814; -398.172; -322.690
477.116; 1224.765; -430.177; -336.682
477.401;  169.005;  346.820;  358.324
477.687;  -20.423; -289.175; -405.684
477.973;   35.444;   21.819;   28.326
478.258;  -15.148; -448.163; -348.706
478.544;   28.377;   21.815;   61.334
478.829;  -55.549; -818.171; -738.692
479.115;  -40.736; -749.172; -651.690
479.401;    1.064; -444.174; -449.686
479.686;   51.054; -253.180;  -74.676
479.972;  -11.747; -886.178; -776.680
480.257;   54.872; -258.166;  -65.700
480.542;   20.905; -614.170; -469.693
480.828;  234.500; 1288.824; 1392.317
481.113;  -33.403; -464.176; -426.683
481.399;   -6.419; -236.161; -202.711
481.684;  -47.328; -620.166; -462.700
481.969;   20.146; -158.159;  -73.713
482.255;  -20.032; -439.169; -285.695
482.540;    1.354; -569.178; -441.680
482.825;   26.532; -395.187; -404.663
483.110;  128.497;  -85.169; -105.696
483.396;  375.597; -840.157; -652.718
483.681;  766.094;  543.826;  730.313
483.966;  284.139; -696.160; -700.712
484.251;   -7.657; -404.174; -310.687
484.536;    3.209; -356.165; -378.703
484.822;   36.622; -205.173; -218.687
485.107;  -14.383; -599.152; -502.726
485.392;  124.666;  662.836;  541.296
485.677;   82.283;  354.832;  163.302
485.962;   93.444;  160.843;  270.283
486.247;  105.362;  -14.162;   -8.707
486.532;   63.474; -178.166; -325.701
486.817;  173.674;  381.839;  431.291
487.102;  145.347; -453.154; -514.722
487.387; 1068.599; -637.156; -652.718
487.672; 1948.797; -154.164;  -38.705
487.957; 1203.807; -394.160; -286.711
488.241;  339.387; -290.150; -314.729
488.526; 1209.594; -280.152; -148.726
488.811; 2012.881; -881.177; -818.680
489.096; 1399.375; -666.154; -702.723
489.381;  720.364;    3.847;  162.275
489.666;  637.355; -428.161; -510.710
489.950;  219.304;  558.846;  627.277
490.235;  -26.519; -480.151; -458.728
490.520;  -43.721; -756.161; -723.710
490.804;  -41.098; -827.156; -736.719
491.089;   22.756; -469.149; -299.732
491.374;   18.046; -132.164;  -75.704
491.658;  -21.656; -817.147; -717.735
491.943;  102.224; -657.152; -609.727
492.227;  210.592; -178.155;  -38.721
492.512;   42.744; -294.157; -341.717
492.797;  -67.852; -713.149; -716.731
493.081;  -50.203; -588.147; -598.735
493.366;  -32.994; -751.161; -635.711
493.650;  221.810;  831.859;  917.254
493.935;   79.193; -648.147; -447.734
494.219;  -20.655; -778.142; -687.743
494.503;  -33.158; -585.150; -487.730
494.788;   57.984;   46.842;   74.285
495.072;  117.413;  184.850;  434.271
495.356;  231.234; -463.148; -343.733
495.641;  523.480; -812.146; -736.736
495.925;  428.082; -976.156; -903.719
496.209;   18.405; -599.149; -451.732
496.494;  -36.679; -763.142; -544.744
496.778;   11.747; -364.154; -360.722
497.062;  -40.493; -819.156; -627.719
497.346;    4.809; -869.160; -640.711
497.631;  176.364;  580.852;  560.266
497.915;   74.868;  -64.145;  175.261
498.199;   33.972; -341.157; -277.718
498.483;   39.242; -562.152; -508.725
498.767;  257.690;  301.850;  300.271
499.051;  281.527; -126.149; -100.732
499.335;   68.375; -693.149; -739.731
499.619;  -33.420; -381.129; -423.767
499.903;   10.116; -272.155;  -65.721
500.187;   31.031; -588.153; -316.724
500.471;   25.473; -796.152; -595.727
500.755;   79.379;   62.839;  -96.710
501.039;   -7.659; -270.155; -357.721
501.323;   69.212;  -21.141;  264.254
501.607;   10.328; -447.163; -503.706
501.891;   -7.326; -607.156; -512.718
502.174;  -45.619; -726.144; -585.741
502.458;   65.478;   89.849;  370.273
502.742;   44.466; -180.138; -191.751
503.026;  190.793; -412.147; -254.734
503.310;  321.320; -437.159; -375.713
503.593;  211.270; -464.147; -325.735
503.877;  130.963; -232.133; -156.760
504.161;  179.334;    2.847;  -50.724
504.444;  183.886; -841.158; -710.716
504.728;  757.495; -487.164; -522.704
505.012; 1099.411; -257.150;  -76.729
505.295;  786.831; -417.161; -212.711
505.579;  801.382; -256.156; -496.719
505.862; 1246.838; -555.145; -333.738
506.146; 1265.948; -681.159; -758.714
506.429;  597.124;  568.841;  461.286
506.713;  128.708; -732.151; -667.728
506.996;  469.296;   90.846;  295.278
507.280;  552.914; -633.165; -474.703
507.563;  367.389; -469.155; -261.721
507.847;  186.632; -423.153; -112.724
508.130;  174.506; -665.161; -456.711
508.413;  219.317; -758.167; -577.700
508.697;  399.667; -151.167;   12.300
508.980;  277.108; -422.153; -312.724
509.263;   20.710; -466.155; -450.720
509.547;   49.211; -124.150;   82.271
509.830;   49.909; -172.160;  140.289
510.113;   90.656;  128.844;  298.281
510.396;   52.240; -530.152; -300.725
510.680;   31.565; -818.145; -812.738
510.963;  177.227;  184.846;  180.277
511.246;  105.845; -493.150; -357.730
511.529;  284.296; -482.145;  -83.739
511.812;  632.259; -250.134;   10.241
512.095;  477.429; -740.151; -396.728
512.378;  115.125; -317.147; -245.736
512.661;   80.175; -703.137; -623.753
512.944;   80.098; -750.142; -637.744
513.227;  103.246; -170.137; -171.752
513.510;   47.006; -479.144; -671.741
513.793;   36.992; -485.140; -435.747
514.076;  165.605;  -43.127;  -39.771
514.359;  144.381; -294.149; -135.732
514.642;  149.876; -442.142; -567.744
514.925; 1151.891;  581.860;  561.253
515.208; 1651.480; -498.134; -443.758
515.491; 1064.121; -276.133; -182.761
515.773;  588.185; -410.143; -337.742
516.056; 3290.032;  249.864;  409.246
516.339; 4352.637; -754.136; -652.755
516.622; 2036.917; -518.150; -488.730
516.904;  532.218;  882.857;  975.257
517.187;  187.945; -730.138; -523.752
517.470;  405.142; -568.143; -510.743
517.752;  717.240; -624.136; -470.756
518.035;  587.880; -708.139; -725.749
518.318;  639.812; -799.136; -744.755
518.600; 4054.676; -300.132; -325.762
518.883; 5568.100;  310.858;   88.256
519.165; 2546.236; -585.138; -426.751
519.448;  426.075;  -61.132;  -19.762
519.730;  189.939; -573.126; -415.773
520.013;  248.217;  588.867;  664.240
520.295;  273.411;  -94.134;  -15.759
520.578;  604.191; -335.131; -305.764
520.860;  853.425; -254.132;   56.238
521.143;  611.943; -763.135; -584.756
521.425;  595.254; -251.125; -279.775
521.707; 1010.855; -622.127; -380.771
521.990; 2836.556; -199.127;  167.229
522.272; 3263.045; -116.140;   -4.748
522.554; 1194.261; -237.143; -157.742
522.836;  240.284;  -24.134;   99.241
523.119;  192.966; -496.148; -189.734
523.401;  171.749; -448.130; -314.766
523.683;  151.375; -865.137; -693.753
523.965;  415.742;  408.862;  260.248
524.247;  433.479;   54.878;  170.220
524.529;  312.986; -451.134; -367.759
524.812;  481.601;   -3.130;  191.234
525.094; 1416.592; -773.138; -631.751
525.376; 2207.515; -143.124;   78.223
525.658; 1353.559; -441.136; -339.754
525.940;   89.912; -805.131; -671.764
526.222;   26.388; -188.136;  -88.755
526.504;   50.384; -190.131;   32.237
526.786;   13.339; -960.133; -647.760
527.068;  111.571; -124.123;  -67.778
527.349;   -9.945; -865.137; -774.754
527.631;  129.175; -137.132;   22.238
527.913;  240.629; -664.127; -450.771
528.195;  316.171; -761.125; -639.774
528.477;  386.430;  -93.134;  -30.758
528.759;  270.176; -648.130; -522.766
529.040;  136.795; -569.123; -293.778
529.322;   75.449; -235.125;  -10.774
529.604;   89.578;  -47.130;   93.233
529.886;   40.063; -546.126; -302.773
530.167;   61.244;  232.870;  192.235
530.449;   46.674;    1.853;   63.265
530.731;   79.478; -572.122; -459.779
531.012;  143.628; -513.120; -216.784
531.294;  111.399; -118.116;  -43.792
531.575;  200.179;  290.875;  538.225
531.857;  127.149; -548.135; -266.757
532.138;  118.786; -113.141;   40.254
532.420;   97.870;  294.865;  403.244
532.701;   82.892; -722.133; -751.760
532.983;  183.096;  232.867;  182.239
533.264;   46.436; -243.126;  175.228
533.546;  -42.262; -491.136; -508.755
533.827;   28.588;  173.867;   -1.759
534.109;   19.324; -352.135;  -80.757
534.390;   96.430; -725.132; -582.762
534.671;  322.844; -270.135;  -82.756
534.953;  215.798; -751.123; -611.779
535.234;   51.456; -426.117; -255.789
535.515;  -52.613; -891.119; -735.785
535.796;   -1.650; -431.128; -193.770
536.078;  -93.786;-1050.124; -904.777
536.359;   -4.251;  -22.123;    3.221
536.640;  -17.178; -480.125; -197.774
536.921;  155.210;  225.871;  143.232
537.202;  537.538;  -87.138;  -16.751
537.483;  695.115;  251.869;  377.236
537.764;  274.119;   17.870;   98.235
538.045;  -49.846; -543.134; -371.758
538.326;  -33.838; -596.129; -447.768
538.607;   66.106; -686.127; -476.771
538.888;  269.417;   98.879;    5.218
539.169;  314.436; -704.122; -535.781
539.450;  428.983;  236.871;   16.233
539.731;  274.847; -361.121; -182.783
540.012;  155.903;  199.880;  412.216
540.293;   81.608;   82.876;  158.224
540.574;   -3.427; -895.113; -717.796
540.855;  515.795;  435.879;  377.218
541.136;  680.032;   47.878;  139.220
541.416;  381.502; -161.130; -220.766
541.697;  303.810; -274.131; -170.763
541.978; 1647.572; -270.135; -315.757
542.259; 2089.706; -211.127; -236.771
542.539;  960.367; -191.116; -186.790
542.820;  214.553;  461.875;  480.225
543.101;  143.517;  -52.145;  -77.738
543.381;   30.931; -638.127; -591.771
543.662;  342.303;  159.873; -254.771
543.942;  964.251; -751.127; -830.770
544.223; 1652.484;  193.878;  161.219
544.504; 1101.739; -275.124; -182.777
544.784;  878.713; -592.126; -408.773
545.065; 2508.921;  104.884; -254.791
545.345; 2934.238;  227.881;   14.215
545.626; 1951.622;  -14.113; -108.796
545.906; 1391.843;   77.869;   98.235
546.186;  591.444;   92.874;  -95.773
546.467;  309.267;   99.877;  -95.778
546.747;  508.641;  264.884;  327.210
547.027;  574.987;   91.876;  111.223
547.308;  533.125; -376.127; -530.770
547.588;  562.888;  299.871;  371.232
547.868;  263.619;  458.870;  588.235
548.149;  259.055;  609.885;  593.207
548.429;  243.554; -347.127; -299.771
548.709;  371.777; -645.120; -461.784
548.989;  770.649;   84.882;   88.213
549.269; 3329.198;   10.868;  139.239
549.550; 7840.797;  215.877;  117.222
549.830; 6986.344; -758.111; -556.799
550.110; 1373.853; -468.110; -320.801
550.390; 1301.903; -128.122;  -56.779
550.670; 1910.667; -868.114; -783.795
550.950; 1312.619; -509.121; -471.782
551.230;  242.915;  549.879;  460.218
551.510;   30.018; -381.121; -326.782
551.790;   87.587; -173.109; -127.803
552.070;  316.267;  940.877; 1181.223
552.350;  713.192; -492.119; -377.786
552.630;  972.312;   -2.121;   77.219
552.909;  579.597;  181.884;   73.209
553.189;  393.031;  -49.132;   33.237
553.469;  377.567; -703.119; -514.786
553.749;  374.433; -469.127; -357.772
554.029;  274.736;   33.883;  -24.790
554.308;  261.135; -154.115;  -37.794
554.588;  120.073; -196.128; -204.770
554.868;  151.070; -366.121;  -47.782
555.147;  275.081; -114.115;  -46.793
555.427;  958.224; -260.116; -250.792
555.707; 6277.204; -284.115; -200.793
555.986; 7746.148; -719.111; -538.800
556.266; 3972.715;   23.884;   72.210
556.546;  246.618; -888.121; -675.782
556.825;  439.165; -657.114; -556.794
557.105; 2909.321; -125.128;   17.230
557.384; 3459.295;  122.884;  187.209
557.664; 1354.499; -717.116; -508.792
557.943;  237.045; -557.121; -411.782
558.222;  329.678; -345.118; -344.788
558.502;  434.758; -116.115;  -76.793
558.781;  742.428;  194.885;  499.208
559.061;  687.777; -232.118; -227.788
559.340;  455.983;  302.883;  353.211
559.619; 1194.615;   93.884;  148.210
559.899; 1735.710; -239.117; -266.789
560.178; 1552.907; -778.115; -593.793
560.457; 4825.837; -623.117; -562.790
560.736; 6882.049; -472.111; -482.800
561.015; 4477.568; -500.128; -502.769
561.295;  552.585;  180.893;  215.193
561.574;  452.255;  119.885;  116.207
561.853;  707.842;  274.891;  303.197
562.132;  797.860;  -45.114;  182.206
562.411;  684.238;  396.879;  553.219
562.690;  280.902; -592.115; -458.792
562.969;  186.031;  472.888;  630.203
563.248;  540.035; 2966.878; 2487.219
563.527;  478.423; -290.111; -408.800
563.806;  691.254; -650.127; -521.771
564.085;  690.653; -297.105; -206.810
564.364;  439.164; -594.117; -405.790
564.643;  834.538; -276.121; -223.781
564.922; 3022.810;  221.890;  397.198
565.201; 3183.914; -640.109; -700.803
565.479; 1349.276; -297.115; -219.792
565.758;  572.471; -810.128; -712.770
566.037;  787.915; -155.109; -100.803
566.316;  395.996; -286.116;  -28.791
566.595;   76.754;  -17.115;  -12.793
566.873;  127.926; -166.111;  -79.801
567.152;  -35.145; -490.113; -590.797
567.431;   39.141; -113.116;    6.210
567.709;   63.561; -344.107; -212.807
567.988;  473.990; -810.114; -769.794
568.266;  869.729; -160.115;  -68.793
568.545;  641.059; -644.100; -514.819
568.824;  966.050;  160.885;  356.208
569.102;  976.364; -351.114; -235.794
569.381;  434.974; -492.116; -407.792
569.659;  -13.799; -553.113; -553.796
569.938;  128.483; -743.122; -465.780
570.216;  192.618; -225.109; -225.804
570.494;    8.943; -632.114; -572.795
570.773;   43.818;  202.879;  114.218
571.051;   45.795; -373.123; -357.778
571.330;  119.848; -221.113; -174.796
571.608;   83.880; -181.098; -173.823
571.886;  -41.259; -671.111; -581.799
572.164;  -17.830; -739.121; -621.782
572.443;  -11.417; -562.105; -512.811
572.721;  -31.588; -399.117; -289.790
572.999;   -4.695; -280.117; -168.788
573.277;  114.700;  379.894;  620.191
573.555;  477.652;   94.894;   37.190
573.834; 2278.754;  -86.117; -114.788
574.112; 2548.638;  880.893;  811.193
574.390;  783.449; -143.111;  -96.801
574.668;   34.607;  -91.112;  -61.797
574.946;   -1.597; -165.106; -187.810
575.224;   26.739;   71.891;  -16.803
575.502;  -10.307; -200.116; -204.791
575.780;  -60.442; -767.112; -829.798
576.058;  233.073; 1589.889; 1004.200
576.336;  -27.470; -210.110; -129.801
576.614;  -38.442; -511.112; -340.798
576.891;  151.084; -711.115; -823.794
577.169;  809.328; -158.108; -285.805
577.447;  922.988;  169.893;  202.193
577.725;  386.438;  629.888;  854.201
578.003;   39.811;  -71.112; -371.798
578.280;  142.243; -208.104; -242.812
578.558;  119.783; -450.115; -422.793
578.836;  158.718; -210.114; -145.795
579.114;   95.681; -630.112; -670.797
579.391;   74.682;   -6.117;  -18.789
579.669;  -49.215; -595.114; -704.794
579.947;  293.759; -326.107; -127.806
580.224;  570.384; -692.107; -524.806
580.502;  522.064;  127.893;   76.193
580.779;   45.139;  -42.117;   75.210
581.057;  -77.456; -584.109; -470.804
581.334;  -81.039; -726.102; -695.815
581.612;   31.554;   54.895;  511.190
581.889;  -25.524;  -83.101; -129.818
582.167;  -18.757; -298.099; -190.821
582.444;  -80.230; -845.102; -814.817
582.721;  101.371;  657.899;  715.183
582.999;   99.765; -326.100; -167.821
583.276;  928.975; -812.123; -713.779
583.553; 1222.165; -364.102; -294.816
583.831;  448.814; -607.104; -631.812
584.108;   82.900;  349.892;  174.195
584.385;   33.435; -122.102;  -98.815
584.662;  -43.974; -651.111; -828.801
584.940;   51.250;  204.889;  204.199
585.217;  -20.850;  -73.113; -303.796
585.494;   60.461;   71.890;  118.198
585.771;  345.045; -250.109; -354.804
586.048;  791.325; -196.113;  -76.796
586.325;  522.404; -721.110; -773.801
586.602;  116.144;  230.896;  213.188
586.879;   17.836; -499.100; -580.820
587.156;  108.455; -156.105; -331.810
587.433;   14.343; -701.102; -667.817
587.710;  102.359;  152.888;  234.202
587.987;  458.261; -264.105; -236.811
588.264; 1132.411;  315.888;  387.202
588.541; 1938.797;  -61.104;   26.187
588.818; 3987.197;   72.892;  171.196
589.095; 3434.091; -163.104; -174.812
589.371;  591.117; -459.109; -414.804
589.648;   52.438; -581.107; -437.807
589.925;   88.394; -517.114; -621.795
590.202;   89.958; -741.112; -607.798
590.478;  153.113; -166.105;  -73.811
590.755;  419.904; -241.108; -132.806
591.032; 3812.807; -741.110; -699.802
591.308; 5403.102; -732.094; -790.831
591.585; 2760.556; -573.110; -560.802
591.862;  313.769;-1056.102; -950.817
592.138;  148.577; -475.108; -474.805
592.415;  268.870; -486.104; -495.813
592.691; 2132.842;  460.896;  518.188
592.968; 2869.607; -208.098; -123.824
593.244; 1392.366; -695.116; -595.790
593.521;  122.570; -105.102;  -42.817
593.797;   48.005; -810.122; -720.780
594.074;  542.197; -611.096; -588.826
594.350;  958.560;  828.905;  729.172
594.626;  488.551; -303.111; -283.801
594.903;  243.395; -643.101; -645.817
595.179;  295.074;  243.896;  418.187
595.455;   36.440; -136.107; -150.807
595.731;   11.701;  -19.103;  -38.814
596.008;  -23.831; -464.111; -434.800
596.284;   71.689; -187.100; -242.820
596.560;  134.910; -501.093; -493.833
596.836;  323.107; -173.105;  -70.810
597.112;  591.427; -582.108; -437.805
597.388;  467.970;  -49.097;  -48.826
597.665;  163.128;  437.887;  530.203
597.941;  -26.855; -572.089; -658.839
598.217;   54.960; -323.110; -293.802
598.493;  419.121;   61.891; -204.804
598.769;  815.832; -175.100;  -50.819
599.045;  528.106; -490.108; -562.806
599.321;  124.563; -193.100; -261.820
599.597;  266.921; -355.109; -476.804
599.872;  749.196;  409.896;  429.187
600.148;  617.571;  -61.097; -172.826
600.424;  438.937;   91.893;  202.193
600.700;  393.264; -170.107; -280.807
600.976;  232.915; -442.097; -464.825
601.252;  435.867; -226.109; -272.803
601.527;  423.998; -833.104; -840.813
601.803;  263.288; -453.105; -404.812
602.079;  292.307; -124.100; -118.819
602.354;  914.172; -620.092; -531.835
602.630; 1305.650; -140.113; -482.796
602.906; 3520.526; -910.101; -863.818
603.181;10608.667; -627.119; -534.786
603.457; 9016.694;   98.903; -278.826
603.733; 1355.723; -605.120; -626.783
604.008; 1449.928; -245.106; -164.810
604.284; 4769.697; -636.101; -580.817
604.559; 4135.288;   -3.112;  -42.799
604.835;  778.582; -163.105; -225.810
605.110;  701.444; -732.099; -892.821
605.385; 1044.413;  224.907;  267.167
605.661; 1062.838; -625.095; -729.829
605.936; 1992.556; -664.108; -737.806
606.211; 1617.309;  -17.103; -170.815
606.487;  353.588; -329.114; -376.794
606.762;  108.117; -791.119; -745.786
607.037;   17.232; -501.105; -433.810
607.313;  -17.494; -589.096; -574.828
607.588;   18.178; -375.106; -137.810
607.863;   84.701;  -28.101; -143.818
608.138;  251.134;  513.890;  516.198
608.413;  112.973; -576.099; -592.822
608.688;  105.352; -203.108; -267.805
608.964;  354.121; -509.106; -218.809
609.239;  427.304; -107.105; -212.810
609.514;  363.188;  281.895;  240.188
609.789; 1037.843; -187.104; -716.812
610.064; 1364.929; -435.096; -609.827
610.339; 1447.542; -855.109; -799.804
610.614; 1964.188; -131.100; -315.820
610.889; 1110.838;  215.895;  107.188
611.163;  107.889; -407.104; -591.812
611.438;  161.314;   81.886; -167.794
611.713;   63.997; -467.101; -499.817
611.988;  110.725; -144.101; -328.818
612.263;   60.436; -771.102; -717.815
612.538;  332.750;  385.887;  251.204
612.812;  371.640; -832.100; -911.820
613.087;  256.805; -358.098; -338.823
613.362;  -24.836; -497.107; -557.807
613.637;   57.379;  261.897;  138.186
613.911;   15.372; -256.092; -345.835
614.186;  224.237; -249.107; -292.807
614.460; 1186.883; -842.081; -758.854
614.735; 1306.397;  -55.087;  -17.843
615.010;  263.285;   43.912;  -82.841
615.284;  344.651;  360.892;  246.195
615.559;  636.596; -792.092; -955.835
615.833;  462.246;  -76.099;  -87.822
616.108;   49.635; -225.090; -390.837
616.382;  207.174;  274.913;  402.156
616.656;  272.110; -241.090; -232.837
616.931;  801.797; -785.099; -700.822
617.205; 1705.573; -973.104; -979.813
617.480; 1542.951;  -91.125;    6.225
617.754;  304.973; -396.125; -128.774
618.028;   65.989; -369.129; -382.768
618.302;  113.525;   73.892;  -25.805
618.577;  -19.069; -371.103; -518.815
618.851;  -49.387; -399.109; -600.803
619.125;  -37.839; -335.134; -378.759
619.399;   -7.926; -244.104; -374.813
619.673;  -30.750; -330.115; -515.792
619.947;  -21.782; -333.114; -448.795
620.222;    9.702; -198.110; -204.801
620.496;   22.770;  -47.121;  -96.782
620.770;   65.335; -187.122;  -93.781
621.044;  301.455;  323.895;  346.190
621.318; 1152.123; -653.120; -614.783
621.592; 1061.896; -430.121; -409.783
621.866;  665.889; -476.112; -572.799
622.140;   82.693; -207.116; -356.791
622.413;   75.494;  138.889;  112.200
622.687;   -4.278; -746.101; -492.817
622.961;   53.450; -130.108; -143.805
623.235;  -24.480; -633.111; -661.800
623.509;  -86.762; -816.105; -848.811
623.783;   15.135;  -12.107;   48.193
624.056;    4.800; -254.120; -280.783
624.330;   72.732;   63.888;   -3.797
624.604;  104.139; -271.116; -355.790
624.877;  112.632;  180.890;   26.198
625.151;   96.036; -249.114; -238.794
625.425;  -17.974; -150.103; -283.814
625.698;  -26.214; -367.119; -374.785
625.972;  -75.890; -799.110; -765.802
626.245;   99.016;  685.884;  484.210
626.519;  -43.971; -426.120; -340.784
626.792;  -19.536; -192.107; -380.807
627.066;  -78.423; -485.122; -662.779
627.339;  -83.869; -736.110; -663.802
627.613;   60.603;  351.880;  148.216
627.886;   63.788;  187.891; -612.803
628.160;    1.073;  312.880; -161.783
628.433;  -70.920; -695.125; -703.775
628.706;  -56.771; -517.120; -615.784
628.979;   41.662;  296.876;  117.223
629.253;  -53.409; -785.119; -833.786
629.526;  635.361; -334.126; -253.772
629.799;  659.146; -641.123; -479.778
630.072;  334.165; -497.128; -516.769
630.346;   17.666;-1115.116;-1080.790
630.619;  738.415; -467.107; -545.808
630.892;  963.821;  709.889;  593.200
631.165;  500.823;  790.896;  679.187
631.438;  -20.564;-1092.112;-1055.798
631.711;   52.949;  453.877;  257.221
631.984;  -32.189; -523.117; -624.789
632.257;  -51.218; -636.117; -681.789
632.530;  -30.889; -412.119; -433.785
632.803;   27.309; -109.115;    7.207
633.076;  -39.208; -360.123; -422.777
633.349;   16.095;  173.872;  121.231
633.622;  -31.015; -187.119; -240.785
633.895; -102.051; -903.120; -823.783
634.167;  -56.711; -496.126; -525.773
634.440;    4.749;  -19.116; -137.792
634.713;   23.315;  -22.119; -120.786
634.986;   78.608;  593.871;  453.233
635.258;  -61.243; -507.115; -597.793
635.531;  100.502;  742.882; -343.788
635.804;  -35.691; -303.117; -318.789
636.077;  -71.456; -830.116; -852.791
636.349;   51.205; -586.115; -474.793
636.622;  469.360; 1695.874; 1392.228
636.894;  427.580; -474.120; -909.784
637.167;  308.878; -836.127; -789.771
637.439;   65.799; -278.128; -213.770
637.712;  -39.088; -312.126; -293.772
637.984;  -72.130; -635.116; -707.791
638.257;  482.142;  515.877;  488.222
638.529;  871.981; -881.125; -924.776
638.802;  400.065; -508.128; -449.769
639.074;  -86.441; -927.122; -952.781
639.346; -100.049; -942.135; -930.757
639.619;    3.949;  -79.142; -319.744
639.891;   -0.723;  -83.122; -168.779
640.163;  -77.146; -689.122; -756.780
640.435;   38.831;  273.878;  103.220
640.708;   12.933;  -72.122; -132.780
640.980;  -12.490; -366.122; -362.781
641.252;  260.738;  -25.121;  -71.781
641.524; 2429.340;  580.879;  573.219
641.796; 2595.567;-1094.121; -907.782
642.068;  471.119; -191.121; -300.782
642.340;  -41.179; -486.121; -566.783
642.613;   39.723;  294.880;  323.217
642.885;  -85.274; -787.120; -878.783
643.157;   -6.872; -810.120; -658.784
643.428;   78.005;  170.880;  218.216
643.700;  -63.668; -498.120; -425.784
643.972;  -22.316;  -16.119; -133.785
644.244;  -84.314; -474.119; -559.785
644.516;  -42.286; -250.119; -114.786
644.788;   62.866;  662.881;  548.214
645.060;  -21.432;  -12.119; -124.786
645.332;  -93.580; -525.118; -535.787
645.603;   37.397;  479.882;  342.213
645.875;  -76.426; -334.118; -369.787
646.147;  159.152; 1487.882; 1242.212
646.418;    5.579; -931.117; -918.788
646.690;  325.731; -714.117; -715.789
646.962;  129.108; -413.117; -451.789
647.233;    1.485;   15.883;   11.211
647.505;  -92.788; -595.117; -475.790
647.776;   18.039;  328.884;  229.210
648.048;   25.742; -248.116; -418.790
648.320;  -30.531; -752.116; -679.791
648.591; -127.829;-1055.116; -958.791
648.862;  -77.202; -505.116; -577.792
649.134;   24.025;  115.885;  198.208
649.405;  -10.973; -661.115; -618.792
649.677;  -33.970; -475.115; -598.793
649.948;   29.407; -181.115; -296.793
650.219;   21.109;  -37.115; -147.793
650.491;  -72.714; -431.114; -520.794
650.762; -104.537; -705.114; -731.794
651.033;  -74.960; -437.114; -424.795
651.304;  -67.907; -743.114; -728.795
651.576;  -39.705; -680.114; -645.795
651.847;  -47.203; -250.113; -140.796
652.118;  -29.551;  -32.113; -189.796
652.389;  -98.674; -639.113; -722.796
652.660;  -29.922; -147.113;  -89.797
652.931; -130.494; -897.112; -871.797
653.202;  -77.767; -382.112; -541.798
653.473;  -52.165; -633.112; -533.798
653.744;  295.362; -595.112; -590.798
654.015;  268.364; -356.112; -303.799
654.286;  -29.859; -642.111; -663.799
654.557;  -16.806; -586.111; -521.799
654.828; -142.854;-1114.111;-1088.800
655.099;  -78.677; -404.111; -291.800
655.370;  -94.100; -427.111; -543.801
655.641; -117.998; -656.110; -714.801
655.911; -117.471; -618.110; -638.801
656.182;   27.357;  437.890;  387.198
656.453;   69.009;  830.890;  746.198
656.724;  -55.814; -466.110; -426.802
656.994;  -68.312; -553.109; -568.803
657.265;  -81.760; -862.109; -873.803
657.536;  -72.958; -500.109; -377.804
657.806; -105.156; -561.109; -593.804
658.077; -124.878; -866.109; -950.804
658.347;  -90.926; -523.108; -598.805
658.618; -105.799; -646.108; -694.805
658.888;   -8.347;  -41.108;  112.195
659.159;  -71.520; -432.108; -548.806
659.429;    2.907; -292.108; -349.806
659.700;   53.585; -435.107; -390.807
659.970;    4.787; -370.107; -359.807
660.241;   80.639; -754.107; -921.807
660.511;  787.741; -147.107; -174.808
660.781;  218.718; -793.106; -748.808
661.052;  -40.505; -222.106; -381.808
661.322;  -10.552;   21.894;   -9.809
661.592;   18.275;  257.894;  148.191
661.862;  -74.048; -369.106; -382.810
662.133;  -90.621; -551.105; -502.810
662.403; -106.144; -770.105; -676.810
662.673;  -59.667; -256.105; -213.811
662.943;  -94.764; -612.105; -551.811
663.213;   15.513;  -85.105;  -81.811
663.483;  -68.435; -593.104; -568.812
663.753;  -46.508; -194.104; -152.812
664.023;   -7.706;   68.896;  -32.813
664.293;  -64.829; -319.104; -126.813
664.563; -109.826; -694.104; -648.813
664.833; -113.724; -743.103; -608.814
665.103; -121.072; -730.103; -793.814
665.373; -108.145; -766.103; -806.814
665.643;  -32.543; -863.103; -918.815
665.913;  115.509; -534.103; -714.815
666.182;  265.911; -685.102; -719.816
666.452;  422.114;  -22.102;  -89.816
666.722;   43.016; -724.102; -784.816
666.992; -105.032; -948.102; -921.817
667.261;  -73.255; -824.102; -808.817
667.531;  285.022;  134.899;   45.183
667.801;  808.199; -440.101; -412.818
668.070;  317.702;  714.899;  697.182
668.340;  -82.171; -883.101; -840.819
668.609;  107.756;  588.900;  301.181
668.879;  -60.892; -490.100; -558.819
669.149;  -55.965; -539.100; -516.820
669.418;  -92.063; -698.100; -726.820
669.688;    6.690; -482.100; -666.820
669.957;  168.192; -423.099; -546.821
670.226;    3.744; -268.099; -331.821
670.496;  -86.804; -431.099; -635.822
670.765;  -72.027; -418.099; -501.822
671.034; -118.075; -872.099; -828.822
671.304;   -2.422;   55.902; -111.823
671.573; -133.795;-1085.098; -957.823
671.842;  139.632; -380.098; -294.823
672.112;  108.134; -692.098; -586.824
672.381;   26.111; -239.098; -214.824
672.650; -118.012;-1005.097;-1021.825
672.919;  -85.834; -631.097; -507.825
673.188;  -82.182; -681.097; -878.825
673.457; -132.330;-1101.097;-1143.826
673.726;  -55.328; -579.096; -646.826
673.995;  -19.476; -533.096; -479.826
674.265;   18.751; -263.096; -333.827
674.534;   41.428; -183.096; -235.827
674.802;   63.906; -618.096; -703.828
675.071; 1495.983; -886.095; -801.828
675.340; 6192.035; -464.095; -339.828
675.609; 2067.162;  103.905;   82.171
675.878;  211.314; -949.095; -893.829
676.147;   78.891;  -26.095;   -8.829
676.416;  152.219; -210.094; -294.830
676.685; 1016.921; 1000.906; -622.830
676.953;  220.098; -603.094; -452.831
677.222;  -15.525; -193.094; -273.831
677.491;  -22.898;  -24.094; -127.831
677.759;   -3.146;   11.907;  172.168
678.028;   29.032; -279.093; -222.832
678.297;   17.059;   71.907;  197.168
678.565; -148.464; -898.093; -944.833
678.834;  -48.612; -311.093; -268.833
679.102;  -68.160; -411.092; -391.834
679.371; -127.408; -898.092; -727.834
679.639; -128.205; -797.092; -786.834
679.908; -118.728; -794.092; -724.835
680.176; -137.276; -895.091; -941.835
680.445;  -62.974; -346.091; -352.835
680.713;  -30.872;  -58.091;  -23.836
680.982;  -82.545; -523.091; -525.836
681.250;  -92.542; -578.091; -507.837
681.518; -107.065; -534.090; -751.837
681.787;    8.487; -204.090; -167.837
682.055;  -41.511; -490.090; -422.838
682.323; -139.684; -993.090; -992.838
682.591;   81.643; -216.090; -538.838
682.859;  156.521;    9.911;  -35.839
683.128;   34.548;  232.911;  497.161
683.396; -150.850;-1102.089;-1122.840
683.664;  -32.348; -241.089;   21.160
683.932;    8.379;  144.911;  -76.840
684.200;  -74.494; -576.088; -320.841
684.468;  -16.692;  -73.088; -124.841
684.736;  -26.539; -214.088; -175.841
685.004; -102.537;-1024.088; -982.842
685.272;   12.915; -880.088; -774.842
685.540;  -54.158; -499.087; -557.843
685.808;  -65.606; -651.087; -682.843
686.076;  -74.529; -894.087; -969.843
686.343;  -21.401; -601.087; -815.844
686.611;   78.101; -195.087; -224.844
686.879;  634.903; -530.086; -553.844
687.147; 4951.380; -483.086; -480.845
687.414; 1423.232;  -12.086; -169.845
687.682;   69.584; -658.086; -757.846
687.950;  485.512;  259.915;  263.154
688.217;   86.039; -792.085; -760.846
688.485;   37.141; -632.085; -636.847
688.753;  868.243;  -11.085; -102.847
689.020;  367.220; -820.085; -851.847
689.288;  -70.828; -853.084; -787.848
689.555;   -9.875; -195.084; -148.848
689.823;  -42.898; -241.084; -345.849
690.090;  -66.546; -546.084; -651.849
690.358; -135.319; -877.084; -897.849
690.625;   16.833;  120.917;   45.150
690.892;  -76.865; -403.083; -369.850
691.160;   -5.587;   72.917;  -35.850
691.427;    9.965;  141.917;  130.149
691.694; -121.758; -855.083; -929.851
691.962; -130.756;-1177.082;-1060.852
692.229;   20.271;  127.918;   56.148
692.496;  129.798;  130.918;  -49.852
692.763;   42.700; -164.082; -201.853
693.031;  -43.122; -739.082; -716.853
693.298;   -6.645; -509.081; -368.853
693.565;  450.982; -155.081; -163.854
693.832; 2051.709;   -5.081;   -9.854
694.099;  285.961; -643.081; -642.855
694.366;  -14.862; -882.081; -896.855
694.633;  -14.559; -920.080; -633.855
694.900;  744.368; 4367.920; -114.856
695.167;  634.545; -214.080; -380.856
695.434;  188.422; -646.080; -623.856
695.701;  239.049;  121.921;  -61.857
695.968;  675.926; -365.079; -361.857
696.234; 1185.429; -415.079; -646.858
696.501;11908.681; -776.079; -614.858
696.768; 6480.258; -554.079; -617.858
697.035;  391.535; -632.078; -667.859
697.302;   64.962; -448.078; -552.859
697.568;   38.114; -458.078; -497.859
697.835;  -19.433; -683.078; -624.860
698.102;   -1.881; -498.078; -407.860
698.368;   82.146;  384.923;  396.139
698.635;   -9.727;  -47.077; -424.861
698.901;    0.800; -240.077; -348.861
699.168;  138.177; -534.077; -456.862
699.435;  136.980;  -72.077;  -13.862
699.701;  -89.143; -868.076; -764.862
699.968;   16.359;  144.924; -441.863
700.234;  -75.914; -783.076; -822.863
700.500;  -31.912; -448.076; -539.864
700.767;    3.590;   -1.075;   26.136
701.033; -104.483;-1015.075; -963.864
701.299;  -40.280; -450.075; -483.865
701.566;  114.647;  950.925;  763.135
701.832;   39.174;  -31.075;  -76.865
702.098;  -70.074;-1054.074;-1034.866
702.365;  -56.272;-1098.074;-1030.866
702.631;   27.005;-1038.074;-1063.867
702.897; 1779.058; -765.074; -676.867
703.163; 3223.910;  348.926;  254.133
703.429;  258.062; -256.073; -273.868
703.695;   -3.636; -796.073; -792.868
703.961;   30.566; -214.073; -210.868
704.227;  -22.382; -630.073; -725.869
704.493;  147.971;  613.927;  510.131
704.759;    5.023; -565.072; -540.870
705.025;   37.100; -203.072; -194.870
705.291;   17.802; -666.072; -562.870
705.557;  206.779;  719.928;   34.129
705.823;   59.431; -742.072; -694.871
706.089;  184.684; -307.071; -326.871
706.355;  409.436; -315.071; -244.872
706.620; 5891.163; -776.071; -729.872
706.886; 9687.240; -309.071; -362.873
707.152; 1020.117; -818.070; -973.873
707.418;   29.219;-1153.070;-1186.873
707.683;   36.997; -550.070; -530.874
707.949;  -14.576; -547.070; -578.874
708.215;   11.876; -129.070; -207.874
708.480;    8.553; -520.069; -420.875
708.746;  137.630;   68.931;   28.125
709.011;  -54.243; -578.069; -612.876
709.277;  -61.040; -538.069; -543.876
709.542;  -31.663; -428.069; -387.876
709.808;   15.664;  -59.068;   89.123
710.073;  -76.009; -577.068; -695.877
710.339;  -10.732; -242.068; -228.877
710.604;  135.545; -780.068; -845.878
710.869;  487.697; -277.068; -366.878
711.135;  -39.725; -715.067; -628.879
711.400;  -76.123; -507.067; -608.879
711.665;  -46.671; -404.067; -479.879
711.931;  -85.094; -661.067; -677.880
712.196; -101.792; -876.067; -954.880
712.461;  182.110; -402.066; -490.880
712.726;  272.213; -727.066; -771.881
712.991;  -74.885; -647.066; -664.881
713.256;  -37.633; -350.066; -332.882
713.521;  -54.006; -417.065; -381.882
713.787;  -41.529; -454.065; -472.882
714.052;  -12.802; -214.065; -400.883
714.317;  -74.674;-1045.065; -981.883
714.581; 1168.003; -374.065; -268.883
714.846; 1823.905; -822.064; -888.884
715.111;  170.207;  261.936;  257.116
715.376;  -13.366;  -86.064; -223.885
715.641;    4.561; -365.064; -367.885
715.906;  462.064;   15.936; -551.885
716.171;  199.691;  221.937;  209.114
716.436;   73.618;  -78.063; -104.886
716.700;  -88.330; -818.063; -692.886
716.965; -121.053; -794.063; -807.887
717.230;  -65.001; -339.063; -392.887
717.494;  -20.623;  -40.062; -134.888
717.759;  -64.596; -784.062; -640.888
718.024;    0.831;  269.938;  250.112
718.288;   74.458;  685.938;  395.111
718.553; -140.040; -803.062; -977.889
718.817; -134.013; -883.061; -899.889
719.082;  -31.186; -115.061; -125.890
719.346; -132.533;-1000.061; -947.890
719.611;  -44.781; -300.061; -255.891
719.875;  -89.829; -568.060; -537.891
720.140;  -47.802; -453.060; -603.891
720.404;   70.025; -136.060; -249.892
720.668; 1249.177; -475.060; -411.892
720.933;  527.480;  146.940;  137.108
721.197;  -73.393; -667.059; -600.893
721.461; -118.141; -851.059; -826.893
721.725;  -11.764;  -21.059; -250.894
721.990;  -31.837; -284.059; -204.894
722.254;  -23.710;  -26.059; -108.894
722.518;  -75.882; -286.058; -442.895
722.782;  -86.505; -743.058; -594.895
723.046;  132.647;  614.942;  570.105
723.310;   30.199;  374.942;  210.104
723.574;  -86.674; -654.058; -614.896
723.838; -107.322; -576.057; -642.897
724.102;  -46.594; -226.057; -239.897
724.366; -124.692;-1032.057; -978.897
724.630;  -97.315; -749.057; -571.898
724.894;  -63.838; -722.057; -514.898
725.158;   -4.011;   38.944; -295.898
725.422;  -51.509; -394.056; -327.899
725.685;  -56.406; -441.056; -349.899
725.949;  -84.204; -566.056; -519.900
726.213;  -53.002; -732.056; -811.900
726.477;  334.225;-1020.055; -933.900
726.740;  247.577; -274.055; -104.901
727.004;  430.604; -384.055; -510.901
727.268; 4046.031; -442.055; -400.901
727.531; 1313.034; -961.055; -775.902
727.795;  -21.439; -713.054; -673.902
728.059;  -49.137; -552.054; -557.903
728.322;  -57.660; -841.054; -669.903
728.586;  102.417; -692.054; -701.903
728.849;  -60.131; -695.053; -756.904
729.112; -102.028; -812.053; -912.904
729.376; -105.901; -959.053; -905.904
729.639;  -63.574; -536.053; -536.905
729.903;  -96.822; -733.053; -699.905
730.166;  -37.420; -437.052; -399.906
730.429;   -8.268; -317.052; -468.906
730.693;  -52.340; -355.052; -894.906
730.956;  228.712;  810.948;  651.093
731.219; 1004.464; -310.052; -103.907
731.482;  240.066;-1003.051; -894.907
731.745;  240.818; -794.051; -935.908
732.009;   31.645;  -30.051;   50.092
732.272;  -70.602; -904.051; -771.909
732.535;  -24.625; -300.051; -310.909
732.798; -138.123;-1083.050;-1166.909
733.061;  -39.596; -430.050; -456.910
733.324;   22.581;   31.950; -180.910
733.587;   79.808;  290.950;  365.090
733.850;  -41.739; -973.049;-1050.911
734.113;   48.863;   33.951;   32.089
734.376;   46.440; -328.049; -447.912
734.639;  258.167; 1188.951; 1011.088
734.901;  114.819; -180.049; -402.912
735.164;  725.996; -883.048; -837.913
735.427; 2009.549; -166.048; -355.913
735.690;  197.676; -205.048; -234.913
735.952;   36.328; -923.048; -925.914
736.215;   37.730;-1113.048;-1009.914
736.478;  107.282; -771.047; -774.915
736.740;  309.109;   33.953;  129.085
737.003;  894.286; -658.047; -672.915
737.266; 6059.139;  -94.047;   46.084
737.528;  703.866; -682.047; -660.916
737.791;  442.868; -316.046; -327.916
738.053;  940.795;  465.954;  649.083
738.316;12797.097; -162.046; -136.917
738.578;10425.999; -770.046; -736.918
738.841;  617.452; -382.046; -446.918
739.103;  274.229; -875.045; -777.918
739.365;  719.281;   79.955;  -69.919
739.628;   86.083; -884.045; -805.919
739.890;    5.835; -758.045; -710.919
740.152;  -10.288; -692.044; -754.920
740.414;   13.865; -408.044; -359.920
740.677;  -18.758; -785.044; -634.921
740.939;  -13.331; -587.044; -487.921
741.201;  451.771; -432.044; -572.921
741.463;  130.773; -689.043; -745.922
741.725;   35.225;  -21.043; -199.922
741.987;   67.303;  220.957;  116.078
742.249;   74.755; -751.043; -859.923
742.511;  375.257; -703.043; -794.923
742.773;   79.759; -546.042; -546.924
743.035;  153.336;  796.958;  533.076
743.297;   -3.687; -963.042;-1013.924
743.559; 1068.416; -278.042; -262.925
743.821;  179.568; -735.042; -744.925
744.083;   39.370;  -44.041; -149.925
744.345;  -55.753; -869.041; -892.926
744.607;   62.299;   75.959;  122.074
744.868;  -31.949; -490.041; -554.927
745.130;  -82.422; -994.041;-1008.927
745.392;   62.056;   -1.040;  -44.927
745.653;   19.308; -411.040; -378.928
745.915;  167.310;  896.960;  631.072
746.177;   88.587;   35.960;  -43.928
746.438;   35.839; -428.040; -543.929
746.700;    9.716; -947.039; -988.929
746.961;   66.794; -659.039; -740.930
747.223;  215.346; -190.039;  -74.930
747.484;  169.748; -391.039; -471.930
747.746;  222.000;  -23.038; -106.931
748.007;  209.827; -647.038; -689.931
748.269;  443.054; -468.038; -440.931
748.530;  768.057; -852.038; -638.932
748.791;  404.209; -354.038; -420.932
749.053;  617.811;  286.963;  163.067
749.314;  677.188; -236.037; -169.933
749.575;  791.790; -945.037; -905.933
749.836; 1205.842; -217.037;   86.066
750.098; 3142.395;  -60.037;  -21.934
750.359;49699.722;  414.964;  555.066
750.620;14839.399; -121.036; -220.935
750.881; 1513.076; -585.036; -513.935
751.142; 1906.278; -950.036; -938.936
751.403;20937.305; -789.036; -705.936
751.664;10921.308;-1034.035; -999.936
751.925;  725.035; -175.035; -262.937
752.186;  412.312; -298.035; -278.937
752.447;  240.114; -590.035; -445.937
752.708;  117.241; -532.035; -648.938
752.969;   66.368; -566.034; -576.938
753.230;   58.170; -777.034; -672.939
753.491;   50.973; -650.034; -631.939
753.751;  103.225;  109.966;   19.061
754.012;  124.377;  258.967;  181.060
754.273;  103.704; -174.033;  -71.940
754.534;   71.056; -487.033; -580.940
754.794;  -46.642; -926.033; -911.941
755.055;  150.561; 1051.967;  881.059
755.316;   -5.212; -700.032; -566.942
755.576;   16.215; -606.032; -576.942
755.837;  -20.683; -527.032; -695.942
756.097;  -23.231; -530.032; -564.943
756.358;  -47.979; -725.032; -770.943
756.618;  -23.176; -705.031; -641.943
756.879;   49.826; -254.031; -349.944
757.139;  -86.947;-1098.031;-1116.944
757.400;  -38.245; -538.031; -553.945
757.660;    6.407; -365.031; -401.945
757.920;   46.134; -266.030; -228.945
758.181;    8.912; -468.030; -351.946
758.441;  -62.261; -870.030; -809.946
758.701;  -21.284; -308.030; -215.946
758.961;  -10.957; -220.030; -278.947
759.222;  -32.155; -574.029; -502.947
759.482;  -54.653; -683.029; -723.948
759.742;  -74.975; -706.029; -547.948
760.002;   28.377;  -83.029; -143.948
760.262;   33.504;   50.972;  182.051
760.522;  -15.919; -498.028; -574.949
760.782;  -36.667; -738.028; -612.949
761.042;  -18.915; -618.028; -573.950
761.302;   58.488;   55.972;  -18.950
761.562;   59.315; -164.027; -154.951
761.822;  153.567; -710.027; -551.951
762.082;  -12.831;-1104.027;-1093.951
762.342;   71.646; -328.027; -403.952
762.601;   96.073; -567.027; -506.952
762.861;  468.375; -281.026; -207.952
763.121;  408.453; -406.026; -411.953
763.381; 6792.580; -499.026; -485.953
763.640; 8956.807; -139.026; -307.954
763.900;  394.359; -242.026; -203.954
764.160;   91.911; -458.025; -491.954
764.419;    8.538; -726.025; -782.955
764.679;  -57.634; -795.025; -726.955
764.939;   -4.132; -124.025; -210.955
765.198;  -64.780; -608.025; -563.956
765.458;  -67.903; -710.024; -612.956
765.717;  -80.276; -454.024; -590.957
765.976;  -40.924; -428.024; -411.957
766.236;  -62.296; -475.024; -610.957
766.495;   41.431;  260.977;   73.042
766.755;  -63.317;-1090.023; -987.958
767.014;   58.685; -594.023; -665.958
767.273;  -50.213; -373.023; -397.959
767.533;  -28.586; -228.023; -307.959
767.792;  -31.508; -151.022; -188.960
768.051;  -35.581; -228.022; -276.960
768.310;  -62.379; -546.022; -650.960
768.569;   -6.752; -161.022;    4.039
768.828;  -25.375; -285.022; -363.961
769.088;  -85.998;-1050.021; -942.961
769.347;  -79.245; -755.021; -599.962
769.606;  -84.393; -876.021; -857.962
769.865; -105.941;-1016.021;-1033.963
770.124;    9.036; -411.021; -336.963
770.383;  -20.012; -778.020; -910.963
770.641;   16.265; -398.020; -400.964
770.900;  -44.483; -953.020; -846.964
771.159;  -33.305; -851.020; -951.964
771.418;   -0.253; -917.020; -779.965
771.677;  141.174; -224.019; -293.965
771.936;  174.201; -794.019; -865.966
772.194; 2000.278; -465.019; -437.966
772.453;12650.255; -213.019; -391.966
772.712;  950.858;  416.982;  329.033
772.970;  128.560;   32.982;   63.033
773.229;   97.712;  -22.018;  102.033
773.488;  -85.986; -814.018; -770.968
773.746;   51.816;  296.982;  335.032
774.005;   -3.082;  190.983;  -22.969
774.263;    6.096;  243.983;  177.031
774.522;  -41.427; -422.017; -548.969
774.780;  -87.125; -484.017; -417.970
775.039;  -96.923; -551.017; -531.970
775.297;  -17.821; -135.016; -351.970
775.555;  -89.619; -489.016; -612.971
775.814; -109.016; -618.016; -570.971
776.072; -120.639; -749.016; -740.971
776.330; -100.837; -630.016; -520.972
776.589; -104.235; -703.015; -721.972
776.847; -118.533; -645.015; -624.973
777.105; -163.481;-1016.015;-1032.973
777.363;  -81.778; -459.015; -454.973
777.621; -131.001; -660.015; -717.974
777.879;   -6.749;  -42.014;   32.026
778.138;  -97.172; -554.014; -717.974
778.396; -101.870; -585.014; -526.975
778.654; -153.768;-1015.014; -970.975
778.912;  -64.466; -269.014; -371.976
779.170; -121.838; -880.013; -803.976
779.427; -137.311; -922.013; -897.976
779.685; -128.234; -880.013; -832.977
779.943;  -53.382; -654.013; -593.977
780.201; -146.180; -964.012; -883.978
780.459; -104.753; -651.012; -610.978
780.717;  -72.200; -440.012; -390.978
780.974; -103.698; -449.012; -490.979
781.232;  -59.071; -358.012; -338.979
781.490;  -59.894; -551.011; -472.979
781.747;  -97.492; -555.011; -476.980
782.005;   29.585;  462.989;  254.020
782.263; -150.737; -542.011;-1004.981
782.520;  -62.785; -326.011; -501.981
782.778; -152.808;-1013.010;-1051.981
783.035; -138.481; -962.010; -938.982
783.293;  -65.529; -248.010; -206.982
783.550;  -56.652; -134.010; -198.982
783.808; -135.449; -764.010; -776.983
784.065; -162.047; -745.009; -874.983
784.322;  -46.470;   25.991;  -86.984
784.580; -138.118; -915.009; -771.984
784.837;  -95.816; -392.009; -466.984
785.094; -127.814; -783.009; -762.985
785.352;  -69.111; -304.008; -404.985
785.609;  -68.759; -934.008; -839.985
785.866;  -80.007; -345.008; -401.986
786.123;  -47.530; -639.008; -583.986
786.380;  -74.653; -665.008; -604.987
786.637;  -29.226; -225.007; -380.987
786.895;   12.802; -456.007; -543.987
787.152;  -37.346; -135.007; -267.988
787.409;  -34.569; -123.007; -225.988
787.666;  -81.592; -299.006; -378.988
787.923; -109.265; -616.006; -695.989
788.179;  -92.688; -551.006; -584.989
788.436; -109.811; -585.006; -585.990
788.693;  -33.333;  -92.006;  -87.990
788.950;  198.744; -125.005; -112.990
789.207;  424.521; -381.005; -372.991
789.464;  -42.177; -161.005; -301.991
789.720;  -10.300;  150.995;  110.009
789.977; -163.823;-1003.005; -671.992
790.234;  -23.145;   44.996;  -66.992
790.490; -151.618; -884.004;-1031.993
790.747;  -15.766;  -85.004;   22.007
791.004;   12.561; -426.004; -348.993
791.260;  -71.812; -430.004; -560.994
791.517;  -87.235; -843.003; -788.994
791.773;  -23.732; -379.003; -342.994
792.030;  -94.280; -596.003; -660.995
792.286;  -99.428; -686.003; -636.995
792.543;  -19.251;  -74.002; -159.995
792.799;  -53.599; -584.002; -382.996
793.055; -158.222;-1179.002;-1210.996
793.312;  -80.344; -827.002; -816.997
793.568;  -49.342; -746.002; -599.997
793.824;   11.835; -226.001; -284.997
794.081;   30.512; -447.001; -508.998
794.337;   76.789; -664.001; -561.998
794.593; 1168.816; -319.001; -271.999
794.849; 7473.744; -746.001; -772.999
795.105;  454.896; -270.000; -261.999
795.361;   42.773; -490.000; -457.000
795.617;  -43.650; -875.000; -945.000
795.873;  -35.350; -360.000; -407.000
796.129;  -38.775; -368.000; -306.000
796.385;  -19.975; -124.000; -156.000
796.641;   58.650;  412.000;  550.000
796.897;  -75.225; -666.000; -635.000
797.153;   68.625;  453.000;  357.000
797.409;  -93.425; -785.000; -868.000
797.665;  -71.125; -625.000; -732.000
797.921;  -58.275; -775.000; -762.000
798.176;  -30.575; -744.000; -747.000
798.432;  -24.250; -824.000; -596.000
798.688;  -47.900;-1174.000;-1078.000
798.943;  103.375; -165.000; -147.000
799.199;   43.000;-1005.000; -959.000
799.455;  253.075;  369.000;  316.000
799.710;  187.900; -813.000; -380.000
799.966;  373.600; -162.000; -160.000
800.221;  559.225; -638.000; -721.000
800.477;10974.450; -743.000; -710.000
800.732;12307.000; -773.000; -800.000
800.988;  728.075;  205.000;  -19.000
801.243; 1464.100; -454.000; -344.000
801.498; 7778.425; -814.000; -739.000
801.754;  513.050; -289.000; -163.000
802.009;   98.700; -257.000; -335.000
802.264;  -36.050; -967.000;-1033.000
802.520;   31.975;  222.000;   -3.000
802.775;  -43.350; -524.000; -359.000
803.030;   43.350;  395.000;  356.000
803.285; -105.850; -840.000; -903.000
803.540;  -36.525; -686.000; -699.000
803.795;   -9.800; -648.000; -583.000
804.051;  -41.500; -279.000; -346.000
804.306;   36.675;  168.000;  128.000
804.561;  188.125;  451.000;  362.000
804.816;  129.800;  714.000;  861.000
805.071;   15.000; -185.000; -280.000
805.325;  345.625; -257.000; -427.000
805.580;  -76.825; -841.000; -877.000
805.835;   -8.450; -204.000; -297.000
806.090;  -60.525; -760.000; -676.000
806.345;   -7.300; -344.000; -264.000
806.600;    3.925; -549.000; -632.000
806.854;  -14.850; -408.000; -538.000
807.109;   -6.200; -493.000; -577.000
807.364;   12.375; -407.000; -328.000
807.618;   22.075; -415.000; -381.000
807.873;   89.775; -470.000; -494.000
808.128;  147.950; -257.000; -518.000
808.382;  138.450; -224.000; -332.000
808.637;   96.725; -440.000; -511.000
808.891;  227.675; -257.000; -180.000
809.146;  156.150; -902.000; -794.000
809.400;  354.400; -848.000; -923.000
809.654;  429.675; -779.000; -551.000
809.909;  598.200; -841.000; -927.000
810.163; 7158.350; -813.000; -651.000
810.418;23748.400; -940.000; -861.000
810.672; 1416.400; -685.000; -690.000
810.926;  744.300; -993.000; -973.000
811.180; 1258.750; -439.000; -372.000
811.434;26888.400;  240.000;  135.000
811.689;13797.125; -231.000; -365.000
811.943;  723.175; -936.000; -953.000
812.197;  335.850; -893.000; -671.000
812.451;  139.275; -379.000; -514.000
812.705;  -21.525; -809.000; -619.000
812.959;  -16.200; -263.000; -388.000
813.213;   -4.350; -283.000; -209.000
813.467;   70.775;  470.000;  253.000
813.721;  -98.600; -764.000; -792.000
813.975; -104.625; -826.000; -877.000
814.229;   47.075;  430.000;  353.000
814.482;  -56.525; -517.000; -566.000
814.736; -110.375; -766.000; -744.000
814.990; -112.175; -779.000; -872.000
815.244;  -43.125; -228.000; -285.000
815.497;  -84.000; -636.000; -601.000
815.751;  -33.925; -141.000;   82.000
816.005;  -83.525; -470.000; -586.000
816.258;  -67.475; -510.000; -363.000
816.512;  -94.250; -693.000; -610.000
816.766;   -1.575;  121.000;  157.000
817.019;   26.850;  148.000;  149.000
817.273;  -88.950;-1000.000; -802.000
817.526;  -26.975; -206.000; -173.000
817.779;    5.575;-1049.000; -960.000
818.033;  -23.250; -693.000; -807.000
818.286; -123.675; -725.000; -792.000
818.540;  -85.350; -403.000; -403.000
818.793;  -75.600; -402.000; -489.000
819.046; -100.750; -582.000; -520.000
819.299;  -38.225; -157.000; -166.000
819.553; -123.575; -552.000; -592.000
819.806; -141.775;-1016.000; -838.000
820.059;  -63.375; -334.000; -354.000
820.312;   12.275;  152.000;  185.000
820.565;  -13.850;  110.000;  -27.000
820.818;  -50.175;  -59.000; -173.000
821.071; -162.475;-1041.000; -957.000
821.324; -103.025; -536.000; -540.000
821.577; -101.700; -457.000; -483.000
821.830;  -64.150; -270.000; -172.000
822.083; -113.725; -733.000; -288.000
822.336;  -46.725; -261.000; -167.000
822.589; -134.825; -805.000; -688.000
822.842; -126.025; -875.000; -770.000
823.094; -163.600;-1076.000;-1114.000
823.347; -125.950; -925.000; -729.000
823.600;   17.500;  402.000;  187.000
823.853;  -49.875; -311.000; -267.000
824.105;  -66.625; -331.000; -575.000
824.358;  -89.575; -617.000; -716.000
824.611;   36.175;  234.000;   40.000
824.863;  -17.400; -612.000; -591.000
825.116;   79.125;  -33.000;   27.000
825.368;  136.600; -366.000; -372.000
825.621;  241.750; -186.000; -240.000
825.873;  139.175; -704.000; -737.000
826.126;  639.925; -669.000; -641.000
826.378;13867.575; -389.000; -505.000
826.630; 4576.250; -890.000; -898.000
826.883;  119.800; -754.000; -693.000
827.135;   74.625; -279.000; -270.000
827.387;  -76.100; -893.000; -839.000
827.639;  -15.500;  -86.000;   32.000
827.892; -107.300; -742.000; -582.000
828.144; -139.025; -848.000; -804.000
828.396;  -35.675;  104.000;  -80.000
828.648;  -87.425; -440.000; -333.000
828.900; -130.750; -702.000; -795.000
829.152; -105.275; -684.000; -683.000
829.404;  -60.750; -215.000; -267.000
829.656;   -7.925;  321.000;  214.000
829.908;   -7.950;  393.000;  229.000
830.160; -169.850;-1064.000;-1047.000
830.412;  -85.350; -481.000; -430.000
830.664; -105.200; -557.000; -665.000
830.916;  -68.000; -268.000; -206.000
831.167; -178.900;-1073.000; -951.000
831.419; -106.225; -623.000; -566.000
831.671; -137.525; -764.000; -809.000
831.923;  -79.500; -311.000; -447.000
832.174;  -69.925; -273.000; -331.000
832.426;  -97.000; -493.000; -582.000
832.678; -166.950;-1043.000;-1091.000
832.929; -152.275; -947.000; -935.000
833.181;  -39.200; -575.000; -677.000
833.432;  -43.250;  -59.000; -186.000
833.684;  -19.425;  112.000;  -27.000
833.935; -111.450; -610.000; -566.000
834.187; -116.675; -829.000; -823.000
834.438;  -43.200;  -58.000;  -25.000
834.689;  -53.600; -255.000; -123.000
834.941;  -52.400; -343.000; -244.000
835.192;  -81.125; -590.000; -533.000
835.443;  -84.950; -419.000; -506.000
835.695;  -13.650;  138.000;  -16.000
835.946;  -75.550; -608.000; -378.000
836.197;  -93.800; -599.000; -622.000
836.448;  -78.675; -528.000; -395.000
836.699;  -48.000; -253.000; -341.000
836.950;   -2.050;   72.000;    7.000
837.201; -132.875;-1003.000; -987.000
837.452;  -44.675; -356.000; -170.000
837.703;  -91.450; -791.000; -737.000
837.954;  -21.000; -205.000; -365.000
838.205;  -45.350;-1029.000;-1008.000
838.456;  278.725; -196.000; -282.000
838.707;   53.000; -423.000; -519.000
838.958;   60.825; -634.000; -647.000
839.209;  428.850;   18.000;   40.000
839.460;  191.825; -439.000; -201.000
839.710;  224.125; -135.000; -297.000
839.961;  526.300;  730.000;  612.000
840.212;  447.350; -382.000; -497.000
840.462; 1315.800; -328.000; -277.000
840.713;20685.575; -571.000; -536.000
840.964;10893.125;  -62.000; -143.000
841.214;  734.500; -384.000; -624.000
841.465;  763.550; -214.000; -141.000
841.715;  711.300; -417.000; -380.000
841.966;  884.700; -746.000; -685.000
842.216; 9721.800; -330.000; -431.000
842.466;46663.675; -169.000; -313.000
842.717; 3481.550; -964.000; -952.000
842.967;  452.700; -635.000; -641.000
843.217;  405.150;   20.000;   28.000
843.468;  125.900; -104.000; -132.000
843.718;   -0.875; -718.000; -726.000
843.968;  -51.100; -837.000; -765.000
844.218;   51.800; -315.000; -262.000
844.469;  -15.950; -577.000; -561.000
844.719;  -92.275; -537.000; -682.000
844.969;  -77.100; -550.000; -580.000
845.219; -123.600; -814.000; -862.000
845.469;  -68.725; -392.000; -342.000
845.719; -121.825; -792.000; -884.000
845.969;  -16.450;  119.000;  174.000
846.219; -105.675; -738.000; -720.000
846.469;   32.450;  464.000;  432.000
846.718;  -47.200; -115.000;   31.000
846.968; -124.550; -827.000; -827.000
847.218;  -43.375; -224.000; -371.000
847.468;   10.825; -586.000; -555.000
847.718; -138.050; -827.000; -798.000
847.967; -113.400; -826.000; -915.000
848.217;  -73.350; -449.000; -569.000
848.467;  -59.725; -405.000; -376.000
848.716;  -93.775; -708.000; -725.000
848.966;   24.075; -372.000; -358.000
849.215;  -36.375; -428.000; -419.000
849.465;  -80.125; -785.000; -615.000
849.714; -117.300;-1132.000;-1150.000
849.964;  -46.900; -551.000; -613.000
850.213;    6.125; -393.000; -355.000
850.463;   96.375;  137.000;  340.000
850.712;   36.700; -542.000; -567.000
850.961;   67.925; -739.000; -678.000
851.211;  166.275; -513.000; -504.000
851.460;  246.025; -635.000; -650.000
851.709;  660.100;  -25.000;   18.000
851.958;11380.550; -912.000; -750.000
852.208;18071.450; -859.000; -879.000
852.457;  729.000; -181.000;  -13.000
852.706;  146.775; -791.000; -823.000
852.955;   78.400; -507.000; -528.000
853.204;  -49.100; -521.000; -461.000
853.453;  -69.250; -418.000; -458.000
853.702; -110.825; -660.000; -750.000
853.951;  -91.350; -532.000; -520.000
854.200; -109.125; -613.000; -562.000
854.449; -143.250; -695.000; -661.000
854.698; -103.650; -340.000; -279.000
854.946;  -65.125; -181.000; -284.000
855.195; -127.475; -843.000; -868.000
855.444;  -91.800; -395.000; -420.000
855.693; -119.800; -345.000; -432.000
855.941; -101.150; -387.000; -516.000
856.190;  -42.200; -256.000; -382.000
856.439; -111.875; -652.000; -703.000
856.687;  -57.600;  -99.000;  -72.000
856.936; -107.200; -621.000; -323.000
857.184; -179.125;-1067.000;-1020.000
857.433; -108.200; -423.000; -512.000
857.681; -163.975; -989.000; -953.000
857.930;  -63.525; -282.000; -433.000
858.178; -163.575; -856.000; -929.000
858.427; -143.425; -802.000; -781.000
858.675; -106.200; -377.000; -544.000
858.923;  -97.550; -527.000; -819.000
859.172; -172.225;-1094.000;-1070.000
859.420;  -83.225; -339.000; -239.000
859.668; -131.825; -624.000; -628.000
859.916;  -21.550;  109.000;  115.000
860.164; -112.350; -699.000; -603.000
860.413;  445.525; -878.000; -696.000
860.661;  503.925; -709.000; -577.000
860.909;  -54.525; -339.000; -325.000
861.157;  -74.175; -277.000; -444.000
861.405; -117.050; -534.000; -670.000
861.653;    9.500;  310.000;  310.000
861.901;  291.250; -543.000; -613.000
862.149;  105.700; -801.000; -824.000
862.396;  -61.575; -297.000; -187.000
862.644;  -95.800; -368.000; -347.000
862.892;  -35.425;   98.000;  138.000
863.140; -122.325; -549.000; -530.000
863.388; -156.075; -815.000; -759.000
863.635; -135.625; -642.000; -601.000
863.883;  -25.775;  231.000;  190.000
864.131;  -89.075; -288.000; -357.000
864.378; -126.900; -675.000; -540.000
864.626;  -91.950; -347.000; -415.000
864.873; -116.750; -556.000; -505.000
865.121; -141.775; -714.000; -799.000
865.368;  -44.300; -173.000;   75.000
865.616;  -44.475;  -33.000;  -40.000
865.863;  -68.475; -462.000; -506.000
866.111; -104.075; -795.000; -824.000
866.358;   31.800; -426.000; -420.000
866.605; 2150.300;  -64.000; -804.000
866.853; 2853.950; -621.000; -537.000
867.100;    3.125; -728.000; -775.000
867.347;  -83.400; -672.000; -611.000
867.594;  -67.350; -740.000; -714.000
867.841;  144.300;   97.000;   17.000
868.089; -142.300; -746.000; -698.000
868.336; -101.850; -477.000; -420.000
868.583; -135.000; -637.000; -741.000
868.830;  -53.600; -131.000; -170.000
869.077; -157.700; -859.000; -787.000
869.324; -114.775; -502.000; -458.000
869.571; -125.550; -398.000; -430.000
869.818; -118.450; -485.000; -439.000
870.065;  -93.275; -439.000; -513.000
870.311; -103.750; -456.000; -542.000
870.558; -107.875; -332.000; -311.000
870.805;  -81.075; -320.000; -384.000
871.052; -114.775; -494.000; -369.000
871.298;  -41.175; -204.000; -131.000
871.545;  -70.175; -151.000; -185.000
871.792; -105.900; -173.000; -222.000
872.038;  -73.375;   43.000; -126.000
872.285; -115.350; -496.000; -387.000
872.532; -105.475; -357.000; -387.000
872.778;   -1.975;  556.000;  403.000
873.025;  -98.700; -384.000; -359.000
873.271;   -0.950;  501.000;  578.000
873.517;  -17.500; -133.000; -209.000
873.764;   -5.375; -193.000;  -80.000
874.010;  -61.950; -143.000; -230.000
874.257;  -39.675;  123.000;   90.000
874.503; -137.200; -579.000; -479.000
874.749;  -71.800;   31.000;  275.000
874.995;  -72.650;  -80.000;  -20.000
875.242; -123.275; -540.000; -478.000
875.488; -102.250; -414.000; -439.000
875.734;  -47.175; -106.000; -234.000
875.980;  302.725; -872.000;-1032.000
876.226;  686.325; -157.000; -255.000
876.472;   21.225;  343.000;  237.000
876.718;  -40.175;  184.000;  158.000
876.964;  -39.550;   56.000;   55.000
877.210; -137.950; -547.000; -677.000
877.456; -125.550; -630.000; -557.000
877.702; -171.950; -821.000; -832.000
877.948; -104.175; -377.000; -497.000
878.193;  -14.375;  361.000;  255.000
878.439;  -71.950; -487.000; -472.000
878.685;  -93.650; -272.000; -343.000
878.931; -126.275; -618.000; -676.000
879.176;  -87.300; -201.000; -201.000
879.422; -180.100; -933.000; -820.000
879.668;   76.050;   10.000;   79.000
879.913;  246.775;   53.000;  137.000
880.159;  -42.525; -112.000;  -17.000
880.404;  -62.325; -152.000; -162.000
880.650;  -27.100;   91.000;  141.000
880.895; -158.500; -670.000; -710.000
881.141; -121.100; -454.000; -428.000
881.386; -137.250; -503.000; -658.000
881.631;  -79.450; -311.000; -166.000
881.877;  -26.200;  112.000;  -13.000
882.122; -142.725; -684.000; -600.000
882.367;  -79.875; -136.000; -186.000
882.612;  -80.150;  -80.000; -176.000
882.858; -167.275; -877.000; -823.000
883.103;  -93.975; -297.000; -267.000
883.348; -143.775; -759.000; -852.000
883.593; -143.750; -677.000; -602.000
883.838;  -46.250; -311.000;  -24.000
884.083;   38.250;  353.000;  288.000
884.328;  -78.750; -564.000; -545.000
884.573;  -47.975; -196.000; -143.000
884.818;  300.250; -694.000; -531.000
885.063;  377.700; -348.000; -315.000
885.308;  -82.375; -475.000; -398.000
885.553;  -24.650;  245.000;  325.000
885.797; -135.125; -545.000; -615.000
886.042;  -50.050;    8.000;   58.000
886.287;  -89.975; -253.000; -211.000
886.532;  -56.950;   26.000;  204.000
886.776;  -97.250; -407.000; -525.000
887.021; -129.125; -621.000; -574.000
887.265; -153.100; -685.000; -689.000
887.510; -135.800; -557.000; -496.000
887.755;  -87.575; -194.000; -164.000
887.999; -135.825; -552.000; -575.000
888.244;  -58.450;  -58.000;  161.000
888.488;  -27.525;  371.000;  393.000
888.732; -130.575; -368.000; -520.000
888.977; -130.850; -622.000; -567.000
889.221; -146.875; -683.000; -659.000
889.465; -116.150; -422.000; -566.000
889.710;  -87.800;  -56.000; -299.000
889.954;   -1.400;  579.000;  467.000
890.198; -153.050; -584.000; -707.000
890.442; -152.775; -716.000; -712.000
890.687; -161.250; -800.000; -753.000
890.931;  -86.575; -273.000; -210.000
891.175; -136.925; -502.000; -500.000
891.419;  -75.750; -105.000; -110.000
891.663;  -86.025; -239.000; -112.000
891.907; -168.000; -801.000; -545.000
892.151; -168.750; -920.000; -815.000
892.395; -119.525; -274.000; -387.000
892.638;  -35.100;  408.000;  291.000
892.882; -174.775; -780.000; -867.000
893.126;   -8.950;  758.000;  558.000
893.370;  -96.650; -167.000; -168.000
893.614; -149.800; -714.000; -715.000
893.857; -114.075; -183.000; -197.000
894.101; -139.350; -527.000; -631.000
894.345;  -60.475;  300.000;  150.000
894.588;    9.800;  569.000;  380.000
894.832;  -92.750; -178.000;  -84.000
895.075;  -90.450;   15.000;  -92.000
895.319; -124.150; -552.000; -420.000
895.563; -120.000; -413.000; -353.000
895.806; -144.850; -628.000; -741.000
896.049;  -47.900; -576.000; -368.000
896.293;  136.250;  527.000;  405.000
896.536;  -36.450; -465.000; -468.000
896.779;  -56.625; -149.000;   -1.000
897.023; -116.400; -751.000; -714.000
897.266;  -25.800;  325.000;  269.000
897.509; -180.900; -900.000; -901.000
897.752;  -52.225;  149.000;  171.000
897.996; -190.450; -972.000; -864.000
898.239;  -46.000;  168.000;  102.000
898.482; -118.525; -431.000; -453.000
898.725;  -25.075;  101.000;   53.000
898.968; -132.675; -609.000; -744.000
899.211; -106.400; -513.000; -361.000
899.454; -100.850; -633.000; -539.000
899.697;  -78.600;   90.000;  -43.000
899.940; -155.675; -761.000; -757.000
900.182; -102.425; -335.000; -405.000
900.425;  -91.525; -150.000; -298.000
900.668;  -37.425;  491.000;  350.000
900.911; -107.900; -292.000; -345.000
901.154;  -47.325;  141.000;   -3.000
901.396; -140.200; -407.000; -412.000
901.639; -140.325; -430.000; -496.000
901.882; -166.100; -790.000; -809.000
902.124; -102.350;  -29.000; -143.000
902.367; -117.000; -315.000; -361.000
902.609; -125.425; -476.000; -453.000
902.852;  -91.725; -108.000; -260.000
903.094; -114.850; -458.000; -337.000
903.337;  -57.050;  -26.000;   53.000
903.579; -110.675; -228.000; -441.000
903.821; -150.800; -597.000; -744.000
904.064;  -62.550;   85.000;  127.000
904.306;  -84.075; -126.000; -166.000
904.548; -107.900; -152.000; -366.000
904.790; -109.475; -195.000; -340.000
905.033; -104.400; -625.000; -577.000
905.275; -117.725; -513.000; -524.000
905.517;   53.550;  468.000;  256.000
905.759;  -18.825; -667.000; -761.000
906.001;  -83.525; -322.000; -369.000
906.243;  -49.025; -162.000; -224.000
906.485;  185.975; -265.000; -207.000
906.727;  263.075; -499.000; -542.000
906.969;    6.800;  -30.000; -135.000
907.211;  209.775; -316.000; -382.000
907.453;  484.025; -188.000; -237.000
907.695;   97.975; -158.000; -385.000
907.936;   46.900;  818.000;  706.000
908.178;  -63.425;   92.000; -135.000
908.420;  -79.275; -111.000; -162.000
908.662; -118.225; -633.000; -682.000
908.903;  -79.525; -208.000; -123.000
909.145;  -66.750; -240.000; -305.000
909.386;    1.675;  315.000;  280.000
909.628;   34.100;  363.000;  397.000
909.870;   -1.975;   29.000;  264.000
910.111;  -87.675; -809.000; -949.000
910.353;   14.150; -123.000; -161.000
910.594;    5.375; -574.000; -606.000
910.835;   79.550; -265.000; -326.000
911.077;  163.425; -503.000; -604.000
911.318;  305.775; -505.000; -471.000
911.559;  475.875; -577.000; -880.000
911.801; 1279.625; -284.000; -280.000
912.042; 9385.100;  -50.000; -159.000
912.283;28806.650;  404.000;  371.000
912.524; 5620.500; -396.000; -457.000
912.765;  570.475; -193.000;   79.000
913.006;  249.675; -307.000; -338.000
913.247;   80.900; -270.000; -290.000
913.488;   -3.550;  -43.000;   30.000
913.729;  -85.425; -373.000; -373.000
913.970;  -48.775;  -96.000; -292.000
914.211;  -70.775; -160.000; -198.000
914.452;  -64.975; -118.000;  -11.000
914.693;   10.525;  510.000;  592.000
914.934;   18.675;  510.000;  440.000
915.175;  -60.750;   53.000;  -95.000
915.415;  -70.150; -137.000;   27.000
915.656;  -48.075;  -28.000;  192.000
915.897;  -98.650; -252.000;  -82.000
916.137;  -55.350;   74.000;   -9.000
916.378; -119.325; -573.000; -517.000
916.619;  -79.075; -159.000;  -63.000
916.859;  -35.675;  303.000;  330.000
917.100;  127.925; 1655.000; 1070.000
917.340;   46.925;  930.000;  728.000
917.581;   47.050;  965.000;  789.000
917.821;    6.075; -171.000;  143.000
918.061;   64.850; -199.000;  -72.000
918.302;  -40.725; -152.000; -211.000
918.542;  -25.325;  -22.000;    3.000
918.782;   52.125;  369.000;  377.000
919.023;  157.375;  360.000;  427.000
919.263; 1877.125; 8131.000;  202.000
919.503; 1684.350; -137.000;  -54.000
919.743;  906.850;  390.000;  266.000
919.983;  492.725; -134.000;  -26.000
920.223;  111.300;  135.000;   14.000
920.463;  177.900;  631.000;  554.000
920.703;  173.675;   84.000;   39.000
920.943;  209.475; -110.000;   90.000
921.183;  285.000; -414.000; -405.000
921.423;  558.625;  307.000;  546.000
921.663;  850.750; -174.000; -257.000
921.903; 1746.450;  237.000;  173.000
922.143; 9065.075;  372.000;  389.000
922.383;37761.425;  158.000;  115.000
922.622;16192.150; -120.000;  -15.000
922.862; 1680.950;  796.000;  785.000
923.102;  564.650;  -51.000;   33.000
923.341;  271.250;   59.000;   74.000
923.581;  132.725;  450.000;  360.000
923.821;   16.725;  301.000;  398.000
924.060;   26.375;  351.000;  193.000
924.300;  -46.975;  -16.000; -128.000
924.539;   -3.900;  584.000;  473.000
924.779;    7.300;  812.000;  597.000
925.018;  -38.575;  247.000;  353.000
925.257;    3.875;  595.000;  666.000
925.497;  -41.750;  447.000;  412.000
925.736;  -79.775;  -35.000;  102.000
925.975;    2.000;  687.000;  669.000
926.214;   35.450;  907.000;  850.000
926.454;   24.900;  706.000;  757.000
926.693;  -38.275;  419.000;  543.000
926.932;   41.125; 1021.000;  825.000
927.171;   65.325; 1107.000; 1044.000
927.410;   46.250; 1144.000;  967.000
927.649;   27.800;  924.000;  742.000
927.888;   -9.050;  590.000;  564.000
928.127;    4.600;  680.000;  678.000
928.366;   40.575;  842.000;  826.000
928.605;   47.975;  831.000;  737.000
928.844;  259.175; 1451.000; 1393.000
929.083;  787.900;  770.000;  613.000
929.321;  475.975; 1335.000; 1359.000
929.560;   99.075; 1158.000; 1122.000
929.799;  -18.325;  574.000;  475.000
930.038;   97.550; 1025.000; 1394.000
930.276;  -45.500;  334.000;  397.000
930.515;   -1.850;  827.000;  681.000
930.753;  -23.700;  614.000;  589.000
930.992;  -15.525;  664.000;  717.000
931.230;    0.125;  847.000;  847.000
931.469;  165.575; 2162.000;  892.000
931.707;   66.025;  840.000;  751.000
931.946;   52.600; 1278.000; 1344.000
932.184;   64.425; 1437.000; 1175.000
932.423;   64.250; 1265.000;  963.000
932.661;  100.175; 1296.000; 1428.000
932.899;   55.300;  987.000;  821.000
933.137;   13.975;  754.000;  564.000
933.376;  165.175; 1664.000; 1335.000
933.614;  172.675; 1759.000; 1196.000
933.852;   59.500; 1357.000; 1171.000
934.090;  142.425; 1722.000; 1747.000
934.328;  114.950; 1252.000; 1457.000
934.566;   92.650; 1431.000; 1110.000
934.804;  142.475; 1263.000; 1309.000
935.042;  466.475; 1861.000; 1850.000
935.280; 1858.050; 2088.000; 2063.000
935.518; 2087.925; 2113.000; 2007.000
935.756;  446.800; 2481.000; 2316.000
935.994;  194.950; 1808.000; 1751.000
936.231;  357.200; 2890.000; 2950.000
936.469;  205.575; 2367.000; 2378.000
936.707;  159.000; 2220.000; 2167.000
936.945;  233.450; 2825.000; 2882.000
937.182;  207.400; 2679.000; 2741.000
937.420;  321.700; 3602.000; 3031.000
937.657;  457.550; 3365.000; 3478.000
937.895;  409.475; 3331.000; 3488.000
938.133;  308.900; 3540.000; 3528.000
938.370;  334.625; 3896.000; 4191.000
938.607;  394.025; 4488.000; 4205.000
938.845;  532.225; 5587.000; 5549.000
939.082;  475.300; 5387.000; 5177.000
939.320;  529.700; 5799.000; 5728.000
939.557;  628.750; 6549.000; 6491.000
939.794;  721.900; 7285.000; 7097.000
940.031;  916.475; 8421.000; 8368.000
940.269; 1159.825; 9552.000; 9107.000
940.506; 1145.675;10901.000;10507.000

