
Integration time [ms]: 100.000
Averaging Nr. [scans]: 40
Smoothing Nr. [pixels]: 0
Data measured with spectrometer [name]: 2101013U2
Wave   ;Sample   ;Dark     ;Reference
[nm]   ;[counts] ;[counts] ;[counts] 

394.013;   49.915; -450.257; -315.536
394.305;  178.313; -461.258; -419.536
394.596; 1092.110; -676.269; -527.514
394.887; 2762.577; -796.268; -654.518
395.178; 1079.532;  145.736;   11.476
395.470;   70.268; -210.263; -356.526
395.761;  176.741;  305.734;  394.479
396.052;  224.259; -545.284; -306.489
396.343;  241.129; -557.276; -454.503
396.634;   88.198; -200.279; -290.497
396.926;   98.374; -618.268; -565.517
397.217;   94.409;   11.725;  -17.504
397.508;   21.700; -366.273; -154.507
397.799;   22.098; -555.279; -571.497
398.090;   -8.283; -973.280; -902.495
398.381;   96.484;   11.708;  -11.473
398.672;  -10.565; -585.292; -742.473
398.963;   35.154; -348.279; -373.498
399.254;  101.794;   54.709; -209.475
399.545;  -44.637;-1017.266; -883.520
399.836;   57.993; -407.277; -343.501
400.127;   54.260; -205.295; -209.468
400.418;   50.244; -423.274; -392.506
400.709;   46.279; -359.281; -333.493
401.000;   34.673; -268.291; -309.476
401.290;  104.722;  225.698;  115.545
401.581;   62.717; -166.286; -228.485
401.872;   11.807; -542.298; -486.462
402.163;   52.953; -313.296; -252.467
402.454;   87.470; -123.291; -163.475
402.744;   60.819; -844.297; -813.465
403.035;  404.025; -226.293;  -86.471
403.326;  512.663; -366.292; -384.474
403.617;  365.627;  204.701;  165.539
403.907;  244.015; -593.283; -679.490
404.198; 2440.001; -545.307; -599.446
404.489; 6316.770; -618.283; -588.491
404.779; 2066.525; -618.302; -660.456
405.070;  223.929;  -67.304; -174.451
405.360;  323.927; -259.293; -238.472
405.651;  370.112;  125.699;   98.542
405.942;  174.712;  209.714;  127.516
406.232;  229.977; -432.285; -413.487
406.523;  413.895;  641.706;  758.530
406.813;   82.390; -579.286; -644.484
407.104;  303.283;  261.708;  144.527
407.394;  147.503; -604.299; -591.462
407.685;  147.951;  336.715;  222.513
407.975;   68.394; -400.283; -382.490
408.265;  108.485; -134.289; -190.478
408.556;   73.017; -472.291; -459.475
408.846;  166.446;  474.706;  429.530
409.137;   92.068;   -1.288; -216.480
409.427;   56.377; -193.285; -271.487
409.717;   29.353; -776.273; -692.508
410.007;  130.345;    4.715; -170.486
410.298;   90.813; -360.295; -342.469
410.588;   57.599; -495.285; -510.486
410.878;   28.529; -792.287; -873.482
411.168;   97.285; -481.298; -478.463
411.459;  134.313; -295.283; -242.489
411.749;   46.016; -609.292; -507.474
412.039;   61.741; -755.289; -386.480
412.329;  198.711;   40.722;  132.501
412.619;  209.265;  -62.286; -148.485
412.909;  362.312;  639.711;  594.521
413.199;  304.118; -130.280; -251.495
413.490;  397.653;  521.710;  352.523
413.780;  137.897;-1013.279; -913.496
414.070;  307.455;  -46.276;  235.497
414.360;  354.932; -729.278; -666.498
414.650;  402.350; -726.288; -688.482
414.940;  524.171; -538.280; -441.496
415.230;  926.247;   50.712;   74.519
415.520; 6121.359;  155.730;   66.486
415.809;24132.554; -305.281; -125.493
416.099;18827.096; -388.277; -229.501
416.389; 5262.067;  435.726;  236.494
416.679; 3101.822;   91.738;   85.473
416.969;  528.009; -527.287; -503.483
417.259;  595.948;  341.721;  171.503
417.549;  696.553;  522.718;  318.508
417.838; 1691.851; -205.268; -147.518
418.128; 5557.558;  650.710;  492.522
418.418; 4714.134; -491.272; -579.509
418.708; 3157.917;    9.726;  -48.506
418.997;11760.638; -474.275; -480.505
419.287;12406.999; -733.273; -790.507
419.577;11827.388; -160.283; -123.489
419.866;38748.119; -588.277; -498.501
420.156;39660.880; -242.270;  -55.513
420.446; 7135.664; -112.263;  -26.526
420.735;  833.649; -376.271; -446.512
421.025;  825.807; 1830.722;  315.502
421.314;  621.372; -203.271; -226.512
421.604; 1244.469;   89.732;  233.484
421.893;  722.618; -705.271; -602.511
422.183;  223.865; -487.263; -461.526
422.472;  372.270;  -36.271; -107.511
422.762;  415.944; -416.266; -379.521
423.051;  236.081; -916.276; -916.503
423.341;  289.476; -491.273; -439.507
423.630;  407.950; -121.265;   15.477
423.919;  374.412;   58.725;   49.495
424.209;  357.470;  -31.263;   56.473
424.498;  484.423;   68.732;  161.483
424.787; 1092.555; -535.267; -601.518
425.077; 3328.574;   34.735;   29.478
425.366; 4540.301; -734.262; -744.528
425.655; 9926.102;  639.727;  259.493
425.945;22389.230; -313.247; -268.554
426.234;12438.199;  117.741;  300.467
426.523; 5114.479;  -86.259; -350.534
426.812; 7008.990;  107.734;  159.480
427.101;10338.815; -127.269; -323.515
427.390;13009.809;  -55.270;  -86.514
427.680; 2792.373; -624.257; -411.538
427.969;  460.984; -330.255; -301.540
428.258;  303.590; -385.257; -477.536
428.547;  489.914;  449.728;  397.490
428.836; 1131.900; -421.253; -398.543
429.125; 1603.131; -199.259;  -72.534
429.414;  772.073; -330.251; -294.548
429.703; 3190.698; -231.251; -213.548
429.992; 9482.752; -938.250; -828.549
430.281; 6233.882; -397.264; -331.524
430.570;  568.589;  -21.252;   32.454
430.859;  522.103;  279.741;  352.466
431.148;  424.101;  636.752;  631.446
431.437;  263.488;  391.748;  367.454
431.725;  151.617; -544.257; -481.536
432.014;  122.058; -845.253; -756.545
432.303;  366.552; -149.239; -105.569
432.592;  556.089; -460.263; -178.525
432.881; 1063.527; -601.248; -437.554
433.169; 6352.860; -343.255;  -61.540
433.458;12891.336;  445.765;  540.424
433.747; 5394.556; -397.261; -289.529
434.036;  850.378; -275.242; -280.564
434.324; 2060.389; -395.249; -379.551
434.613; 3694.196;   40.757;  159.437
434.902; 1214.592;  333.760;  439.433
435.190;  478.800;   75.761;  295.431
435.479;  275.278;  -52.245;   83.441
435.767;   94.086; -411.244; -427.561
436.056;  195.923; -340.242; -294.563
436.345;  371.394; -372.240; -223.568
436.633;  371.259;   60.750;  383.450
436.922;  255.546;  208.760;  414.432
437.210;  476.175; -194.236;    1.426
437.499; 1559.859; -583.235; -432.576
437.787; 1752.550; -339.236;  -10.574
438.075;  447.356;   56.761;  162.430
438.364;  599.984;  -44.238;  250.429
438.652;  367.463; -286.226; -138.592
438.941;  122.077;    3.770;  269.415
439.229;   -3.739; -665.252; -466.545
439.517;   28.817; -160.234;  -85.577
439.806;  -12.171; -501.225; -290.595
440.094;  185.625;  377.766;  650.421
440.382;  142.553; -653.233; -302.580
440.670;  175.633; -361.235; -285.576
440.959;   15.972; -347.223; -170.599
441.247;   56.914; -151.229; -109.587
441.535;   95.015; -266.235;   31.423
441.823;   20.322; -497.234; -305.578
442.111;  173.168;  173.771;  327.412
442.400;  430.477; -628.245; -335.559
442.688; 1159.374; -111.234; -620.579
442.976;  836.784; -786.213; -450.617
443.264;   77.736; -324.224; -364.597
443.552;   87.540; -258.226;   51.408
443.840;  156.964;  602.765;  876.423
444.128;  103.453;  265.767;  269.420
444.416;  -11.004; -694.228; -312.588
444.704;   20.151; -465.219;  -92.605
444.992;   67.642;   -0.226;  240.407
445.280;   25.203; -517.230;  -94.585
445.568;   35.088; -694.212; -396.618
445.856;  289.560; -174.221;  357.398
446.143;  626.873;  -54.220;   -7.604
446.431;  554.474;  -25.228;  625.411
446.719;  235.271;  489.783;  675.391
447.007;  179.247;  481.769;  705.416
447.295;  195.444;  597.777;  871.402
447.583;   77.037; -464.229;  -34.587
447.870;  125.932; -434.221; -202.601
448.158;  365.902; -104.230;  129.415
448.446;  263.224; -800.219; -338.604
448.733;  165.112;   13.776;  269.403
449.021;  252.238;   60.788;  341.382
449.309;  184.903; -296.210;  208.379
449.596;  214.367;  128.783;   59.392
449.884;  152.176; -571.222; -325.600
450.172;  144.030; -756.227; -406.590
450.459;  455.343;  645.786;  780.387
450.747; 2481.415; -411.218; -147.608
451.034; 7810.576;  493.772;  889.411
451.322; 6472.946; -413.214; -170.614
451.609;  557.639;  292.777;  508.403
451.897;  596.691; -550.203; -183.634
452.184; 1825.594; -622.223; -400.598
452.472; 1714.949;   97.792;  269.375
452.759;  333.724;  512.781;  864.395
453.047;  107.610; -407.212; -125.617
453.334;   60.382; -732.219; -216.606
453.621;   53.048; -438.214; -161.615
453.909;  103.858;   13.796;  384.368
454.196;   98.303; -299.199; -123.641
454.483;  188.829;  317.798;  540.364
454.771;  117.877; -215.208;  196.374
455.058;   36.055; -316.207;  102.374
455.345;  106.383;   71.807;  344.347
455.632;   69.559; -128.207;  235.373
455.919;   48.926;  -82.196;  182.354
456.207;  -65.842; -774.198; -450.642
456.494;  -12.684; -475.200;  -66.639
456.781;   16.199; -399.202; -198.635
457.068;   46.540; -253.206;  -29.628
457.355;  -14.234; -698.206; -401.629
457.642;   -6.653; -552.205; -290.630
457.929;  -16.601; -778.194; -417.651
458.216;   59.785; -575.212; -354.617
458.503;  239.954; -173.193;  -19.652
458.790;  236.950; -864.208; -630.625
459.077;  259.029;  -77.202;  110.364
459.364;  819.317; -350.195; -210.649
459.651; 1709.188;  -46.206;  220.372
459.938;  795.340; -864.209; -665.623
460.225;  132.332;  132.799;  276.363
460.512;  -45.127; -836.197; -688.645
460.799;   96.039;  -32.218;  320.392
461.086;   72.695; -370.200; -251.640
461.372;   30.558; -509.198; -279.642
461.659;  101.302; -165.196;  108.354
461.946;   33.503; -445.193;  -54.651
462.233;  237.368;  842.800;  888.361
462.519;  337.890; -814.201; -464.639
462.806; 1001.873; -768.197; -497.645
463.093;  895.123; -445.191;  -66.656
463.380;   -8.035; -920.186; -824.664
463.666;   41.400; -259.197;  -18.646
463.953;  100.912; -406.195; -243.648
464.239;  195.462; -173.195;  -77.648
464.526;  392.073;  413.806;  743.350
464.813;  314.010; -565.190; -304.658
465.099;  338.779;  606.807;  607.348
465.386;  308.433;  903.807;  921.348
465.672;   28.648; -694.197; -522.645
465.959;    1.103; -598.188; -520.662
466.245;   10.233; -468.193; -359.652
466.532;   67.135; -109.195;   63.352
466.818;   46.714; -357.186; -216.664
467.104;   -5.746; -488.182; -415.672
467.391;  -27.463; -628.189; -459.658
467.677;   19.643; -289.186;    9.335
467.964;    1.068; -682.189; -471.660
468.250;   58.196; -331.186; -160.665
468.536;   82.363;   90.811;  180.341
468.822;  -42.768; -821.184; -574.668
469.109;  133.485;  351.827;  471.311
469.395;  192.367;  729.808;  787.346
469.681;  192.991;   46.811;  156.341
469.967; 1264.846; -699.188; -382.660
470.254; 2758.029; -494.188; -306.662
470.540; 1759.225; -601.196; -476.646
470.826;  238.266; -488.181; -397.675
471.112;  304.211;  288.816;  113.331
471.398;   87.991; -253.183;  -58.670
471.684;   28.219; -626.177; -447.680
471.970;   -0.331; -918.180; -981.675
472.256;    9.716; -521.192; -441.654
472.542;   12.696; -499.171; -434.691
472.828;    3.400; -743.182; -607.672
473.114;   40.890; -380.166; -283.700
473.400;   -2.340; -504.175; -293.684
473.686;   24.096; -452.166; -400.701
473.972;   42.375; -230.174; -131.687
474.258;  -57.290; -925.173; -843.689
474.544;  208.336; -183.178;   -2.679
474.830;  328.112;  -65.175;   45.316
475.116;  515.836; -123.190; -196.658
475.401;  674.097; -558.180; -467.676
475.687;  196.471; -725.180; -718.676
475.973;  -10.342; -673.181; -770.673
476.259;  232.639;  736.825;  764.315
476.544;  373.077; -539.176; -437.682
476.830;  846.967; -398.172; -322.690
477.116;  759.901; -430.177; -336.682
477.401;  153.096;  346.820;  358.324
477.687;    0.761; -289.175; -405.684
477.973;   36.212;   21.819;   28.326
478.258;  -16.309; -448.163; -348.706
478.544;   31.701;   21.815;   61.334
478.829;  -58.723; -818.171; -738.692
479.115;  -62.583; -749.172; -651.690
479.401;  -15.129; -444.174; -449.686
479.686;   38.595; -253.180;  -74.676
479.972;  -28.659; -886.178; -776.680
480.257;   22.716; -258.166;  -65.700
480.542;    1.981; -614.170; -469.693
480.828;  237.484; 1288.824; 1392.317
481.113;  -21.093; -464.176; -426.683
481.399;  -13.810; -236.161; -202.711
481.684;  -51.984; -620.166; -462.700
481.969;   18.129; -158.159;  -73.713
482.255;   -3.384; -439.169; -285.695
482.540;   -7.784; -569.178; -441.680
482.825;   20.485; -395.187; -404.663
483.110;   74.720;  -85.169; -105.696
483.396;  195.400; -840.157; -652.718
483.681;  510.300;  543.826;  730.313
483.966;  171.773; -696.160; -700.712
484.251;  -11.051; -404.174; -310.687
484.536;    7.201; -356.165; -378.703
484.822;   14.527; -205.173; -218.687
485.107;  -33.362; -599.152; -502.726
485.392;  122.732;  662.836;  541.296
485.677;   78.704;  354.832;  163.302
485.962;   97.998;  160.843;  270.283
486.247;   91.099;  -14.162;   -8.707
486.532;   39.442; -178.166; -325.701
486.817;  168.385;  381.839;  431.291
487.102;   98.246; -453.154; -514.722
487.387;  703.352; -637.156; -652.718
487.672; 1194.312; -154.164;  -38.705
487.957;  762.992; -394.160; -286.711
488.241;  202.230; -290.150; -314.729
488.526;  778.965; -280.152; -148.726
488.811; 1234.468; -881.177; -818.680
489.096;  926.249; -666.154; -702.723
489.381;  491.486;    3.847;  162.275
489.666;  396.540; -428.161; -510.710
489.950;  172.977;  558.846;  627.277
490.235;  -34.750; -480.151; -458.728
490.520;  -61.536; -756.161; -723.710
490.804;  -75.596; -827.156; -736.719
491.089;   -3.454; -469.149; -299.732
491.374;   36.911; -132.164;  -75.704
491.658;  -22.893; -817.147; -717.735
491.943;  159.844; -657.152; -609.727
492.227;  214.617; -178.155;  -38.721
492.512;   59.572; -294.157; -341.717
492.797;  -70.010; -713.149; -716.731
493.081;  -55.065; -588.147; -598.735
493.366;  -41.509; -751.161; -635.711
493.650;  204.338;  831.859;  917.254
493.935;   18.782; -648.147; -447.734
494.219;  -31.000; -778.142; -687.743
494.503;  -42.915; -585.150; -487.730
494.788;   63.614;   46.842;   74.285
495.072;   89.781;  184.850;  434.271
495.356;  170.749; -463.148; -343.733
495.641;  443.567; -812.146; -736.736
495.925;  400.209; -976.156; -903.719
496.209;   21.245; -599.149; -451.732
496.494;  -45.349; -763.142; -544.744
496.778;   -7.903; -364.154; -360.722
497.062;  -56.016; -819.156; -627.719
497.346;  -42.256; -869.160; -640.711
497.631;  154.528;  580.852;  560.266
497.915;   66.177;  -64.145;  175.261
498.199;   52.800; -341.157; -277.718
498.483;   24.613; -562.152; -508.725
498.767;  195.333;  301.850;  300.271
499.051;  190.193; -126.149; -100.732
499.335;   18.941; -693.149; -739.731
499.619;  -30.411; -381.129; -423.767
499.903;   13.966; -272.155;  -65.721
500.187;   17.829; -588.153; -316.724
500.471;   13.368; -796.152; -595.727
500.755;   90.739;   62.839;  -96.710
501.039;   11.116; -270.155; -357.721
501.323;   73.340;  -21.141;  264.254
501.607;   26.517; -447.163; -503.706
501.891;  -11.598; -607.156; -512.718
502.174;  -45.187; -726.144; -585.741
502.458;   76.297;   89.849;  370.273
502.742;   40.139; -180.138; -191.751
503.026;   86.706; -412.147; -254.734
503.310;  190.853; -437.159; -375.713
503.593;  111.233; -464.147; -325.735
503.877;  117.354; -232.133; -156.760
504.161;  157.381;    2.847;  -50.724
504.444;  113.441; -841.158; -710.716
504.728;  476.210; -487.164; -522.704
505.012;  731.179; -257.150;  -76.729
505.295;  533.390; -417.161; -212.711
505.579;  561.683; -256.156; -496.719
505.862;  761.273; -555.145; -333.738
506.146;  761.530; -681.159; -758.714
506.429;  409.756;  568.841;  461.286
506.713;   63.902; -732.151; -667.728
506.996;  334.146;   90.846;  295.278
507.280;  345.105; -633.165; -474.703
507.563;  243.090; -469.155; -261.721
507.847;  111.404; -423.153; -112.724
508.130;   82.916; -665.161; -456.711
508.413;  119.987; -758.167; -577.700
508.697;  241.237; -151.167;   12.300
508.980;  150.681; -422.153; -312.724
509.263;   -9.764; -466.155; -450.720
509.547;   30.904; -124.150;   82.271
509.830;   36.093; -172.160;  140.289
510.113;   89.308;  128.844;  298.281
510.396;   19.712; -530.152; -300.725
510.680;  136.575; -818.145; -812.738
510.963;  527.800;  184.846;  180.277
511.246;  451.162; -493.150; -357.730
511.529;  234.080; -482.145;  -83.739
511.812;  386.876; -250.134;   10.241
512.095;  261.299; -740.151; -396.728
512.378;   71.487; -317.147; -245.736
512.661;   27.271; -703.137; -623.753
512.944;   41.578; -750.142; -637.744
513.227;   58.244; -170.137; -171.752
513.510;   14.938; -479.144; -671.741
513.793;   15.969; -485.140; -435.747
514.076;  123.185;  -43.127;  -39.771
514.359;  102.996; -294.149; -135.732
514.642;   89.455; -442.142; -567.744
514.925;  792.693;  581.860;  561.253
515.208; 1051.622; -498.134; -443.758
515.491;  681.211; -276.133; -182.761
515.773;  413.467; -410.143; -337.742
516.056; 2177.353;  249.864;  409.246
516.339; 2896.282; -754.136; -652.755
516.622; 1835.735; -518.150; -488.730
516.904; 1091.249;  882.857;  975.257
517.187;  492.142; -730.138; -523.752
517.470;  397.073; -568.143; -510.743
517.752;  446.835; -624.136; -470.756
518.035;  362.130; -708.139; -725.749
518.318;  385.532; -799.136; -744.755
518.600; 2557.914; -300.132; -325.762
518.883; 3462.555;  310.858;   88.256
519.165; 1695.535; -585.138; -426.751
519.448;  379.739;  -61.132;  -19.762
519.730;  182.318; -573.126; -415.773
520.013;  306.282;  588.867;  664.240
520.295;  711.777;  -94.134;  -15.759
520.578; 1553.927; -335.131; -305.764
520.860; 1823.689; -254.132;   56.238
521.143;  967.562; -763.135; -584.756
521.425;  478.756; -251.125; -279.775
521.707;  697.986; -622.127; -380.771
521.990; 1870.836; -199.127;  167.229
522.272; 2112.296; -116.140;   -4.748
522.554;  936.593; -237.143; -157.742
522.836;  327.925;  -24.134;   99.241
523.119;  198.005; -496.148; -189.734
523.401;  141.059; -448.130; -314.766
523.683;   85.522; -865.137; -693.753
523.965;  283.890;  408.862;  260.248
524.247;  286.877;   54.878;  170.220
524.529;  202.602; -451.134; -367.759
524.812;  362.361;   -3.130;  191.234
525.094;  892.915; -773.138; -631.751
525.376; 1422.640; -143.124;   78.223
525.658;  850.654; -441.136; -339.754
525.940;   34.124; -805.131; -671.764
526.222;   12.633; -188.136;  -88.755
526.504;  105.947; -190.131;   32.237
526.786;  155.705; -960.133; -647.760
527.068;  275.770; -124.123;  -67.778
527.349;   99.976; -865.137; -774.754
527.631;  143.314; -137.132;   22.238
527.913;  144.710; -664.127; -450.771
528.195;  192.549; -761.125; -639.774
528.477;  243.272;  -93.134;  -30.758
528.759;  151.711; -648.130; -522.766
529.040;   70.444; -569.123; -293.778
529.322;   58.026; -235.125;  -10.774
529.604;  124.638;  -47.130;   93.233
529.886;  117.417; -546.126; -302.773
530.167;  109.930;  232.870;  192.235
530.449;   39.711;    1.853;   63.265
530.731;   19.601; -572.122; -459.779
531.012;   73.947; -513.120; -216.784
531.294;   79.286; -118.116;  -43.792
531.575;  159.356;  290.875;  538.225
531.857;   43.042; -548.135; -266.757
532.138;   96.214; -113.141;   40.254
532.420;  161.388;  294.865;  403.244
532.701;  192.182; -722.133; -751.760
532.983;  301.010;  232.867;  182.239
533.264;   96.815; -243.126;  175.228
533.546;  -38.643; -491.136; -508.755
533.827;   40.829;  173.867;   -1.759
534.109;   26.467; -352.135;  -80.757
534.390;   88.918; -725.132; -582.762
534.671;  242.863; -270.135;  -82.756
534.953;  141.897; -751.123; -611.779
535.234;   18.221; -426.117; -255.789
535.515;  -92.520; -891.119; -735.785
535.796;  -23.269; -431.128; -193.770
536.078; -121.886;-1050.124; -904.777
536.359;   -2.503;  -22.123;    3.221
536.640;  -26.875; -480.125; -197.774
536.921;  140.193;  225.871;  143.232
537.202;  376.162;  -87.138;  -16.751
537.483;  470.877;  251.869;  377.236
537.764;  181.630;   17.870;   98.235
538.045;  -49.579; -543.134; -371.758
538.326;  -28.780; -596.129; -447.768
538.607;   11.886; -686.127; -476.771
538.888;  171.163;   98.879;    5.218
539.169;  162.282; -704.122; -535.781
539.450;  347.417;  236.871;   16.233
539.731;  211.217; -361.121; -182.783
540.012;  124.972;  199.880;  412.216
540.293;   87.959;   82.876;  158.224
540.574;   -7.319; -895.113; -717.796
540.855;  436.065;  435.879;  377.218
541.136;  540.705;   47.878;  139.220
541.416;  276.661; -161.130; -220.766
541.697;  222.572; -274.131; -170.763
541.978; 1064.965; -270.135; -315.757
542.259; 1364.836; -211.127; -236.771
542.539;  659.405; -191.116; -186.790
542.820;  207.730;  461.875;  480.225
543.101;  108.777;  -52.145;  -77.738
543.381;   29.836; -638.127; -591.771
543.662;  257.059;  159.873; -254.771
543.942;  605.232; -751.127; -830.770
544.223; 1080.781;  193.878;  161.219
544.504;  702.989; -275.124; -182.777
544.784;  588.492; -592.126; -408.773
545.065; 1683.458;  104.884; -254.791
545.345; 1994.830;  227.881;   14.215
545.626; 1341.606;  -14.113; -108.796
545.906;  932.729;   77.869;   98.235
546.186;  382.372;   92.874;  -95.773
546.467;  183.192;   99.877;  -95.778
546.747;  345.979;  264.884;  327.210
547.027;  381.038;   91.876;  111.223
547.308;  334.756; -376.127; -530.770
547.588;  393.571;  299.871;  371.232
547.868;  224.155;  458.870;  588.235
548.149;  211.791;  609.885;  593.207
548.429;  138.284; -347.127; -299.771
548.709;  212.221; -645.120; -461.784
548.989;  508.440;   84.882;   88.213
549.269; 2208.163;   10.868;  139.239
549.550; 5031.446;  215.877;  117.222
549.830; 4531.249; -758.111; -556.799
550.110;  906.131; -468.110; -320.801
550.390;  862.251; -128.122;  -56.779
550.670; 1177.851; -868.114; -783.795
550.950;  832.015; -509.121; -471.782
551.230;  211.661;  549.879;  460.218
551.510;   -7.936; -381.121; -326.782
551.790;   45.639; -173.109; -127.803
552.070;  266.692;  940.877; 1181.223
552.350;  415.609; -492.119; -377.786
552.630;  624.834;   -2.121;   77.219
552.909;  377.559;  181.884;   73.209
553.189;  227.869;  -49.132;   33.237
553.469;  194.609; -703.119; -514.786
553.749;  177.763; -469.127; -357.772
554.029;  168.900;   33.883;  -24.790
554.308;  143.345; -154.115;  -37.794
554.588;   75.430; -196.128; -204.770
554.868;   75.641; -366.121;  -47.782
555.147;  154.867; -114.115;  -46.793
555.427;  625.936; -260.116; -250.792
555.707; 4067.590; -284.115; -200.793
555.986; 4913.502; -719.111; -538.800
556.266; 2601.653;   23.884;   72.210
556.546;  111.614; -888.121; -675.782
556.825;  265.724; -657.114; -556.794
557.105; 1868.128; -125.128;   17.230
557.384; 2196.283;  122.884;  187.209
557.664;  835.585; -717.116; -508.792
557.943;  137.765; -557.121; -411.782
558.222;  177.093; -345.118; -344.788
558.502;  269.318; -116.115;  -76.793
558.781;  501.514;  194.885;  499.208
559.061;  442.418; -232.118; -227.788
559.340;  293.872;  302.883;  353.211
559.619;  747.378;   93.884;  148.210
559.899; 1072.399; -239.117; -266.789
560.178;  999.493; -778.115; -593.793
560.457; 3273.451; -623.117; -562.790
560.736; 4566.303; -472.111; -482.800
561.015; 3044.575; -500.128; -502.769
561.295;  399.384;  180.893;  215.193
561.574;  335.216;  119.885;  116.207
561.853;  507.443;  274.891;  303.197
562.132;  509.771;  -45.114;  182.206
562.411;  462.859;  396.879;  553.219
562.690;  133.139; -592.115; -458.792
562.969;  148.713;  472.888;  630.203
563.248;  486.532; 2966.878; 2487.219
563.527;  285.752; -290.111; -408.800
563.806;  402.884; -650.127; -521.771
564.085;  437.299; -297.105; -206.810
564.364;  238.727; -594.117; -405.790
564.643;  533.460; -276.121; -223.781
564.922; 1956.462;  221.890;  397.198
565.201; 1983.766; -640.109; -700.803
565.479;  870.887; -297.115; -219.792
565.758;  333.503; -810.128; -712.770
566.037;  483.042; -155.109; -100.803
566.316;  252.183; -286.116;  -28.791
566.595;   43.990;  -17.115;  -12.793
566.873;   90.679; -166.111;  -79.801
567.152;  -59.513; -490.113; -590.797
567.431;   26.029; -113.116;    6.210
567.709;    9.834; -344.107; -212.807
567.988;  275.249; -810.114; -769.794
568.266;  528.865; -160.115;  -68.793
568.545;  418.321; -644.100; -514.819
568.824;  607.562;  160.885;  356.208
569.102;  565.674; -351.114; -235.794
569.381;  232.186; -492.116; -407.792
569.659;  -27.416; -553.113; -553.796
569.938;   27.805; -743.122; -465.780
570.216;  110.919; -225.109; -225.804
570.494;  -35.098; -632.114; -572.795
570.773;   32.763;  202.879;  114.218
571.051;    9.194; -373.123; -357.778
571.330;   62.731; -221.113; -174.796
571.608;   32.589; -181.098; -173.823
571.886;  -48.328; -671.111; -581.799
572.164;  -58.709; -739.121; -621.782
572.443;  -32.722; -562.105; -512.811
572.721;  -34.524; -399.117; -289.790
572.999;  -15.980; -280.117; -168.788
573.277;   81.621;  379.894;  620.191
573.555;  311.623;   94.894;   37.190
573.834; 1392.419;  -86.117; -114.788
574.112; 1648.736;  880.893;  811.193
574.390;  491.528; -143.111;  -96.801
574.668;   11.138;  -91.112;  -61.797
574.946;  -12.477; -165.106; -187.810
575.224;   15.641;   71.891;  -16.803
575.502;  -20.394; -200.116; -204.791
575.780;  -82.736; -767.112; -829.798
576.058;  215.503; 1589.889; 1004.200
576.336;  -21.992; -210.110; -129.801
576.614;  -61.485; -511.112; -340.798
576.891;   56.595; -711.115; -823.794
577.169;  501.927; -158.108; -285.805
577.447;  588.836;  169.893;  202.193
577.725;  274.619;  629.888;  854.201
578.003;    9.892;  -71.112; -371.798
578.280;   89.536; -208.104; -242.812
578.558;   62.393; -450.115; -422.793
578.836;  126.177; -210.114; -145.795
579.114;   47.563; -630.112; -670.797
579.391;   62.196;   -6.117;  -18.789
579.669;  -72.255; -595.114; -704.794
579.947;  173.582; -326.107; -127.806
580.224;  362.182; -692.107; -524.806
580.502;  323.586;  127.893;   76.193
580.779;   23.352;  -42.117;   75.210
581.057;  -71.505; -584.109; -470.804
581.334;  -93.099; -726.102; -695.815
581.612;   26.049;   54.895;  511.190
581.889;  -16.185;  -83.101; -129.818
582.167;  -39.121; -298.099; -190.821
582.444;  -98.791; -845.102; -814.817
582.721;   84.785;  657.899;  715.183
582.999;   49.301; -326.100; -167.821
583.276;  540.399; -812.123; -713.779
583.553;  749.880; -364.102; -294.816
583.831;  239.058; -607.104; -631.812
584.108;   61.350;  349.892;  174.195
584.385;   15.001; -122.102;  -98.815
584.662;  -64.470; -651.111; -828.801
584.940;   29.704;  204.889;  204.199
585.217;  -11.192;  -73.113; -303.796
585.494;   18.688;   71.890;  118.198
585.771;  205.821; -250.109; -354.804
586.048;  496.758; -196.113;  -76.796
586.325;  317.382; -721.110; -773.801
586.602;   84.737;  230.896;  213.188
586.879;   -9.827; -499.100; -580.820
587.156;   47.675; -156.105; -331.810
587.433;  -38.318; -701.102; -667.817
587.710;   66.490;  152.888;  234.202
587.987;  320.630; -264.105; -236.811
588.264;  777.042;  315.888;  387.202
588.541; 1375.514;  -61.104;   26.187
588.818; 2762.448;   72.892;  171.196
589.095; 2363.510; -163.104; -174.812
589.371;  391.793; -459.109; -414.804
589.648;   11.661; -581.107; -437.807
589.925;   19.578; -517.114; -621.795
590.202;   20.490; -741.112; -607.798
590.478;  106.382; -166.105;  -73.811
590.755;  291.579; -241.108; -132.806
591.032; 2592.734; -741.110; -699.802
591.308; 3547.979; -732.094; -790.831
591.585; 1859.159; -573.110; -560.802
591.862;  151.209;-1056.102; -950.817
592.138;   66.526; -475.108; -474.805
592.415;  152.288; -486.104; -495.813
592.691; 1494.235;  460.896;  518.188
592.968; 1922.991; -208.098; -123.824
593.244;  902.204; -695.116; -595.790
593.521;   75.034; -105.102;  -42.817
593.797;  -19.773; -810.122; -720.780
594.074;  348.053; -611.096; -588.826
594.350;  679.939;  828.905;  729.172
594.626;  316.180; -303.111; -283.801
594.903;  107.485; -643.101; -645.817
595.179;  194.191;  243.896;  418.187
595.455;   11.912; -136.107; -150.807
595.731;    4.743;  -19.103;  -38.814
596.008;  -42.901; -464.111; -434.800
596.284;   34.800; -187.100; -242.820
596.560;   49.510; -501.093; -493.833
596.836;  212.377; -173.105;  -70.810
597.112;  349.652; -582.108; -437.805
597.388;  304.751;  -49.097;  -48.826
597.665;  108.936;  437.887;  530.203
597.941;  -59.986; -572.089; -658.839
598.217;   10.438; -323.110; -293.802
598.493;  270.972;   61.891; -204.804
598.769;  526.844; -175.100;  -50.819
599.045;  308.830; -490.108; -562.806
599.321;   49.374; -193.100; -261.820
599.597;  150.721; -355.109; -476.804
599.872;  488.214;  409.896;  429.187
600.148;  394.477;  -61.097; -172.826
600.424;  305.885;   91.893;  202.193
600.700;  239.562; -170.107; -280.807
600.976;  124.097; -442.097; -464.825
601.252;  250.368; -226.109; -272.803
601.527;  219.065; -833.104; -840.813
601.803;  158.007; -453.105; -404.812
602.079;  180.069; -124.100; -118.819
602.354;  577.220; -620.092; -531.835
602.630;  840.008; -140.113; -482.796
602.906; 2416.390; -910.101; -863.818
603.181; 6923.859; -627.119; -534.786
603.457; 5912.275;   98.903; -278.826
603.733;  863.992; -605.120; -626.783
604.008; 1009.074; -245.106; -164.810
604.284; 3099.586; -636.101; -580.817
604.559; 2734.119;   -3.112;  -42.799
604.835;  481.727; -163.105; -225.810
605.110;  441.054; -732.099; -892.821
605.385;  700.138;  224.907;  267.167
605.661;  672.567; -625.095; -729.829
605.936; 1201.780; -664.108; -737.806
606.211; 1032.875;  -17.103; -170.815
606.487;  209.722; -329.114; -376.794
606.762;   25.534; -791.119; -745.786
607.037;  -31.523; -501.105; -433.810
607.313;  -41.290; -589.096; -574.828
607.588;  -12.627; -375.106; -137.810
607.863;   59.289;  -28.101; -143.818
608.138;  188.386;  513.890;  516.198
608.413;   40.133; -576.099; -592.822
608.688;   40.202; -203.108; -267.805
608.964;  206.493; -509.106; -218.809
609.239;  256.324; -107.105; -212.810
609.514;  280.407;  281.895;  240.188
609.789;  675.237; -187.104; -716.812
610.064;  891.859; -435.096; -609.827
610.339;  926.668; -855.109; -799.804
610.614; 1236.224; -131.100; -315.820
610.889;  681.307;  215.895;  107.188
611.163;   44.433; -407.104; -591.812
611.438;   82.274;   81.886; -167.794
611.713;   12.561; -467.101; -499.817
611.988;   44.638; -144.101; -328.818
612.263;   -0.774; -771.102; -717.815
612.538;  225.058;  385.887;  251.204
612.812;  180.676; -832.100; -911.820
613.087;  133.388; -358.098; -338.823
613.362;  -38.463; -497.107; -557.807
613.637;   39.046;  261.897;  138.186
613.911;  -12.129; -256.092; -345.835
614.186;  120.886; -249.107; -292.807
614.460;  724.139; -842.081; -758.854
614.735;  793.538;  -55.087;  -17.843
615.010;  166.103;   43.912;  -82.841
615.284;  250.176;  360.892;  246.195
615.559;  385.219; -792.092; -955.835
615.833;  318.681;  -76.099;  -87.822
616.108;   13.406; -225.090; -390.837
616.382;  124.714;  274.913;  402.156
616.656;  165.307; -241.090; -232.837
616.931;  506.632; -785.099; -700.822
617.205; 1109.516; -973.104; -979.813
617.480;  985.603;  -91.125;    6.225
617.754;  179.426; -396.125; -128.774
618.028;    4.622; -369.129; -382.768
618.302;   73.750;   73.892;  -25.805
618.577;  -50.128; -371.103; -518.815
618.851;  -58.685; -399.109; -600.803
619.125;  -56.073; -335.134; -378.759
619.399;  -28.834; -244.104; -374.813
619.673;  -56.388; -330.115; -515.792
619.947;  -47.473; -333.114; -448.795
620.222;  -27.994; -198.110; -204.801
620.496;   -3.410;  -47.121;  -96.782
620.770;    0.432; -187.122;  -93.781
621.044;  242.875;  323.895;  346.190
621.318;  754.643; -653.120; -614.783
621.592;  687.366; -430.121; -409.783
621.866;  378.770; -476.112; -572.799
622.140;   34.756; -207.116; -356.791
622.413;   44.399;  138.889;  112.200
622.687;  -44.139; -746.101; -492.817
622.961;    7.625; -130.108; -143.805
623.235;  -59.175; -633.111; -661.800
623.509; -108.093; -816.105; -848.811
623.783;   23.783;  -12.107;   48.193
624.056;  -11.706; -254.120; -280.783
624.330;   53.663;   63.888;   -3.797
624.604;   51.252; -271.116; -355.790
624.877;   66.810;  180.890;   26.198
625.151;   40.471; -249.114; -238.794
625.425;  -29.957; -150.103; -283.814
625.698;  -78.772; -367.119; -374.785
625.972; -112.637; -799.110; -765.802
626.245;   68.254;  685.884;  484.210
626.519;  -41.827; -426.120; -340.784
626.792;  -29.188; -192.107; -380.807
627.066;  -97.150; -485.122; -662.779
627.339; -113.291; -736.110; -663.802
627.613;   48.072;  351.880;  148.216
627.886;   39.265;  187.891; -612.803
628.160;   -5.432;  312.880; -161.783
628.433;  -99.919; -695.125; -703.775
628.706;  -80.152; -517.120; -615.784
628.979;   28.388;  296.876;  117.223
629.253;  -91.417; -785.119; -833.786
629.526;  376.491; -334.126; -253.772
629.799;  368.470; -641.123; -479.778
630.072;  173.798; -497.128; -516.769
630.346;  -52.046;-1115.116;-1080.790
630.619;  456.088; -467.107; -545.808
630.892;  631.751;  709.889;  593.200
631.165;  326.441;  790.896;  679.187
631.438;  -76.858;-1092.112;-1055.798
631.711;   46.798;  453.877;  257.221
631.984;  -61.175; -523.117; -624.789
632.257;  -67.429; -636.117; -681.789
632.530;  -36.246; -412.119; -433.785
632.803;   23.544; -109.115;    7.207
633.076;  -70.934; -360.123; -422.777
633.349;    8.152;  173.872;  121.231
633.622;  -45.322; -187.119; -240.785
633.895; -130.781; -903.120; -823.783
634.167;  -58.107; -496.126; -525.773
634.440;  -18.589;  -19.116; -137.792
634.713;  -11.468;  -22.119; -120.786
634.986;   78.892;  593.871;  453.233
635.258;  -75.008; -507.115; -597.793
635.531;   83.942;  742.882; -343.788
635.804;  -31.702; -303.117; -318.789
636.077;  -93.493; -830.116; -852.791
636.349;   -5.334; -586.115; -474.793
636.622;  386.240; 1695.874; 1392.228
636.894;  243.598; -474.120; -909.784
637.167;  145.134; -836.127; -789.771
637.439;   32.080; -278.128; -213.770
637.712;  -64.083; -312.126; -293.772
637.984;  -85.268; -635.116; -707.791
638.257;  374.767;  515.877;  488.222
638.529;  579.582; -881.125; -924.776
638.802;  240.848; -508.128; -449.769
639.074; -115.169; -927.122; -952.781
639.346; -129.731; -942.135; -930.757
639.619;   12.129;  -79.142; -319.744
639.891;   -8.075;  -83.122; -168.779
640.163;  -71.648; -689.122; -756.780
640.435;   26.654;  273.878;  103.220
640.708;   -0.220;  -72.122; -132.780
640.980;  -22.818; -366.122; -362.781
641.252;  203.659;  -25.121;  -71.781
641.524; 1798.461;  580.879;  573.219
641.796; 1832.038;-1094.121; -907.782
642.068;  321.389; -191.121; -300.782
642.340;  -53.809; -486.121; -566.783
642.613;   32.643;  294.880;  323.217
642.885;  -79.830; -787.120; -878.783
643.157;  -55.653; -810.120; -658.784
643.428;   59.999;  170.880;  218.216
643.700;  -78.600; -498.120; -425.784
643.972;  -39.048;  -16.119; -133.785
644.244; -101.721; -474.119; -559.785
644.516;  -47.894; -250.119; -114.786
644.788;   52.208;  662.881;  548.214
645.060;  -24.090;  -12.119; -124.786
645.332; -105.889; -525.118; -535.787
645.603;   40.963;  479.882;  342.213
645.875;  -86.710; -334.118; -369.787
646.147;  176.092; 1487.882; 1242.212
646.418;  -62.156; -931.117; -918.788
646.690;  163.621; -714.117; -715.789
646.962;   37.022; -413.117; -451.789
647.233;   -9.776;   15.883;   11.211
647.505; -116.774; -595.117; -475.790
647.776;   26.078;  328.884;  229.210
648.048;  -11.270; -248.116; -418.790
648.320;  -63.944; -752.116; -679.791
648.591; -165.992;-1055.116; -958.791
648.862;  -78.990; -505.116; -577.792
649.134;   30.162;  115.885;  198.208
649.405;  -29.711; -661.115; -618.792
649.677;  -74.609; -475.115; -598.793
649.948;  -11.108; -181.115; -296.793
650.219;   -4.456;  -37.115; -147.793
650.491;  -78.554; -431.114; -520.794
650.762; -117.577; -705.114; -731.794
651.033;  -92.475; -437.114; -424.795
651.304; -105.023; -743.114; -728.795
651.576;  -70.697; -680.114; -645.795
651.847;  -51.245; -250.113; -140.796
652.118;  -14.418;  -32.113; -189.796
652.389; -119.741; -639.113; -722.796
652.660;  -41.014; -147.113;  -89.797
652.931; -143.887; -897.112; -871.797
653.202;  -92.311; -382.112; -541.798
653.473;  -74.009; -633.112; -533.798
653.744;  176.318; -595.112; -590.798
654.015;  145.445; -356.112; -303.799
654.286;  -78.503; -642.111; -663.799
654.557;  -60.327; -586.111; -521.799
654.828; -154.250;-1114.111;-1088.800
655.099;  -89.198; -404.111; -291.800
655.370;  -88.146; -427.111; -543.801
655.641; -112.569; -656.110; -714.801
655.911; -108.842; -618.110; -638.801
656.182;   39.359;  437.890;  387.198
656.453;   87.636;  830.890;  746.198
656.724;  -88.212; -466.110; -426.802
656.994;  -82.785; -553.109; -568.803
657.265; -106.208; -862.109; -873.803
657.536;  -75.881; -500.109; -377.804
657.806; -111.105; -561.109; -593.804
658.077; -134.603; -866.109; -950.804
658.347;  -85.326; -523.108; -598.805
658.618; -118.424; -646.108; -694.805
658.888;  -23.247;  -41.108;  112.195
659.159;  -80.521; -432.108; -548.806
659.429;  -24.469; -292.108; -349.806
659.700;   22.908; -435.107; -390.807
659.970;  -15.415; -370.107; -359.807
660.241;   25.162; -754.107; -921.807
660.511;  497.189; -147.107; -174.808
660.781;   90.265; -793.106; -748.808
661.052;  -55.208; -222.106; -381.808
661.322;  -22.456;   21.894;   -9.809
661.592;   12.671;  257.894;  148.191
661.862;  -64.877; -369.106; -382.810
662.133; -102.300; -551.105; -502.810
662.403; -116.274; -770.105; -676.810
662.673;  -68.222; -256.105; -213.811
662.943; -111.270; -612.105; -551.811
663.213;   -2.643;  -85.105;  -81.811
663.483;  -76.341; -593.104; -568.812
663.753;  -53.714; -194.104; -152.812
664.023;  -17.363;   68.896;  -32.813
664.293;  -88.436; -319.104; -126.813
664.563; -106.984; -694.104; -648.813
664.833; -128.582; -743.103; -608.814
665.103; -119.205; -730.103; -793.814
665.373; -119.679; -766.103; -806.814
665.643;  -64.752; -863.103; -918.815
665.913;   16.825; -534.103; -714.815
666.182;  153.177; -685.102; -719.816
666.452;  258.654;  -22.102;  -89.816
666.722;  -23.819; -724.102; -784.816
666.992; -135.543; -948.102; -921.817
667.261;  -94.441; -824.102; -808.817
667.531;  210.586;  134.899;   45.183
667.801;  532.088; -440.101; -412.818
668.070;  238.290;  714.899;  697.182
668.340; -108.633; -883.101; -840.819
668.609;   79.643;  588.900;  301.181
668.879;  -86.655; -490.100; -558.819
669.149;  -68.478; -539.100; -516.820
669.418;  -99.951; -698.100; -726.820
669.688;  -25.549; -482.100; -666.820
669.957;   78.353; -423.099; -546.821
670.226;  -35.546; -268.099; -331.821
670.496;  -89.194; -431.099; -635.822
670.765;  -91.717; -418.099; -501.822
671.034; -131.690; -872.099; -828.822
671.304;  -18.988;   55.902; -111.823
671.573; -142.237;-1085.098; -957.823
671.842;   82.940; -380.098; -294.823
672.112;   31.542; -692.098; -586.824
672.381;  -11.631; -239.098; -214.824
672.650; -137.504;-1005.097;-1021.825
672.919;  -97.302; -631.097; -507.825
673.188;  -82.351; -681.097; -878.825
673.457; -168.074;-1101.097;-1143.826
673.726;  -73.022; -579.096; -646.826
673.995;  -42.895; -533.096; -479.826
674.265;  -21.218; -263.096; -333.827
674.534;   -0.666; -183.096; -235.827
674.802;   15.860; -618.096; -703.828
675.071; 1049.187; -886.095; -801.828
675.340; 4011.314; -464.095; -339.828
675.609; 1338.091;  103.905;   82.171
675.878;   92.093; -949.095; -893.829
676.147;   27.544;  -26.095;   -8.829
676.416;  106.621; -210.094; -294.830
676.685;  745.923; 1000.906; -622.830
676.953;  113.525; -603.094; -452.831
677.222;  -47.248; -193.094; -273.831
677.491;  -15.946;  -24.094; -127.831
677.759;  -15.170;   11.907;  172.168
678.028;    1.907; -279.093; -222.832
678.297;  -24.991;   71.907;  197.168
678.565; -150.914; -898.093; -944.833
678.834;  -69.687; -311.093; -268.833
679.102;  -77.785; -411.092; -391.834
679.371; -165.009; -898.092; -727.834
679.639; -136.732; -797.092; -786.834
679.908; -122.230; -794.092; -724.835
680.176; -161.703; -895.091; -941.835
680.445;  -82.826; -346.091; -352.835
680.713;  -17.899;  -58.091;  -23.836
680.982;  -99.673; -523.091; -525.836
681.250; -112.921; -578.091; -507.837
681.518; -108.794; -534.090; -751.837
681.787;  -10.692; -204.090; -167.837
682.055;  -70.890; -490.090; -422.838
682.323; -150.614; -993.090; -992.838
682.591;   28.013; -216.090; -538.838
682.859;   92.040;    9.911;  -35.839
683.128;   10.617;  232.911;  497.161
683.396; -171.206;-1102.089;-1122.840
683.664;  -46.404; -241.089;   21.160
683.932;   -7.278;  144.911;  -76.840
684.200;  -89.301; -576.088; -320.841
684.468;  -25.074;  -73.088; -124.841
684.736;  -35.247; -214.088; -175.841
685.004; -108.570;-1024.088; -982.842
685.272;  -57.043; -880.088; -774.842
685.540;  -60.767; -499.087; -557.843
685.808;  -78.490; -651.087; -682.843
686.076;  -91.713; -894.087; -969.843
686.343;  -58.586; -601.087; -815.844
686.611;   39.716; -195.087; -224.844
686.879;  480.542; -530.086; -553.844
687.147; 3386.044; -483.086; -480.845
687.414;  949.771;  -12.086; -169.845
687.682;    3.423; -658.086; -757.846
687.950;  305.550;  259.915;  263.154
688.217;   21.027; -792.085; -760.846
688.485;   -4.122; -632.085; -636.847
688.753;  561.830;  -11.085; -102.847
689.020;  162.807; -820.085; -851.847
689.288;  -87.916; -853.084; -787.848
689.555;  -35.664; -195.084; -148.848
689.823;  -40.087; -241.084; -345.849
690.090;  -95.461; -546.084; -651.849
690.358; -135.009; -877.084; -897.849
690.625;   -3.632;  120.917;   45.150
690.892;  -78.955; -403.083; -369.850
691.160;  -33.678;   72.917;  -35.850
691.427;    6.149;  141.917;  130.149
691.694; -137.325; -855.083; -929.851
691.962; -136.348;-1177.082;-1060.852
692.229;   10.029;  127.918;   56.148
692.496;   79.631;  130.918;  -49.852
692.763;    3.258; -164.082; -201.853
693.031;  -69.741; -739.082; -716.853
693.298;  -48.739; -509.081; -368.853
693.565;  331.413; -155.081; -163.854
693.832; 1290.415;   -5.081;   -9.854
694.099;  141.692; -643.081; -642.855
694.366;  -68.181; -882.081; -896.855
694.633;  -52.430; -920.080; -633.855
694.900;  754.547; 4367.920; -114.856
695.167;  424.199; -214.080; -380.856
695.434;   94.376; -646.080; -623.856
695.701;  194.053;  121.921;  -61.857
695.968;  478.630; -365.079; -361.857
696.234; 1004.606; -415.079; -646.858
696.501;10234.233; -776.079; -614.858
696.768; 5202.960; -554.079; -617.858
697.035;  308.612; -632.078; -667.859
697.302;   29.139; -448.078; -552.859
697.568;   -3.434; -458.078; -497.859
697.835;  -44.608; -683.078; -624.860
698.102;  -34.331; -498.078; -407.860
698.368;   76.721;  384.923;  396.139
698.635;  -42.552;  -47.077; -424.861
698.901;  -20.300; -240.077; -348.861
699.168;   70.026; -534.077; -456.862
699.435;   75.928;  -72.077;  -13.862
699.701; -121.395; -868.076; -764.862
699.968;   13.307;  144.924; -441.863
700.234; -107.291; -783.076; -822.863
700.500;  -40.314; -448.076; -539.864
700.767;  -19.538;   -1.075;   26.136
701.033; -139.586;-1015.075; -963.864
701.299;  -58.534; -450.075; -483.865
701.566;  107.393;  950.925;  763.135
701.832;   18.295;  -31.075;  -76.865
702.098;  -96.728;-1054.074;-1034.866
702.365;  -99.352;-1098.074;-1030.866
702.631;  -29.225;-1038.074;-1063.867
702.897; 1408.877; -765.074; -676.867
703.163; 2246.804;  348.926;  254.133
703.429;  156.331; -256.073; -273.868
703.695;  -22.418; -796.073; -792.868
703.961;    9.309; -214.073; -210.868
704.227;  -64.739; -630.073; -725.869
704.493;  134.138;  613.927;  510.131
704.759;  -28.960; -565.072; -540.870
705.025;   26.992; -203.072; -194.870
705.291;  -19.607; -666.072; -562.870
705.557;  184.095;  719.928;   34.129
705.823;   41.847; -742.072; -694.871
706.089;  139.224; -307.071; -326.871
706.355;  356.351; -315.071; -244.872
706.620; 5429.853; -776.071; -729.872
706.886; 7666.379; -309.071; -362.873
707.152;  711.381; -818.070; -973.873
707.418;  -33.792;-1153.070;-1186.873
707.683;  -19.115; -550.070; -530.874
707.949;  -40.913; -547.070; -578.874
708.215;    0.764; -129.070; -207.874
708.480;  -30.235; -520.069; -420.875
708.746;   96.017;   68.931;   28.125
709.011;  -50.906; -578.069; -612.876
709.277;  -90.029; -538.069; -543.876
709.542;  -58.652; -428.069; -387.876
709.808;   -8.076;  -59.068;   89.123
710.073;  -84.474; -577.068; -695.877
710.339;  -38.322; -242.068; -228.877
710.604;   73.530; -780.068; -845.878
710.869;  313.957; -277.068; -366.878
711.135;  -64.991; -715.067; -628.879
711.400;  -85.865; -507.067; -608.879
711.665;  -77.988; -404.067; -479.879
711.931; -102.736; -661.067; -677.880
712.196; -119.484; -876.067; -954.880
712.461;  106.993; -402.066; -490.880
712.726;  141.470; -727.066; -771.881
712.991; -107.329; -647.066; -664.881
713.256;  -48.877; -350.066; -332.882
713.521;  -75.650; -417.065; -381.882
713.787;  -67.323; -454.065; -472.882
714.052;  -39.546; -214.065; -400.883
714.317;  -93.844;-1045.065; -981.883
714.581; 1011.532; -374.065; -268.883
714.846; 1353.159; -822.064; -888.884
715.111;  137.061;  261.936;  257.116
715.376;  -30.587;  -86.064; -223.885
715.641;  -26.910; -365.064; -367.885
715.906;  297.041;   15.936; -551.885
716.171;  131.443;  221.937;  209.114
716.436;   46.145;  -78.063; -104.886
716.700; -116.653; -818.063; -692.886
716.965; -130.776; -794.063; -807.887
717.230;  -72.624; -339.063; -392.887
717.494;  -19.398;  -40.062; -134.888
717.759; -108.371; -784.062; -640.888
718.024;    4.381;  269.938;  250.112
718.288;   65.058;  685.938;  395.111
718.553; -160.990; -803.062; -977.889
718.817; -152.063; -883.061; -899.889
719.082;  -35.362; -115.061; -125.890
719.346; -145.535;-1000.061; -947.890
719.611;  -29.183; -300.061; -255.891
719.875; -103.781; -568.060; -537.891
720.140;  -59.129; -453.060; -603.891
720.404;   40.347; -136.060; -249.892
720.668;  891.874; -475.060; -411.892
720.933;  327.851;  146.940;  137.108
721.197; -107.897; -667.059; -600.893
721.461; -145.270; -851.059; -826.893
721.725;  -17.893;  -21.059; -250.894
721.990;  -65.917; -284.059; -204.894
722.254;  -32.115;  -26.059; -108.894
722.518;  -85.238; -286.058; -442.895
722.782;  -83.636; -743.058; -594.895
723.046;  118.341;  614.942;  570.105
723.310;   15.693;  374.942;  210.104
723.574; -106.981; -654.058; -614.896
723.838;  -98.304; -576.057; -642.897
724.102;  -53.077; -226.057; -239.897
724.366; -135.525;-1032.057; -978.897
724.630; -115.973; -749.057; -571.898
724.894;  -78.121; -722.057; -514.898
725.158;  -22.270;   38.944; -295.898
725.422;  -47.668; -394.056; -327.899
725.685;  -81.191; -441.056; -349.899
725.949;  -74.039; -566.056; -519.900
726.213;  -87.237; -732.056; -811.900
726.477;  179.814;-1020.055; -933.900
726.740;  135.616; -274.055; -104.901
727.004;  354.068; -384.055; -510.901
727.268; 3273.695; -442.055; -400.901
727.531;  877.172; -961.055; -775.902
727.795;  -57.526; -713.054; -673.902
728.059;  -67.925; -552.054; -557.903
728.322;  -80.398; -841.054; -669.903
728.586;   29.804; -692.054; -701.903
728.849;  -82.994; -695.053; -756.904
729.112; -108.942; -812.053; -912.904
729.376; -149.490; -959.053; -905.904
729.639;  -70.014; -536.053; -536.905
729.903; -127.512; -733.053; -699.905
730.166;  -43.610; -437.052; -399.906
730.429;  -38.208; -317.052; -468.906
730.693;  -76.656; -355.052; -894.906
730.956;  217.020;  810.948;  651.093
731.219;  729.297; -310.052; -103.907
731.482;  126.099;-1003.051; -894.907
731.745;  103.926; -794.051; -935.908
732.009;   19.753;  -30.051;   50.092
732.272;  -95.795; -904.051; -771.909
732.535;  -56.419; -300.051; -310.909
732.798; -149.792;-1083.050;-1166.909
733.061;  -69.990; -430.050; -456.910
733.324;   14.012;   31.950; -180.910
733.587;   53.089;  290.950;  365.090
733.850;  -65.759; -973.049;-1050.911
734.113;   25.767;   33.951;   32.089
734.376;    8.094; -328.049; -447.912
734.639;  214.371; 1188.951; 1011.088
734.901;   67.473; -180.049; -402.912
735.164;  517.100; -883.048; -837.913
735.427; 1323.102; -166.048; -355.913
735.690;  122.928; -205.048; -234.913
735.952;  -31.995; -923.048; -925.914
736.215;  -35.493;-1113.048;-1009.914
736.478;   32.734; -771.047; -774.915
736.740;  208.886;   33.953;  129.085
737.003;  726.687; -658.047; -672.915
737.266; 4109.714;  -94.047;   46.084
737.528;  442.391; -682.047; -660.916
737.791;  318.668; -316.046; -327.916
738.053;  837.845;  465.954;  649.083
738.316;10958.272; -162.046; -136.917
738.578; 7437.198; -770.046; -736.918
738.841;  418.375; -382.046; -446.918
739.103;  189.577; -875.045; -777.918
739.365;  507.254;   79.955;  -69.919
739.628;   11.231; -884.045; -805.919
739.890;  -25.717; -758.045; -710.919
740.152;  -40.691; -692.044; -754.920
740.414;  -16.039; -408.044; -359.920
740.677;  -49.137; -785.044; -634.921
740.939;  -50.260; -587.044; -487.921
741.201;  271.192; -432.044; -572.921
741.463;   25.694; -689.043; -745.922
741.725;   21.670;  -21.043; -199.922
741.987;   56.347;  220.957;  116.078
742.249;   10.224; -751.043; -859.923
742.511;  215.326; -703.043; -794.923
742.773;   27.953; -546.042; -546.924
743.035;  127.029;  796.958;  533.076
743.297;  -35.569; -963.042;-1013.924
743.559;  765.483; -278.042; -262.925
743.821;   50.760; -735.042; -744.925
744.083;    1.837;  -44.041; -149.925
744.345;  -81.836; -869.041; -892.926
744.607;   36.340;   75.959;  122.074
744.868;  -46.858; -490.041; -554.927
745.130; -117.481; -994.041;-1008.927
745.392;   37.296;   -1.040;  -44.927
745.653;  -13.077; -411.040; -378.928
745.915;  154.200;  896.960;  631.072
746.177;   50.701;   35.960;  -43.928
746.438;   10.528; -428.040; -543.929
746.700;  -50.395; -947.039; -988.929
746.961;    9.932; -659.039; -740.930
747.223;  123.159; -190.039;  -74.930
747.484;   91.235; -391.039; -471.930
747.746;  141.387;  -23.038; -106.931
748.007;  115.439; -647.038; -689.931
748.269;  318.141; -468.038; -440.931
748.530;  485.768; -852.038; -638.932
748.791;  262.595; -354.038; -420.932
749.053;  459.421;  286.963;  163.067
749.314;  465.723; -236.037; -169.933
749.575;  520.500; -945.037; -905.933
749.836;  860.752; -217.037;   86.066
750.098; 2592.704;  -60.037;  -21.934
750.359;37436.881;  414.964;  555.066
750.620; 9236.482; -121.036; -220.935
750.881; 1025.759; -585.036; -513.935
751.142; 1375.886; -950.036; -938.936
751.403;17042.138; -789.036; -705.936
751.664; 7290.015;-1034.035; -999.936
751.925;  483.167; -175.035; -262.937
752.186;  269.143; -298.035; -278.937
752.447;  110.220; -590.035; -445.937
752.708;   39.922; -532.035; -648.938
752.969;   -4.551; -566.034; -576.938
753.230;    3.326; -777.034; -672.939
753.491;   -6.673; -650.034; -631.939
753.751;   56.779;  109.966;   19.061
754.012;   86.081;  258.967;  181.060
754.273;   71.133; -174.033;  -71.940
754.534;   -2.815; -487.033; -580.940
754.794;  -99.513; -926.033; -911.941
755.055;  160.438; 1051.967;  881.059
755.316;  -37.535; -700.032; -566.942
755.576;  -45.433; -606.032; -576.942
755.837;  -35.806; -527.032; -695.942
756.097;  -46.679; -530.032; -564.943
756.358;  -71.852; -725.032; -770.943
756.618;  -62.051; -705.031; -641.943
756.879;   14.376; -254.031; -349.944
757.139; -126.697;-1098.031;-1116.944
757.400;  -64.720; -538.031; -553.945
757.660;  -32.318; -365.031; -401.945
757.920;   11.384; -266.030; -228.945
758.181;  -14.690; -468.030; -351.946
758.441;  -91.163; -870.030; -809.946
758.701;  -39.936; -308.030; -215.946
758.961;   -7.709; -220.030; -278.947
759.222;  -52.082; -574.029; -502.947
759.482;  -85.581; -683.029; -723.948
759.742; -101.129; -706.029; -547.948
760.002;   10.998;  -83.029; -143.948
760.262;   14.825;   50.972;  182.051
760.522;  -48.348; -498.028; -574.949
760.782;  -51.021; -738.028; -612.949
761.042;  -25.420; -618.028; -573.950
761.302;   46.907;   55.972;  -18.950
761.562;   53.359; -164.027; -154.951
761.822;   96.036; -710.027; -551.951
762.082;  -40.762;-1104.027;-1093.951
762.342;   49.290; -328.027; -403.952
762.601;   69.916; -567.027; -506.952
762.861;  372.393; -281.026; -207.952
763.121;  404.695; -406.026; -411.953
763.381; 7584.097; -499.026; -485.953
763.640; 8018.449; -139.026; -307.954
763.900;  348.625; -242.026; -203.954
764.160;   80.877; -458.025; -491.954
764.419;  -25.071; -726.025; -782.955
764.679;  -76.994; -795.025; -726.955
764.939;  -16.517; -124.025; -210.955
765.198;  -67.415; -608.025; -563.956
765.458;  -90.514; -710.024; -612.956
765.717;  -80.537; -454.024; -590.957
765.976;  -63.735; -428.024; -411.957
766.236;  -74.283; -475.024; -610.957
766.495;   20.944;  260.977;   73.042
766.755;  -88.554;-1090.023; -987.958
767.014;   -0.428; -594.023; -665.958
767.273;  -55.726; -373.023; -397.959
767.533;  -39.024; -228.023; -307.959
767.792;  -21.672; -151.022; -188.960
768.051;  -61.795; -228.022; -276.960
768.310;  -82.718; -546.022; -650.960
768.569;  -20.267; -161.022;    4.039
768.828;  -29.740; -285.022; -363.961
769.088; -116.388;-1050.021; -942.961
769.347;  -76.836; -755.021; -599.962
769.606; -102.484; -876.021; -857.962
769.865; -110.458;-1016.021;-1033.963
770.124;  -16.581; -411.021; -336.963
770.383;  -54.554; -778.020; -910.963
770.641;   -9.552; -398.020; -400.964
770.900;  -64.275; -953.020; -846.964
771.159;  -58.973; -851.020; -951.964
771.418;  -14.447; -917.020; -779.965
771.677;  112.580; -224.019; -293.965
771.936;  125.907; -794.019; -865.966
772.194; 2264.484; -465.019; -437.966
772.453;10787.061; -213.019; -391.966
772.712;  736.763;  416.982;  329.033
772.970;  115.264;   32.982;   63.033
773.229;   86.941;  -22.018;  102.033
773.488;  -82.157; -814.018; -770.968
773.746;   32.945;  296.982;  335.032
774.005;   32.897;  190.983;  -22.969
774.263;   16.023;  243.983;  177.031
774.522;  -86.150; -422.017; -548.969
774.780;  -90.498; -484.017; -417.970
775.039;  -70.671; -551.017; -531.970
775.297;  -37.919; -135.016; -351.970
775.555;  -95.867; -489.016; -612.971
775.814; -122.216; -618.016; -570.971
776.072; -134.214; -749.016; -740.971
776.330; -101.062; -630.016; -520.972
776.589; -128.685; -703.015; -721.972
776.847; -139.433; -645.015; -624.973
777.105; -166.281;-1016.015;-1032.973
777.363; -105.255; -459.015; -454.973
777.621; -158.353; -660.015; -717.974
777.879;  -24.726;  -42.014;   32.026
778.138;  -87.749; -554.014; -717.974
778.396; -112.647; -585.014; -526.975
778.654; -158.445;-1015.014; -970.975
778.912;  -75.019; -269.014; -371.976
779.170; -122.192; -880.013; -803.976
779.427; -152.165; -922.013; -897.976
779.685; -124.663; -880.013; -832.977
779.943;  -93.761; -654.013; -593.977
780.201; -166.010; -964.012; -883.978
780.459; -125.433; -651.012; -610.978
780.717;  -85.256; -440.012; -390.978
780.974; -101.954; -449.012; -490.979
781.232;  -75.727; -358.012; -338.979
781.490;  -78.225; -551.011; -472.979
781.747;  -95.949; -555.011; -476.980
782.005;   23.678;  462.989;  254.020
782.263; -169.620; -542.011;-1004.981
782.520;  -94.693; -326.011; -501.981
782.778; -169.466;-1013.010;-1051.981
783.035; -178.189; -962.010; -938.982
783.293;  -53.913; -248.010; -206.982
783.550;  -64.411; -134.010; -198.982
783.808; -132.284; -764.010; -776.983
784.065; -162.207; -745.009; -874.983
784.322;  -40.355;   25.991;  -86.984
784.580; -154.928; -915.009; -771.984
784.837;  -90.527; -392.009; -466.984
785.094; -136.425; -783.009; -762.985
785.352;  -56.473; -304.008; -404.985
785.609; -117.121; -934.008; -839.985
785.866;  -75.369; -345.008; -401.986
786.123;  -78.568; -639.008; -583.986
786.380;  -92.466; -665.008; -604.987
786.637;  -40.489; -225.007; -380.987
786.895;  -19.412; -456.007; -543.987
787.152;  -49.360; -135.007; -267.988
787.409;  -56.258; -123.007; -225.988
787.666;  -86.832; -299.006; -378.988
787.923; -104.605; -616.006; -695.989
788.179; -122.978; -551.006; -584.989
788.436; -104.251; -585.006; -585.990
788.693;  -45.749;  -92.006;  -87.990
788.950;  128.228; -125.005; -112.990
789.207;  204.079; -381.005; -372.991
789.464;  -46.044; -161.005; -301.991
789.720;   -3.317;  150.995;  110.009
789.977; -161.190;-1003.005; -671.992
790.234;  -31.413;   44.996;  -66.992
790.490; -145.012; -884.004;-1031.993
790.747;  -23.385;  -85.004;   22.007
791.004;  -18.083; -426.004; -348.993
791.260;  -95.506; -430.004; -560.994
791.517;  -96.579; -843.003; -788.994
791.773;  -41.902; -379.003; -342.994
792.030; -107.826; -596.003; -660.995
792.286; -113.774; -686.003; -636.995
792.543;  -27.072;  -74.002; -159.995
792.799;  -59.795; -584.002; -382.996
793.055; -156.593;-1179.002;-1210.996
793.312; -103.916; -827.002; -816.997
793.568;  -67.315; -746.002; -599.997
793.824;   17.937; -226.001; -284.997
794.081;   17.214; -447.001; -508.998
794.337;   50.216; -664.001; -561.998
794.593; 1403.543; -319.001; -271.999
794.849; 6534.795; -746.001; -772.999
795.105;  310.496; -270.000; -261.999
795.361;   17.223; -490.000; -457.000
795.617;  -48.025; -875.000; -945.000
795.873;  -62.650; -360.000; -407.000
796.129;  -33.100; -368.000; -306.000
796.385;  -33.075; -124.000; -156.000
796.641;   66.275;  412.000;  550.000
796.897;  -86.525; -666.000; -635.000
797.153;   47.800;  453.000;  357.000
797.409; -114.050; -785.000; -868.000
797.665;  -71.275; -625.000; -732.000
797.921;  -94.625; -775.000; -762.000
798.176;  -50.175; -744.000; -747.000
798.432;  -60.950; -824.000; -596.000
798.688;  -78.425;-1174.000;-1078.000
798.943;   71.675; -165.000; -147.000
799.199;    1.225;-1005.000; -959.000
799.455;  220.700;  369.000;  316.000
799.710;  138.575; -813.000; -380.000
799.966;  275.500; -162.000; -160.000
800.221;  466.300; -638.000; -721.000
800.477;10664.600; -743.000; -710.000
800.732; 8949.025; -773.000; -800.000
800.988;  604.050;  205.000;  -19.000
801.243; 1768.675; -454.000; -344.000
801.498; 7352.075; -814.000; -739.000
801.754;  417.825; -289.000; -163.000
802.009;   77.925; -257.000; -335.000
802.264;  -56.825; -967.000;-1033.000
802.520;    9.850;  222.000;   -3.000
802.775;  -44.275; -524.000; -359.000
803.030;   42.650;  395.000;  356.000
803.285; -115.050; -840.000; -903.000
803.540;  -60.800; -686.000; -699.000
803.795;  -51.575; -648.000; -583.000
804.051;  -57.250; -279.000; -346.000
804.306;   28.800;  168.000;  128.000
804.561;  143.575;  451.000;  362.000
804.816;  126.925;  714.000;  861.000
805.071;    3.650; -185.000; -280.000
805.325;  218.150; -257.000; -427.000
805.580; -102.850; -841.000; -877.000
805.835;  -20.950; -204.000; -297.000
806.090;  -85.800; -760.000; -676.000
806.345;  -32.325; -344.000; -264.000
806.600;  -35.975; -549.000; -632.000
806.854;  -12.825; -408.000; -538.000
807.109;  -19.525; -493.000; -577.000
807.364;   12.975; -407.000; -328.000
807.618;   -6.675; -415.000; -381.000
807.873;   60.050; -470.000; -494.000
808.128;   93.650; -257.000; -518.000
808.382;  105.400; -224.000; -332.000
808.637;   70.850; -440.000; -511.000
808.891;  176.850; -257.000; -180.000
809.146;   99.800; -902.000; -794.000
809.400;  262.125; -848.000; -923.000
809.654;  331.575; -779.000; -551.000
809.909;  506.950; -841.000; -927.000
810.163; 7028.875; -813.000; -651.000
810.418;17137.925; -940.000; -861.000
810.672; 1014.575; -685.000; -690.000
810.926;  733.275; -993.000; -973.000
811.180; 1401.650; -439.000; -372.000
811.434;31878.050;  240.000;  135.000
811.689;12064.575; -231.000; -365.000
811.943;  595.625; -936.000; -953.000
812.197;  302.250; -893.000; -671.000
812.451;  128.575; -379.000; -514.000
812.705;  -34.475; -809.000; -619.000
812.959;   11.550; -263.000; -388.000
813.213;  -19.825; -283.000; -209.000
813.467;   67.025;  470.000;  253.000
813.721; -112.750; -764.000; -792.000
813.975; -113.625; -826.000; -877.000
814.229;   48.475;  430.000;  353.000
814.482;  -76.200; -517.000; -566.000
814.736; -119.425; -766.000; -744.000
814.990; -127.775; -779.000; -872.000
815.244;  -45.600; -228.000; -285.000
815.497;  -94.450; -636.000; -601.000
815.751;  -23.975; -141.000;   82.000
816.005;  -82.150; -470.000; -586.000
816.258;  -83.700; -510.000; -363.000
816.512; -112.950; -693.000; -610.000
816.766;  -12.250;  121.000;  157.000
817.019;   33.475;  148.000;  149.000
817.273; -123.625;-1000.000; -802.000
817.526;  -38.025; -206.000; -173.000
817.779;  -41.175;-1049.000; -960.000
818.033;  -82.800; -693.000; -807.000
818.286; -129.875; -725.000; -792.000
818.540;  -96.450; -403.000; -403.000
818.793;  -83.575; -402.000; -489.000
819.046;  -92.600; -582.000; -520.000
819.299;  -48.725; -157.000; -166.000
819.553;  -99.250; -552.000; -592.000
819.806; -160.275;-1016.000; -838.000
820.059;  -62.800; -334.000; -354.000
820.312;    0.375;  152.000;  185.000
820.565;  -25.150;  110.000;  -27.000
820.818;  -46.325;  -59.000; -173.000
821.071; -160.175;-1041.000; -957.000
821.324; -100.475; -536.000; -540.000
821.577;  -99.700; -457.000; -483.000
821.830;  -65.175; -270.000; -172.000
822.083; -137.175; -733.000; -288.000
822.336;  -64.025; -261.000; -167.000
822.589; -149.475; -805.000; -688.000
822.842; -159.200; -875.000; -770.000
823.094; -176.325;-1076.000;-1114.000
823.347; -144.275; -925.000; -729.000
823.600;   10.775;  402.000;  187.000
823.853;  -52.325; -311.000; -267.000
824.105;  -69.475; -331.000; -575.000
824.358; -118.850; -617.000; -716.000
824.611;   31.575;  234.000;   40.000
824.863;  -60.250; -612.000; -591.000
825.116;   51.575;  -33.000;   27.000
825.368;   81.150; -366.000; -372.000
825.621;  174.225; -186.000; -240.000
825.873;   95.550; -704.000; -737.000
826.126;  598.275; -669.000; -641.000
826.378;11690.250; -389.000; -505.000
826.630; 2689.350; -890.000; -898.000
826.883;   31.900; -754.000; -693.000
827.135;   39.175; -279.000; -270.000
827.387; -117.475; -893.000; -839.000
827.639;  -41.050;  -86.000;   32.000
827.892; -126.050; -742.000; -582.000
828.144; -145.000; -848.000; -804.000
828.396;  -43.650;  104.000;  -80.000
828.648;  -99.850; -440.000; -333.000
828.900; -162.725; -702.000; -795.000
829.152; -123.075; -684.000; -683.000
829.404;  -75.825; -215.000; -267.000
829.656;  -35.750;  321.000;  214.000
829.908;  -23.550;  393.000;  229.000
830.160; -174.750;-1064.000;-1047.000
830.412;  -95.650; -481.000; -430.000
830.664; -115.425; -557.000; -665.000
830.916;  -71.400; -268.000; -206.000
831.167; -178.525;-1073.000; -951.000
831.419; -121.350; -623.000; -566.000
831.671; -155.925; -764.000; -809.000
831.923;  -83.100; -311.000; -447.000
832.174;  -84.000; -273.000; -331.000
832.426; -132.500; -493.000; -582.000
832.678; -183.075;-1043.000;-1091.000
832.929; -174.200; -947.000; -935.000
833.181;  -62.050; -575.000; -677.000
833.432;  -55.600;  -59.000; -186.000
833.684;  -17.725;  112.000;  -27.000
833.935; -126.375; -610.000; -566.000
834.187; -130.550; -829.000; -823.000
834.438;  -61.400;  -58.000;  -25.000
834.689;  -56.875; -255.000; -123.000
834.941;  -71.950; -343.000; -244.000
835.192;  -82.875; -590.000; -533.000
835.443;  -99.650; -419.000; -506.000
835.695;  -11.075;  138.000;  -16.000
835.946;  -89.675; -608.000; -378.000
836.197; -104.375; -599.000; -622.000
836.448; -103.275; -528.000; -395.000
836.699;  -59.125; -253.000; -341.000
836.950;   -9.250;   72.000;    7.000
837.201; -153.675;-1003.000; -987.000
837.452;  -49.850; -356.000; -170.000
837.703; -107.850; -791.000; -737.000
837.954;  -45.050; -205.000; -365.000
838.205;  -82.525;-1029.000;-1008.000
838.456;  158.075; -196.000; -282.000
838.707;   -9.150; -423.000; -519.000
838.958;    3.100; -634.000; -647.000
839.209;  298.475;   18.000;   40.000
839.460;  104.650; -439.000; -201.000
839.710;  174.650; -135.000; -297.000
839.961;  424.050;  730.000;  612.000
840.212;  353.700; -382.000; -497.000
840.462; 1143.725; -328.000; -277.000
840.713;18345.475; -571.000; -536.000
840.964; 6988.400;  -62.000; -143.000
841.214;  496.275; -384.000; -624.000
841.465;  566.875; -214.000; -141.000
841.715;  518.175; -417.000; -380.000
841.966;  699.875; -746.000; -685.000
842.216; 9702.550; -330.000; -431.000
842.466;35234.450; -169.000; -313.000
842.717; 1833.350; -964.000; -952.000
842.967;  320.750; -635.000; -641.000
843.217;  273.300;   20.000;   28.000
843.468;   60.550; -104.000; -132.000
843.718;  -34.925; -718.000; -726.000
843.968;  -92.500; -837.000; -765.000
844.218;   25.950; -315.000; -262.000
844.469;  -61.900; -577.000; -561.000
844.719; -101.000; -537.000; -682.000
844.969;  -95.675; -550.000; -580.000
845.219; -148.550; -814.000; -862.000
845.469;  -86.700; -392.000; -342.000
845.719; -131.900; -792.000; -884.000
845.969;  -16.800;  119.000;  174.000
846.219; -113.925; -738.000; -720.000
846.469;   12.925;  464.000;  432.000
846.718;  -45.150; -115.000;   31.000
846.968; -155.075; -827.000; -827.000
847.218;  -51.375; -224.000; -371.000
847.468;  -10.625; -586.000; -555.000
847.718; -127.225; -827.000; -798.000
847.967; -142.200; -826.000; -915.000
848.217;  -76.475; -449.000; -569.000
848.467;  -72.475; -405.000; -376.000
848.716; -103.250; -708.000; -725.000
848.966;  -20.075; -372.000; -358.000
849.215;  -65.975; -428.000; -419.000
849.465; -101.725; -785.000; -615.000
849.714; -143.750;-1132.000;-1150.000
849.964;  -74.150; -551.000; -613.000
850.213;  -27.300; -393.000; -355.000
850.463;   64.700;  137.000;  340.000
850.712;   -4.100; -542.000; -567.000
850.961;   14.175; -739.000; -678.000
851.211;  106.525; -513.000; -504.000
851.460;  151.875; -635.000; -650.000
851.709;  576.475;  -25.000;   18.000
851.958;10629.350; -912.000; -750.000
852.208;12439.400; -859.000; -879.000
852.457;  445.275; -181.000;  -13.000
852.706;   60.450; -791.000; -823.000
852.955;    5.900; -507.000; -528.000
853.204;  -76.600; -521.000; -461.000
853.453;  -95.500; -418.000; -458.000
853.702; -134.450; -660.000; -750.000
853.951; -113.875; -532.000; -520.000
854.200; -106.500; -613.000; -562.000
854.449; -140.575; -695.000; -661.000
854.698;  -88.900; -340.000; -279.000
854.946;  -79.950; -181.000; -284.000
855.195; -146.175; -843.000; -868.000
855.444; -111.800; -395.000; -420.000
855.693; -117.475; -345.000; -432.000
855.941; -106.125; -387.000; -516.000
856.190;  -55.750; -256.000; -382.000
856.439; -134.150; -652.000; -703.000
856.687;  -64.925;  -99.000;  -72.000
856.936; -127.350; -621.000; -323.000
857.184; -176.100;-1067.000;-1020.000
857.433; -101.750; -423.000; -512.000
857.681; -170.775; -989.000; -953.000
857.930;  -83.975; -282.000; -433.000
858.178; -171.750; -856.000; -929.000
858.427; -163.875; -802.000; -781.000
858.675; -125.725; -377.000; -544.000
858.923; -128.625; -527.000; -819.000
859.172; -191.500;-1094.000;-1070.000
859.420;  -97.850; -339.000; -239.000
859.668; -132.450; -624.000; -628.000
859.916;  -43.150;  109.000;  115.000
860.164; -106.275; -699.000; -603.000
860.413;  309.875; -878.000; -696.000
860.661;  216.800; -709.000; -577.000
860.909;  -83.225; -339.000; -325.000
861.157;  -88.425; -277.000; -444.000
861.405; -138.925; -534.000; -670.000
861.653;   -4.450;  310.000;  310.000
861.901;  179.850; -543.000; -613.000
862.149;   -5.100; -801.000; -824.000
862.396;  -92.125; -297.000; -187.000
862.644;  -86.100; -368.000; -347.000
862.892;  -33.800;   98.000;  138.000
863.140; -115.275; -549.000; -530.000
863.388; -170.650; -815.000; -759.000
863.635; -136.600; -642.000; -601.000
863.883;  -31.725;  231.000;  190.000
864.131; -106.300; -288.000; -357.000
864.378; -149.700; -675.000; -540.000
864.626; -103.075; -347.000; -415.000
864.873; -121.650; -556.000; -505.000
865.121; -160.125; -714.000; -799.000
865.368;  -52.025; -173.000;   75.000
865.616;  -47.475;  -33.000;  -40.000
865.863;  -78.000; -462.000; -506.000
866.111; -108.650; -795.000; -824.000
866.358;   21.225; -426.000; -420.000
866.605; 2199.000;  -64.000; -804.000
866.853; 2175.950; -621.000; -537.000
867.100;  -48.275; -728.000; -775.000
867.347; -114.650; -672.000; -611.000
867.594;  -78.225; -740.000; -714.000
867.841;   81.000;   97.000;   17.000
868.089; -152.600; -746.000; -698.000
868.336; -120.475; -477.000; -420.000
868.583; -151.400; -637.000; -741.000
868.830;  -58.375; -131.000; -170.000
869.077; -165.950; -859.000; -787.000
869.324; -137.675; -502.000; -458.000
869.571; -128.500; -398.000; -430.000
869.818; -129.475; -485.000; -439.000
870.065; -110.350; -439.000; -513.000
870.311; -119.675; -456.000; -542.000
870.558; -115.175; -332.000; -311.000
870.805; -101.925; -320.000; -384.000
871.052; -107.375; -494.000; -369.000
871.298;  -78.000; -204.000; -131.000
871.545;  -70.425; -151.000; -185.000
871.792;  -94.325; -173.000; -222.000
872.038;  -82.600;   43.000; -126.000
872.285; -129.975; -496.000; -387.000
872.532; -106.450; -357.000; -387.000
872.778;   12.125;  556.000;  403.000
873.025;  -88.975; -384.000; -359.000
873.271;   17.000;  501.000;  578.000
873.517;  -37.900; -133.000; -209.000
873.764;  -36.125; -193.000;  -80.000
874.010;  -73.650; -143.000; -230.000
874.257;  -46.950;  123.000;   90.000
874.503; -138.325; -579.000; -479.000
874.749;  -92.250;   31.000;  275.000
874.995;  -75.175;  -80.000;  -20.000
875.242; -132.000; -540.000; -478.000
875.488; -109.175; -414.000; -439.000
875.734;  -63.550; -106.000; -234.000
875.980;  221.400; -872.000;-1032.000
876.226;  350.750; -157.000; -255.000
876.472;   -7.250;  343.000;  237.000
876.718;  -43.750;  184.000;  158.000
876.964;  -33.900;   56.000;   55.000
877.210; -172.725; -547.000; -677.000
877.456; -144.450; -630.000; -557.000
877.702; -176.975; -821.000; -832.000
877.948; -119.325; -377.000; -497.000
878.193;    3.150;  361.000;  255.000
878.439;  -97.600; -487.000; -472.000
878.685; -115.175; -272.000; -343.000
878.931; -121.125; -618.000; -676.000
879.176;  -91.475; -201.000; -201.000
879.422; -179.550; -933.000; -820.000
879.668;   28.375;   10.000;   79.000
879.913;  150.150;   53.000;  137.000
880.159;  -70.425; -112.000;  -17.000
880.404;  -58.625; -152.000; -162.000
880.650;  -54.800;   91.000;  141.000
880.895; -156.225; -670.000; -710.000
881.141; -127.650; -454.000; -428.000
881.386; -142.600; -503.000; -658.000
881.631;  -96.950; -311.000; -166.000
881.877;  -32.600;  112.000;  -13.000
882.122; -154.275; -684.000; -600.000
882.367;  -95.450; -136.000; -186.000
882.612;  -86.950;  -80.000; -176.000
882.858; -163.650; -877.000; -823.000
883.103; -121.500; -297.000; -267.000
883.348; -141.650; -759.000; -852.000
883.593; -164.875; -677.000; -602.000
883.838;  -53.275; -311.000;  -24.000
884.083;   26.625;  353.000;  288.000
884.328; -103.925; -564.000; -545.000
884.573;  -55.400; -196.000; -143.000
884.818;  224.225; -694.000; -531.000
885.063;  151.925; -348.000; -315.000
885.308; -111.925; -475.000; -398.000
885.553;  -27.550;  245.000;  325.000
885.797; -127.850; -545.000; -615.000
886.042;  -68.675;    8.000;   58.000
886.287;  -96.700; -253.000; -211.000
886.532;  -60.700;   26.000;  204.000
886.776;  -90.250; -407.000; -525.000
887.021; -139.950; -621.000; -574.000
887.265; -157.350; -685.000; -689.000
887.510; -145.250; -557.000; -496.000
887.755;  -91.650; -194.000; -164.000
887.999; -144.675; -552.000; -575.000
888.244;  -68.425;  -58.000;  161.000
888.488;  -21.275;  371.000;  393.000
888.732; -126.000; -368.000; -520.000
888.977; -133.050; -622.000; -567.000
889.221; -162.825; -683.000; -659.000
889.465; -122.850; -422.000; -566.000
889.710;  -84.500;  -56.000; -299.000
889.954;  -14.800;  579.000;  467.000
890.198; -150.550; -584.000; -707.000
890.442; -154.425; -716.000; -712.000
890.687; -165.425; -800.000; -753.000
890.931; -100.700; -273.000; -210.000
891.175; -133.975; -502.000; -500.000
891.419;  -90.875; -105.000; -110.000
891.663;  -92.350; -239.000; -112.000
891.907; -180.075; -801.000; -545.000
892.151; -185.125; -920.000; -815.000
892.395; -127.075; -274.000; -387.000
892.638;   -6.500;  408.000;  291.000
892.882; -191.575; -780.000; -867.000
893.126;   16.150;  758.000;  558.000
893.370; -104.300; -167.000; -168.000
893.614; -162.025; -714.000; -715.000
893.857; -121.800; -183.000; -197.000
894.101; -148.425; -527.000; -631.000
894.345;  -64.050;  300.000;  150.000
894.588;   17.400;  569.000;  380.000
894.832;  -87.425; -178.000;  -84.000
895.075;  -85.900;   15.000;  -92.000
895.319; -140.500; -552.000; -420.000
895.563; -111.850; -413.000; -353.000
895.806; -168.550; -628.000; -741.000
896.049;  -61.225; -576.000; -368.000
896.293;   76.675;  527.000;  405.000
896.536;  -75.050; -465.000; -468.000
896.779;  -75.625; -149.000;   -1.000
897.023; -133.900; -751.000; -714.000
897.266;  -42.375;  325.000;  269.000
897.509; -173.600; -900.000; -901.000
897.752;  -62.500;  149.000;  171.000
897.996; -184.875; -972.000; -864.000
898.239;  -49.775;  168.000;  102.000
898.482; -125.375; -431.000; -453.000
898.725;  -45.075;  101.000;   53.000
898.968; -157.300; -609.000; -744.000
899.211; -115.275; -513.000; -361.000
899.454; -133.225; -633.000; -539.000
899.697;  -74.300;   90.000;  -43.000
899.940; -171.100; -761.000; -757.000
900.182; -112.175; -335.000; -405.000
900.425;  -94.600; -150.000; -298.000
900.668;  -36.375;  491.000;  350.000
900.911; -119.175; -292.000; -345.000
901.154;  -52.975;  141.000;   -3.000
901.396; -130.775; -407.000; -412.000
901.639; -145.450; -430.000; -496.000
901.882; -179.900; -790.000; -809.000
902.124;  -97.125;  -29.000; -143.000
902.367; -119.875; -315.000; -361.000
902.609; -130.100; -476.000; -453.000
902.852;  -91.925; -108.000; -260.000
903.094; -133.425; -458.000; -337.000
903.337;  -63.800;  -26.000;   53.000
903.579; -122.650; -228.000; -441.000
903.821; -157.975; -597.000; -744.000
904.064;  -74.475;   85.000;  127.000
904.306;  -84.625; -126.000; -166.000
904.548; -109.125; -152.000; -366.000
904.790;  -87.950; -195.000; -340.000
905.033; -145.975; -625.000; -577.000
905.275; -128.525; -513.000; -524.000
905.517;   26.725;  468.000;  256.000
905.759;  -73.750; -667.000; -761.000
906.001; -114.450; -322.000; -369.000
906.243;  -71.700; -162.000; -224.000
906.485;  112.300; -265.000; -207.000
906.727;  111.800; -499.000; -542.000
906.969;  -54.750;  -30.000; -135.000
907.211;  123.525; -316.000; -382.000
907.453;  270.475; -188.000; -237.000
907.695;    3.975; -158.000; -385.000
907.936;   45.625;  818.000;  706.000
908.178;  -66.700;   92.000; -135.000
908.420;  -73.575; -111.000; -162.000
908.662; -133.900; -633.000; -682.000
908.903;  -94.750; -208.000; -123.000
909.145;  -56.850; -240.000; -305.000
909.386;  -11.550;  315.000;  280.000
909.628;   23.075;  363.000;  397.000
909.870;    2.675;   29.000;  264.000
910.111; -111.725; -809.000; -949.000
910.353;    6.375; -123.000; -161.000
910.594;   -3.900; -574.000; -606.000
910.835;   82.000; -265.000; -326.000
911.077;  144.125; -503.000; -604.000
911.318;  273.450; -505.000; -471.000
911.559;  442.325; -577.000; -880.000
911.801; 1332.425; -284.000; -280.000
912.042;10787.450;  -50.000; -159.000
912.283;26660.625;  404.000;  371.000
912.524; 3866.725; -396.000; -457.000
912.765;  442.800; -193.000;   79.000
913.006;  229.025; -307.000; -338.000
913.247;   35.075; -270.000; -290.000
913.488;    8.575;  -43.000;   30.000
913.729;  -94.825; -373.000; -373.000
913.970;  -72.875;  -96.000; -292.000
914.211;  -81.625; -160.000; -198.000
914.452;  -65.575; -118.000;  -11.000
914.693;    8.975;  510.000;  592.000
914.934;    4.025;  510.000;  440.000
915.175;  -80.700;   53.000;  -95.000
915.415;  -75.575; -137.000;   27.000
915.656;  -60.225;  -28.000;  192.000
915.897;  -95.525; -252.000;  -82.000
916.137;  -76.150;   74.000;   -9.000
916.378; -133.400; -573.000; -517.000
916.619;  -94.975; -159.000;  -63.000
916.859;  -31.725;  303.000;  330.000
917.100;  123.025; 1655.000; 1070.000
917.340;   52.250;  930.000;  728.000
917.581;   41.225;  965.000;  789.000
917.821;  -31.550; -171.000;  143.000
918.061;    8.575; -199.000;  -72.000
918.302;  -75.450; -152.000; -211.000
918.542;  -40.725;  -22.000;    3.000
918.782;   44.475;  369.000;  377.000
919.023;  129.475;  360.000;  427.000
919.263; 1826.450; 8131.000;  202.000
919.503; 1093.825; -137.000;  -54.000
919.743;  644.550;  390.000;  266.000
919.983;  238.375; -134.000;  -26.000
920.223;   86.300;  135.000;   14.000
920.463;  132.250;  631.000;  554.000
920.703;  135.150;   84.000;   39.000
920.943;  158.125; -110.000;   90.000
921.183;  221.475; -414.000; -405.000
921.423;  490.300;  307.000;  546.000
921.663;  735.925; -174.000; -257.000
921.903; 1558.775;  237.000;  173.000
922.143; 8800.525;  372.000;  389.000
922.383;33333.350;  158.000;  115.000
922.622;10677.025; -120.000;  -15.000
922.862; 1140.975;  796.000;  785.000
923.102;  438.775;  -51.000;   33.000
923.341;  147.100;   59.000;   74.000
923.581;   69.375;  450.000;  360.000
923.821;   15.650;  301.000;  398.000
924.060;   19.750;  351.000;  193.000
924.300;  -71.200;  -16.000; -128.000
924.539;  -22.825;  584.000;  473.000
924.779;    7.875;  812.000;  597.000
925.018;  -38.575;  247.000;  353.000
925.257;  -13.200;  595.000;  666.000
925.497;  -28.875;  447.000;  412.000
925.736;  -76.375;  -35.000;  102.000
925.975;    8.575;  687.000;  669.000
926.214;   27.850;  907.000;  850.000
926.454;   23.925;  706.000;  757.000
926.693;  -49.125;  419.000;  543.000
926.932;   52.850; 1021.000;  825.000
927.171;   60.825; 1107.000; 1044.000
927.410;   67.975; 1144.000;  967.000
927.649;    9.550;  924.000;  742.000
927.888;  -18.200;  590.000;  564.000
928.127;  -16.525;  680.000;  678.000
928.366;   29.075;  842.000;  826.000
928.605;   23.100;  831.000;  737.000
928.844;  259.250; 1451.000; 1393.000
929.083;  607.800;  770.000;  613.000
929.321;  332.100; 1335.000; 1359.000
929.560;   74.800; 1158.000; 1122.000
929.799;  -23.825;  574.000;  475.000
930.038;   89.050; 1025.000; 1394.000
930.276;  -61.125;  334.000;  397.000
930.515;   -6.900;  827.000;  681.000
930.753;   -4.750;  614.000;  589.000
930.992;  -24.775;  664.000;  717.000
931.230;   -1.175;  847.000;  847.000
931.469;  153.450; 2162.000;  892.000
931.707;   68.200;  840.000;  751.000
931.946;   57.825; 1278.000; 1344.000
932.184;   46.200; 1437.000; 1175.000
932.423;   32.575; 1265.000;  963.000
932.661;   91.350; 1296.000; 1428.000
932.899;   20.725;  987.000;  821.000
933.137;    9.025;  754.000;  564.000
933.376;  139.975; 1664.000; 1335.000
933.614;  162.375; 1759.000; 1196.000
933.852;   47.425; 1357.000; 1171.000
934.090;  133.725; 1722.000; 1747.000
934.328;   97.750; 1252.000; 1457.000
934.566;   81.550; 1431.000; 1110.000
934.804;  119.775; 1263.000; 1309.000
935.042;  433.175; 1861.000; 1850.000
935.280; 1761.075; 2088.000; 2063.000
935.518; 1570.025; 2113.000; 2007.000
935.756;  343.200; 2481.000; 2316.000
935.994;  168.800; 1808.000; 1751.000
936.231;  355.025; 2890.000; 2950.000
936.469;  183.025; 2367.000; 2378.000
936.707;  152.425; 2220.000; 2167.000
936.945;  234.225; 2825.000; 2882.000
937.182;  192.825; 2679.000; 2741.000
937.420;  309.000; 3602.000; 3031.000
937.657;  415.100; 3365.000; 3478.000
937.895;  362.825; 3331.000; 3488.000
938.133;  306.700; 3540.000; 3528.000
938.370;  353.650; 3896.000; 4191.000
938.607;  385.950; 4488.000; 4205.000
938.845;  547.900; 5587.000; 5549.000
939.082;  463.175; 5387.000; 5177.000
939.320;  539.350; 5799.000; 5728.000
939.557;  647.850; 6549.000; 6491.000
939.794;  745.925; 7285.000; 7097.000
940.031;  896.125; 8421.000; 8368.000
940.269; 1146.475; 9552.000; 9107.000
940.506; 1131.950;10901.000;10507.000

