
Integration time [ms]: 100.000
Averaging Nr. [scans]: 40
Smoothing Nr. [pixels]: 0
Data measured with spectrometer [name]: 2101013U2
Wave   ;Sample   ;Dark     ;Reference
[nm]   ;[counts] ;[counts] ;[counts] 

394.013;   57.723; -450.257; -315.536
394.305;  270.271; -461.258; -419.536
394.596; 1029.946; -676.269; -527.514
394.887; 2365.313; -796.268; -654.518
395.178;  931.442;  145.736;   11.476
395.470;   92.128; -210.263; -356.526
395.761;  246.402;  305.734;  394.479
396.052;  433.726; -545.284; -306.489
396.343;  428.718; -557.276; -454.503
396.634;  152.313; -200.279; -290.497
396.926;  188.910; -618.268; -565.517
397.217;  149.397;   11.725;  -17.504
397.508;   79.288; -366.273; -154.507
397.799;   77.763; -555.279; -571.497
398.090;   40.082; -973.280; -902.495
398.381;  153.028;   11.708;  -11.473
398.672;   28.579; -585.292; -742.473
398.963;   74.669; -348.279; -373.498
399.254;  130.513;   54.709; -209.475
399.545;    2.749;-1017.266; -883.520
399.836;   94.282; -407.277; -343.501
400.127;   78.005; -205.295; -209.468
400.418;   98.082; -423.274; -392.506
400.709;   88.745; -359.281; -333.493
401.000;   66.492; -268.291; -309.476
401.290;  113.644;  225.698;  115.545
401.581;   95.484; -166.286; -228.485
401.872;   29.178; -542.298; -486.462
402.163;   63.998; -313.296; -252.467
402.454;  102.964; -123.291; -163.475
402.744;  122.914; -844.297; -813.465
403.035;  599.570; -226.293;  -86.471
403.326;  760.607; -366.292; -384.474
403.617;  446.773;  204.701;  165.539
403.907;  250.806; -593.283; -679.490
404.198; 2166.375; -545.307; -599.446
404.489; 5715.111; -618.283; -588.491
404.779; 2061.072; -618.302; -660.456
405.070;  249.477;  -67.304; -174.451
405.360;  332.321; -259.293; -238.472
405.651;  356.158;  125.699;   98.542
405.942;  232.354;  209.714;  127.516
406.232;  396.118; -432.285; -413.487
406.523;  627.765;  641.706;  758.530
406.813;  135.156; -579.286; -644.484
407.104;  452.402;  261.708;  144.527
407.394;  282.999; -604.299; -591.462
407.685;  176.117;  336.715;  222.513
407.975;   93.959; -400.283; -382.490
408.265;  133.477; -134.289; -190.478
408.556;   98.461; -472.291; -459.475
408.846;  163.465;  474.706;  429.530
409.137;   93.911;   -1.288; -216.480
409.427;   65.068; -193.285; -271.487
409.717;   40.716; -776.273; -692.508
410.007;  145.537;    4.715; -170.486
410.298;  119.233; -360.295; -342.469
410.588;   88.215; -495.285; -510.486
410.878;   52.596; -792.287; -873.482
411.168;  133.730; -481.298; -478.463
411.459;  111.904; -295.283; -242.489
411.749;   87.509; -609.292; -507.474
412.039;   76.659; -755.289; -386.480
412.329;  229.850;   40.722;  132.501
412.619;  216.782;  -62.286; -148.485
412.909;  409.730;  639.711;  594.521
413.199;  402.807; -130.280; -251.495
413.490;  461.871;  521.710;  352.523
413.780;  148.286;-1013.279; -913.496
414.070;  328.744;  -46.276;  235.497
414.360;  422.497; -729.278; -666.498
414.650;  441.592; -726.288; -688.482
414.940;  509.511; -538.280; -441.496
415.230;  889.440;   50.712;   74.519
415.520; 5596.671;  155.730;   66.486
415.809;22110.694; -305.281; -125.493
416.099;16878.660; -388.277; -229.501
416.389; 4528.905;  435.726;  236.494
416.679; 2660.406;   91.738;   85.473
416.969;  489.301; -527.287; -503.483
417.259;  462.688;  341.721;  171.503
417.549;  664.668;  522.718;  318.508
417.838; 1527.237; -205.268; -147.518
418.128; 4864.526;  650.710;  492.522
418.418; 4062.722; -491.272; -579.509
418.708; 2790.005;    9.726;  -48.506
418.997;10191.176; -474.275; -480.505
419.287;10493.087; -733.273; -790.507
419.577; 9684.653; -160.283; -123.489
419.866;32724.658; -588.277; -498.501
420.156;34262.167; -242.270;  -55.513
420.446; 6300.299; -112.263;  -26.526
420.735; 1015.961; -376.271; -446.512
421.025;  869.796; 1830.722;  315.502
421.314;  863.134; -203.271; -226.512
421.604; 2069.930;   89.732;  233.484
421.893; 1201.356; -705.271; -602.511
422.183;  247.299; -487.263; -461.526
422.472;  389.907;  -36.271; -107.511
422.762;  499.704; -416.266; -379.521
423.051;  279.744; -916.276; -916.503
423.341;  358.989; -491.273; -439.507
423.630;  459.210; -121.265;   15.477
423.919;  412.476;   58.725;   49.495
424.209;  389.929;  -31.263;   56.473
424.498;  492.634;   68.732;  161.483
424.787; 1036.741; -535.267; -601.518
425.077; 3232.809;   34.735;   29.478
425.366; 5145.585; -734.262; -744.528
425.655; 9093.839;  639.727;  259.493
425.945;17553.909; -313.247; -268.554
426.234; 9823.132;  117.741;  300.467
426.523; 4705.937;  -86.259; -350.534
426.812; 6396.400;  107.734;  159.480
427.101; 9198.801; -127.269; -323.515
427.390;12025.695;  -55.270;  -86.514
427.680; 3361.506; -624.257; -411.538
427.969;  573.816; -330.255; -301.540
428.258;  357.248; -385.257; -477.536
428.547;  610.826;  449.728;  397.490
428.836; 1613.582; -421.253; -398.543
429.125; 2377.239; -199.259;  -72.534
429.414;  948.604; -330.251; -294.548
429.703; 2866.804; -231.251; -213.548
429.992; 8356.007; -938.250; -828.549
430.281; 5476.867; -397.264; -331.524
430.570;  643.144;  -21.252;   32.454
430.859;  707.436;  279.741;  352.466
431.148;  504.030;  636.752;  631.446
431.437;  321.644;  391.748;  367.454
431.725;  163.299; -544.257; -481.536
432.014;  123.139; -845.253; -756.545
432.303;  434.903; -149.239; -105.569
432.592;  737.224; -460.263; -178.525
432.881; 1018.006; -601.248; -437.554
433.169; 5370.267; -343.255;  -61.540
433.458;10954.986;  445.765;  540.424
433.747; 4755.515; -397.261; -289.529
434.036; 1077.955; -275.242; -280.564
434.324; 2016.719; -395.249; -379.551
434.613; 3329.024;   40.757;  159.437
434.902; 1246.244;  333.760;  439.433
435.190;  886.202;   75.761;  295.431
435.479;  500.706;  -52.245;   83.441
435.767;  144.914; -411.244; -427.561
436.056;  278.326; -340.242; -294.563
436.345;  380.096; -372.240; -223.568
436.633;  421.590;   60.750;  383.450
436.922;  378.948;  208.760;  414.432
437.210;  954.576; -194.236;    1.426
437.499; 3156.959; -583.235; -432.576
437.787; 3416.826; -339.236;  -10.574
438.075;  810.608;   56.761;  162.430
438.364; 1084.060;  -44.238;  250.429
438.652;  633.911; -286.226; -138.592
438.941;  195.901;    3.770;  269.415
439.229;   40.067; -665.252; -466.545
439.517;   46.242; -160.234;  -85.577
439.806;   23.801; -501.225; -290.595
440.094;  228.475;  377.766;  650.421
440.382;  302.828; -653.233; -302.580
440.670;  324.034; -361.235; -285.576
440.959;   54.443; -347.223; -170.599
441.247;  123.112; -151.229; -109.587
441.535;  139.241; -266.235;   31.423
441.823;   75.097; -497.234; -305.578
442.111;  236.142;  173.771;  327.412
442.400;  745.256; -628.245; -335.559
442.688; 2139.049; -111.234; -620.579
442.976; 1616.753; -786.213; -450.617
443.264;  176.183; -324.224; -364.597
443.552;  160.812; -258.226;   51.408
443.840;  187.639;  602.765;  876.423
444.128;  136.352;  265.767;  269.420
444.416;   17.994; -694.228; -312.588
444.704;   38.747; -465.219;  -92.605
444.992;  105.515;   -0.226;  240.407
445.280;   74.652; -517.230;  -94.585
445.568;   80.406; -694.212; -396.618
445.856;  480.706; -174.221;  357.398
446.143; 1154.718;  -54.220;   -7.604
446.431;  891.898;  -25.228;  625.411
446.719;  300.215;  489.783;  675.391
447.007;  208.197;  481.769;  705.416
447.295;  198.565;  597.777;  871.402
447.583;  113.135; -464.229;  -34.587
447.870;  192.703; -434.221; -202.601
448.158;  542.476; -104.230;  129.415
448.446;  449.644; -800.219; -338.604
448.733;  210.834;   13.776;  269.403
449.021;  312.431;   60.788;  341.382
449.309;  211.420; -296.210;  208.379
449.596;  247.787;  128.783;   59.392
449.884;  170.647; -571.222; -325.600
450.172;  134.478; -756.227; -406.590
450.459;  400.112;  645.786;  780.387
450.747; 1984.835; -411.218; -147.608
451.034; 6421.224;  493.772;  889.411
451.322; 5239.714; -413.214; -170.614
451.609;  460.110;  292.777;  508.403
451.897;  515.606; -550.203; -183.634
452.184; 1549.490; -622.223; -400.598
452.472; 1502.291;   97.792;  269.375
452.759;  358.295;  512.781;  864.395
453.047;  146.903; -407.212; -125.617
453.334;  125.352; -732.219; -216.606
453.621;  119.992; -438.214; -161.615
453.909;  139.073;   13.796;  384.368
454.196;  137.767; -299.199; -123.641
454.483;  252.393;  317.798;  540.364
454.771;  161.394; -215.208;  196.374
455.058;   51.622; -316.207;  102.374
455.345;  105.945;   71.807;  344.347
455.632;   79.525; -128.207;  235.373
455.919;   48.964;  -82.196;  182.354
456.207;  -38.154; -774.198; -450.642
456.494;   -0.870; -475.200;  -66.639
456.781;   15.614; -399.202; -198.635
457.068;   79.531; -253.206;  -29.628
457.355;   20.982; -698.206; -401.629
457.642;    4.738; -552.205; -290.630
457.929;   12.711; -778.194; -417.651
458.216;   75.404; -575.212; -354.617
458.503;  211.991; -173.193;  -19.652
458.790;  187.767; -864.208; -630.625
459.077;  267.994;  -77.202;  110.364
459.364;  718.405; -350.195; -210.649
459.651; 1490.929;  -46.206;  220.372
459.938;  722.057; -864.209; -665.623
460.225;  196.722;  132.799;  276.363
460.512;  -24.889; -836.197; -688.645
460.799;  123.934;  -32.218;  320.392
461.086;  104.934; -370.200; -251.640
461.372;   75.972; -509.198; -279.642
461.659;  147.840; -165.196;  108.354
461.946;   94.415; -445.193;  -54.651
462.233;  261.832;  842.800;  888.361
462.519;  345.729; -814.201; -464.639
462.806;  935.311; -768.197; -497.645
463.093;  806.460; -445.191;  -66.656
463.380;  -14.701; -920.186; -824.664
463.666;   54.363; -259.197;  -18.646
463.953;  110.925; -406.195; -243.648
464.239;  181.400; -173.195;  -77.648
464.526;  429.310;  413.806;  743.350
464.813;  404.371; -565.190; -304.658
465.099;  396.916;  606.807;  607.348
465.386;  402.644;  903.807;  921.348
465.672;   67.337; -694.197; -522.645
465.959;   59.988; -598.188; -520.662
466.245;   37.419; -468.193; -359.652
466.532;  137.098; -109.195;   63.352
466.818;  110.999; -357.186; -216.664
467.104;   11.738; -488.182; -415.672
467.391;   -6.227; -628.189; -459.658
467.677;   35.428; -289.186;    9.335
467.964;   30.754; -682.189; -471.660
468.250;   94.130; -331.186; -160.665
468.536;   88.449;   90.811;  180.341
468.822;  -18.908; -821.184; -574.668
469.109;  141.791;  351.827;  471.311
469.395;  209.554;  729.808;  787.346
469.681;  205.127;   46.811;  156.341
469.967; 1092.231; -699.188; -382.660
470.254; 2378.339; -494.188; -306.662
470.540; 1518.938; -601.196; -476.646
470.826;  216.124; -488.181; -397.675
471.112;  254.370;  288.816;  113.331
471.398;   95.974; -253.183;  -58.670
471.684;   58.401; -626.177; -447.680
471.970;    1.927; -918.180; -981.675
472.256;   21.978; -521.192; -441.654
472.542;   28.551; -499.171; -434.691
472.828;   33.684; -743.182; -607.672
473.114;   50.518; -380.166; -283.700
473.400;   35.367; -504.175; -293.684
473.686;   77.999; -452.166; -400.701
473.972;   85.531; -230.174; -131.687
474.258;  -38.709; -925.173; -843.689
474.544;  160.443; -183.178;   -2.679
474.830;  237.193;  -65.175;   45.316
475.116;  365.222; -123.190; -196.658
475.401;  541.204; -558.180; -467.676
475.687;  179.028; -725.180; -718.676
475.973;   35.317; -673.181; -770.673
476.259;  279.570;  736.825;  764.315
476.544;  353.183; -539.176; -437.682
476.830;  670.897; -398.172; -322.690
477.116;  549.457; -430.177; -336.682
477.401;  139.004;  346.820;  358.324
477.687;  -18.833; -289.175; -405.684
477.973;   40.195;   21.819;   28.326
478.258;    2.569; -448.163; -348.706
478.544;   64.035;   21.815;   61.334
478.829;  -51.369; -818.171; -738.692
479.115;  -35.953; -749.172; -651.690
479.401;    1.226; -444.174; -449.686
479.686;   27.003; -253.180;  -74.676
479.972;  -49.652; -886.178; -776.680
480.257;   47.945; -258.166;  -65.700
480.542;   -1.115; -614.170; -469.693
480.828;  238.790; 1288.824; 1392.317
481.113;  -26.737; -464.176; -426.683
481.399;   -5.308; -236.161; -202.711
481.684;  -45.606; -620.166; -462.700
481.969;   26.405; -158.159;  -73.713
482.255;   -0.129; -439.169; -285.695
482.540;    9.748; -569.178; -441.680
482.825;    5.270; -395.187; -404.663
483.110;   72.499;  -85.169; -105.696
483.396;  140.601; -840.157; -652.718
483.681;  409.756;  543.826;  730.313
483.966;  114.324; -696.160; -700.712
484.251;    2.330; -404.174; -310.687
484.536;   22.304; -356.165; -378.703
484.822;   25.008; -205.173; -218.687
485.107;  -17.363; -599.152; -502.726
485.392;  130.835;  662.836;  541.296
485.677;   78.608;  354.832;  163.302
485.962;  104.148;  160.843;  270.283
486.247;   94.202;  -14.162;   -8.707
486.532;   44.321; -178.166; -325.701
486.817;  156.211;  381.839;  431.291
487.102;  112.346; -453.154; -514.722
487.387;  529.852; -637.156; -652.718
487.672;  917.615; -154.164;  -38.705
487.957;  586.393; -394.160; -286.711
488.241;  175.753; -290.150; -314.729
488.526;  590.089; -280.152; -148.726
488.811;  964.925; -881.177; -818.680
489.096;  735.874; -666.154; -702.723
489.381;  424.510;    3.847;  162.275
489.666;  271.242; -428.161; -510.710
489.950;  156.651;  558.846;  627.277
490.235;  -19.351; -480.151; -458.728
490.520;  -30.109; -756.161; -723.710
490.804;  -55.421; -827.156; -736.719
491.089;   12.419; -469.149; -299.732
491.374;   38.763; -132.164;  -75.704
491.658;    7.905; -817.147; -717.735
491.943;  205.743; -657.152; -609.727
492.227;  281.067; -178.155;  -38.721
492.512;   80.798; -294.157; -341.717
492.797;  -58.487; -713.149; -716.731
493.081;  -47.418; -588.147; -598.735
493.366;  -26.058; -751.161; -635.711
493.650;  192.783;  831.859;  917.254
493.935;   35.154; -648.147; -447.734
494.219;  -36.529; -778.142; -687.743
494.503;  -49.042; -585.150; -487.730
494.788;   43.765;   46.842;   74.285
495.072;  110.780;  184.850;  434.271
495.356;  163.972; -463.148; -343.733
495.641;  477.214; -812.146; -736.736
495.925;  446.334; -976.156; -903.719
496.209;   54.393; -599.149; -451.732
496.494;  -31.003; -763.142; -544.744
496.778;   23.371; -364.154; -360.722
497.062;  -41.791; -819.156; -627.719
497.346;  -38.230; -869.160; -640.711
497.631;  137.925;  580.852;  560.266
497.915;   67.899;  -64.145;  175.261
498.199;   72.401; -341.157; -277.718
498.483;   56.312; -562.152; -508.725
498.767;  176.081;  301.850;  300.271
499.051;  179.816; -126.149; -100.732
499.335;   26.014; -693.149; -739.731
499.619;  -32.044; -381.129; -423.767
499.903;   34.966; -272.155;  -65.721
500.187;   48.653; -588.153; -316.724
500.471;   30.517; -796.152; -595.727
500.755;  127.016;   62.839;  -96.710
501.039;   40.166; -270.155; -357.721
501.323;  108.710;  -21.141;  264.254
501.607;   57.044; -447.163; -503.706
501.891;   14.202; -607.156; -512.718
502.174;  -17.240; -726.144; -585.741
502.458;   67.071;   89.849;  370.273
502.742;   22.358; -180.138; -191.751
503.026;   69.204; -412.147; -254.734
503.310;  121.554; -437.159; -375.713
503.593;  102.455; -464.147; -325.735
503.877;  117.597; -232.133; -156.760
504.161;  198.230;    2.847;  -50.724
504.444;  140.542; -841.158; -710.716
504.728;  364.913; -487.164; -522.704
505.012;  592.628; -257.150;  -76.729
505.295;  462.017; -417.161; -212.711
505.579;  443.333; -256.156; -496.719
505.862;  582.845; -555.145; -333.738
506.146;  578.231; -681.159; -758.714
506.429;  348.557;  568.841;  461.286
506.713;   59.550; -732.151; -667.728
506.996;  252.670;   90.846;  295.278
507.280;  256.158; -633.165; -474.703
507.563;  192.264; -469.155; -261.721
507.847;   72.629; -423.153; -112.724
508.130;   71.218; -665.161; -456.711
508.413;   78.290; -758.167; -577.700
508.697;  199.040; -151.167;   12.300
508.980;  119.830; -422.153; -312.724
509.263;   -9.114; -466.155; -450.720
509.547;   36.703; -124.150;   82.271
509.830;   39.845; -172.160;  140.289
510.113;   82.983;  128.844;  298.281
510.396;   43.460; -530.152; -300.725
510.680;  292.722; -818.145; -812.738
510.963; 1002.050;  184.846;  180.277
511.246;  903.085; -493.150; -357.730
511.529;  311.701; -482.145;  -83.739
511.812;  295.344; -250.134;   10.241
512.095;  198.422; -740.151; -396.728
512.378;   69.834; -317.147; -245.736
512.661;   12.665; -703.137; -623.753
512.944;   16.373; -750.142; -637.744
513.227;   61.313; -170.137; -171.752
513.510;   28.609; -479.144; -671.741
513.793;   15.239; -485.140; -435.747
514.076;  139.251;  -43.127;  -39.771
514.359;   95.244; -294.149; -135.732
514.642;   74.701; -442.142; -567.744
514.925;  631.113;  581.860;  561.253
515.208;  787.740; -498.134; -443.758
515.491;  524.353; -276.133; -182.761
515.773;  310.638; -410.143; -337.742
516.056; 1656.447;  249.864;  409.246
516.339; 2412.725; -754.136; -652.755
516.622; 2100.933; -518.150; -488.730
516.904; 1797.720;  882.857;  975.257
517.187;  846.812; -730.138; -523.752
517.470;  420.519; -568.143; -510.743
517.752;  356.753; -624.136; -470.756
518.035;  277.374; -708.139; -725.749
518.318;  282.025; -799.136; -744.755
518.600; 1848.057; -300.132; -325.762
518.883; 2618.425;  310.858;   88.256
519.165; 1285.580; -585.138; -426.751
519.448;  428.256;  -61.132;  -19.762
519.730;  234.608; -573.126; -415.773
520.013;  368.100;  588.867;  664.240
520.295; 1218.895;  -94.134;  -15.759
520.578; 2766.894; -335.131; -305.764
520.860; 3061.032; -254.132;   56.238
521.143; 1482.855; -763.135; -584.756
521.425;  477.296; -251.125; -279.775
521.707;  612.226; -622.127; -380.771
521.990; 1446.552; -199.127;  167.229
522.272; 1636.216; -116.140;   -4.748
522.554;  878.814; -237.143; -157.742
522.836;  464.843;  -24.134;   99.241
523.119;  268.652; -496.148; -189.734
523.401;  164.026; -448.130; -314.766
523.683;   68.141; -865.137; -693.753
523.965;  225.035;  408.862;  260.248
524.247;  229.766;   54.878;  170.220
524.529;  185.945; -451.134; -367.759
524.812;  321.653;   -3.130;  191.234
525.094;  687.634; -773.138; -631.751
525.376; 1093.904; -143.124;   78.223
525.658;  670.323; -441.136; -339.754
525.940;   13.566; -805.131; -671.764
526.222;   57.401; -188.136;  -88.755
526.504;  162.114; -190.131;   32.237
526.786;  304.923; -960.133; -647.760
527.068;  457.410; -124.123;  -67.778
527.349;  238.394; -865.137; -774.754
527.631;  156.306; -137.132;   22.238
527.913;  103.651; -664.127; -450.771
528.195;  125.689; -761.125; -639.774
528.477;  189.490;  -93.134;  -30.758
528.759;   95.302; -648.130; -522.766
529.040;   36.383; -569.123; -293.778
529.322;   39.516; -235.125;  -10.774
529.604;  169.479;  -47.130;   93.233
529.886;  192.733; -546.126; -302.773
530.167;  148.022;  232.870;  192.235
530.449;   39.459;    1.853;   63.265
530.731;   17.765; -572.122; -459.779
531.012;   35.610; -513.120; -216.784
531.294;   64.448; -118.116;  -43.792
531.575;  129.946;  290.875;  538.225
531.857;   33.660; -548.135; -266.757
532.138;   97.509; -113.141;   40.254
532.420;  208.232;  294.865;  403.244
532.701;  312.400; -722.133; -751.760
532.983;  470.828;  232.867;  182.239
533.264;  182.456; -243.126;  175.228
533.546;  -28.999; -491.136; -508.755
533.827;   56.522;  173.867;   -1.759
534.109;   65.010; -352.135;  -80.757
534.390;  120.610; -725.132; -582.762
534.671;  268.032; -270.135;  -82.756
534.953;  136.511; -751.123; -611.779
535.234;   14.658; -426.117; -255.789
535.515;  -83.032; -891.119; -735.785
535.796;  -21.628; -431.128; -193.770
536.078; -113.646;-1050.124; -904.777
536.359;   -3.063;  -22.123;    3.221
536.640;    3.990; -480.125; -197.774
536.921;  173.085;  225.871;  143.232
537.202;  337.356;  -87.138;  -16.751
537.483;  386.444;  251.869;  377.236
537.764;  143.522;   17.870;   98.235
538.045;  -41.536; -543.134; -371.758
538.326;  -27.089; -596.129; -447.768
538.607;   17.527; -686.127; -476.771
538.888;  133.027;   98.879;    5.218
539.169;  145.696; -704.122; -535.781
539.450;  303.234;  236.871;   16.233
539.731;  224.730; -361.121; -182.783
540.012;  144.510;  199.880;  412.216
540.293;   93.899;   82.876;  158.224
540.574;   32.743; -895.113; -717.796
540.855;  449.379;  435.879;  377.218
541.136;  520.244;   47.878;  139.220
541.416;  253.453; -161.130; -220.766
541.697;  154.014; -274.131; -170.763
541.978;  841.934; -270.135; -315.757
542.259; 1060.552; -211.127; -236.771
542.539;  520.892; -191.116; -186.790
542.820;  192.970;  461.875;  480.225
543.101;  128.173;  -52.145;  -77.738
543.381;   38.002; -638.127; -591.771
543.662;  238.799;  159.873; -254.771
543.942;  455.948; -751.127; -830.770
544.223;  857.070;  193.878;  161.219
544.504;  559.829; -275.124; -182.777
544.784;  473.583; -592.126; -408.773
545.065; 1380.045;  104.884; -254.791
545.345; 1614.743;  227.881;   14.215
545.626; 1075.692;  -14.113; -108.796
545.906;  704.221;   77.869;   98.235
546.186;  276.762;   92.874;  -95.773
546.467;  155.406;   99.877;  -95.778
546.747;  275.092;  264.884;  327.210
547.027;  297.652;   91.876;  111.223
547.308;  257.822; -376.127; -530.770
547.588;  325.937;  299.871;  371.232
547.868;  175.347;  458.870;  588.235
548.149;  176.103;  609.885;  593.207
548.429;  100.775; -347.127; -299.771
548.709;  126.460; -645.120; -461.784
548.989;  363.828;   84.882;   88.213
549.269; 1675.580;   10.868;  139.239
549.550; 3875.235;  215.877;  117.222
549.830; 3436.434; -758.111; -556.799
550.110;  667.166; -468.110; -320.801
550.390;  677.815; -128.122;  -56.779
550.670;  888.713; -868.114; -783.795
550.950;  624.479; -509.121; -471.782
551.230;  188.375;  549.879;  460.218
551.510;  -17.623; -381.121; -326.782
551.790;   33.499; -173.109; -127.803
552.070;  224.881;  940.877; 1181.223
552.350;  282.347; -492.119; -377.786
552.630;  455.448;   -2.121;   77.219
552.909;  284.596;  181.884;   73.209
553.189;  189.086;  -49.132;   33.237
553.469;  136.822; -703.119; -514.786
553.749;  134.403; -469.127; -357.772
554.029;  114.937;   33.883;  -24.790
554.308;  106.182; -154.115;  -37.794
554.588;   29.921; -196.128; -204.770
554.868;   33.779; -366.121;  -47.782
555.147;  108.404; -114.115;  -46.793
555.427;  463.548; -260.116; -250.792
555.707; 3072.452; -284.115; -200.793
555.986; 3677.537; -719.111; -538.800
556.266; 1920.290;   23.884;   72.210
556.546;   66.377; -888.121; -675.782
556.825;  168.511; -657.114; -556.794
557.105; 1426.994; -125.128;   17.230
557.384; 1661.995;  122.884;  187.209
557.664;  615.173; -717.116; -508.792
557.943;   65.579; -557.121; -411.782
558.222;  133.556; -345.118; -344.788
558.502;  221.155; -116.115;  -76.793
558.781;  423.851;  194.885;  499.208
559.061;  321.630; -232.118; -227.788
559.340;  232.085;  302.883;  353.211
559.619;  550.990;   93.884;  148.210
559.899;  782.837; -239.117; -266.789
560.178;  714.630; -778.115; -593.793
560.457; 2466.713; -623.117; -562.790
560.736; 3456.864; -472.111; -482.800
561.015; 2250.267; -500.128; -502.769
561.295;  312.143;  180.893;  215.193
561.574;  289.227;  119.885;  116.207
561.853;  437.678;  274.891;  303.197
562.132;  397.007;  -45.114;  182.206
562.411;  344.798;  396.879;  553.219
562.690;   79.726; -592.115; -458.792
562.969;  128.074;  472.888;  630.203
563.248;  462.896; 2966.878; 2487.219
563.527;  206.013; -290.111; -408.800
563.806;  276.825; -650.127; -521.771
564.085;  322.358; -297.105; -206.810
564.364;  168.265; -594.117; -405.790
564.643;  369.223; -276.121; -223.781
564.922; 1452.672;  221.890;  397.198
565.201; 1445.276; -640.109; -700.803
565.479;  619.899; -297.115; -219.792
565.758;  248.844; -810.128; -712.770
566.037;  391.602; -155.109; -100.803
566.316;  184.370; -286.116;  -28.791
566.595;   27.627;  -17.115;  -12.793
566.873;   84.065; -166.111;  -79.801
567.152;  -68.127; -490.113; -590.797
567.431;   -5.509; -113.116;    6.210
567.709;   -8.032; -344.107; -212.807
567.988;  192.111; -810.114; -769.794
568.266;  420.227; -160.115;  -68.793
568.545;  289.553; -644.100; -514.819
568.824;  434.449;  160.885;  356.208
569.102;  420.510; -351.114; -235.794
569.381;  160.598; -492.116; -407.792
569.659;  -55.480; -553.113; -553.796
569.938;   16.569; -743.122; -465.780
570.216;   72.479; -225.109; -225.804
570.494;  -30.637; -632.114; -572.795
570.773;   48.102;  202.879;  114.218
571.051;    5.434; -373.123; -357.778
571.330;   41.918; -221.113; -174.796
571.608;   31.670; -181.098; -173.823
571.886;  -79.793; -671.111; -581.799
572.164;  -74.171; -739.121; -621.782
572.443;  -55.489; -562.105; -512.811
572.721;  -35.936; -399.117; -289.790
572.999;  -31.593; -280.117; -168.788
573.277;   76.105;  379.894;  620.191
573.555;  210.557;   94.894;   37.190
573.834; 1034.707;  -86.117; -114.788
574.112; 1226.571;  880.893;  811.193
574.390;  365.214; -143.111;  -96.801
574.668;   -8.200;  -91.112;  -61.797
574.946;   -9.218; -165.106; -187.810
575.224;    4.326;   71.891;  -16.803
575.502;  -10.882; -200.116; -204.791
575.780;  -82.175; -767.112; -829.798
576.058;  224.763; 1589.889; 1004.200
576.336;  -27.231; -210.110; -129.801
576.614;  -56.824; -511.112; -340.798
576.891;    8.431; -711.115; -823.794
577.169;  388.987; -158.108; -285.805
577.447;  450.320;  169.893;  202.193
577.725;  227.055;  629.888;  854.201
578.003;   10.703;  -71.112; -371.798
578.280;   77.420; -208.104; -242.812
578.558;   67.605; -450.115; -422.793
578.836;  136.863; -210.114; -145.795
579.114;   49.974; -630.112; -670.797
579.391;   81.134;   -6.117;  -18.789
579.669;  -74.243; -595.114; -704.794
579.947;  137.467; -326.107; -127.806
580.224;  237.992; -692.107; -524.806
580.502;  236.071;  127.893;   76.193
580.779;   20.739;  -42.117;   75.210
581.057;  -67.595; -584.109; -470.804
581.334;  -93.191; -726.102; -695.815
581.612;   35.333;   54.895;  511.190
581.889;  -20.378;  -83.101; -129.818
582.167;  -37.864; -298.099; -190.821
582.444; -101.133; -845.102; -814.817
582.721;   99.067;  657.899;  715.183
582.999;   32.183; -326.100; -167.821
583.276;  376.788; -812.123; -713.779
583.553;  535.062; -364.102; -294.816
583.831;  169.692; -607.104; -631.812
584.108;   33.010;  349.892;  174.195
584.385;   -7.966; -122.102;  -98.815
584.662;  -86.185; -651.111; -828.801
584.940;   13.965;  204.889;  204.199
585.217;  -15.706;  -73.113; -303.796
585.494;   20.048;   71.890;  118.198
585.771;  163.305; -250.109; -354.804
586.048;  407.369; -196.113;  -76.796
586.325;  247.068; -721.110; -773.801
586.602;   76.895;  230.896;  213.188
586.879;  -37.270; -499.100; -580.820
587.156;   44.459; -156.105; -331.810
587.433;  -44.885; -701.102; -667.817
587.710;   53.476;  152.888;  234.202
587.987;  253.489; -264.105; -236.811
588.264;  685.828;  315.888;  387.202
588.541; 1123.798;  -61.104;   26.187
588.818; 2244.858;   72.892;  171.196
589.095; 1920.943; -163.104; -174.812
589.371;  304.553; -459.109; -414.804
589.648;  -12.779; -581.107; -437.807
589.925;    2.114; -517.114; -621.795
590.202;  -12.474; -741.112; -607.798
590.478;   63.116; -166.105;  -73.811
590.755;  192.488; -241.108; -132.806
591.032; 1920.670; -741.110; -699.802
591.308; 2691.134; -732.094; -790.831
591.585; 1339.769; -573.110; -560.802
591.862;   82.341;-1056.102; -950.817
592.138;   26.086; -475.108; -474.805
592.415;  117.921; -486.104; -495.813
592.691; 1224.844;  460.896;  518.188
592.968; 1550.847; -208.098; -123.824
593.244;  715.942; -695.116; -595.790
593.521;   52.467; -105.102;  -42.817
593.797;  -42.058; -810.122; -720.780
594.074;  250.884; -611.096; -588.826
594.350;  555.570;  828.905;  729.172
594.626;  229.190; -303.111; -283.801
594.903;   76.217; -643.101; -645.817
595.179;  142.700;  243.896;  418.187
595.455;   10.322; -136.107; -150.807
595.731;    1.001;  -19.103;  -38.814
596.008;  -50.515; -464.111; -434.800
596.284;   22.932; -187.100; -242.820
596.560;   33.565; -501.093; -493.833
596.836;  147.911; -173.105;  -70.810
597.112;  263.037; -582.108; -437.805
597.388;  227.132;  -49.097;  -48.826
597.665;   96.772;  437.887;  530.203
597.941;  -70.132; -572.089; -658.839
598.217;    5.623; -323.110; -293.802
598.493;  204.957;   61.891; -204.804
598.769;  414.651; -175.100;  -50.819
599.045;  218.590; -490.108; -562.806
599.321;   30.506; -193.100; -261.820
599.597;   92.756; -355.109; -476.804
599.872;  400.648;  409.896;  429.187
600.148;  271.783;  -61.097; -172.826
600.424;  218.719;   91.893;  202.193
600.700;  181.871; -170.107; -280.807
600.976;   81.228; -442.097; -464.825
601.252;  181.953; -226.109; -272.803
601.527;  142.148; -833.104; -840.813
601.803;  107.691; -453.105; -404.812
602.079;  150.676; -124.100; -118.819
602.354;  446.199; -620.092; -531.835
602.630;  647.694; -140.113; -482.796
602.906; 1797.497; -910.101; -863.818
603.181; 5341.797; -627.119; -534.786
603.457; 4616.006;   98.903; -278.826
603.733;  649.431; -605.120; -626.783
604.008;  756.158; -245.106; -164.810
604.284; 2485.618; -636.101; -580.817
604.559; 2157.180;   -3.112;  -42.799
604.835;  375.961; -163.105; -225.810
605.110;  300.936; -732.099; -892.821
605.385;  569.817;  224.907;  267.167
605.661;  482.447; -625.095; -729.829
605.936;  887.890; -664.108; -737.806
606.211;  772.108;  -17.103; -170.815
606.487;  142.109; -329.114; -376.794
606.762;   -9.128; -791.119; -745.786
607.037;  -34.664; -501.105; -433.810
607.313;  -37.884; -589.096; -574.828
607.588;  -14.768; -375.106; -137.810
607.863;   19.897;  -28.101; -143.818
608.138;  155.147;  513.890;  516.198
608.413;    2.990; -576.099; -592.822
608.688;   19.186; -203.108; -267.805
608.964;  135.102; -509.106; -218.809
609.239;  180.308; -107.105; -212.810
609.514;  201.616;  281.895;  240.188
609.789;  500.895; -187.104; -716.812
610.064;  686.515; -435.096; -609.827
610.339;  663.053; -855.109; -799.804
610.614;  908.956; -131.100; -315.820
610.889;  502.041;  215.895;  107.188
611.163;   19.542; -407.104; -591.812
611.438;   61.435;   81.886; -167.794
611.713;   -7.582; -467.101; -499.817
611.988;   26.246; -144.101; -328.818
612.263;  -41.516; -771.102; -717.815
612.538;  173.894;  385.887;  251.204
612.812;   99.558; -832.100; -911.820
613.087;   82.645; -358.098; -338.823
613.362;  -58.828; -497.107; -557.807
613.637;   15.354;  261.897;  138.186
613.911;  -28.275; -256.092; -345.835
614.186;   85.920; -249.107; -292.807
614.460;  486.090; -842.081; -758.854
614.735;  607.740;  -55.087;  -17.843
615.010;  105.706;   43.912;  -82.841
615.284;  183.436;  360.892;  246.195
615.559;  275.249; -792.092; -955.835
615.833;  245.063;  -76.099;  -87.822
616.108;  -18.315; -225.090; -390.837
616.382;  114.217;  274.913;  402.156
616.656;  107.136; -241.090; -232.837
616.931;  380.839; -785.099; -700.822
617.205;  830.249; -973.104; -979.813
617.480;  795.568;  -91.125;    6.225
617.754;  101.916; -396.125; -128.774
618.028;  -17.637; -369.129; -382.768
618.302;   37.609;   73.892;  -25.805
618.577;  -61.920; -371.103; -518.815
618.851;  -64.300; -399.109; -600.803
619.125;  -58.580; -335.134; -378.759
619.399;  -33.276; -244.104; -374.813
619.673;  -58.676; -330.115; -515.792
619.947;  -50.862; -333.114; -448.795
620.222;  -22.559; -198.110; -204.801
620.496;  -22.546;  -47.121;  -96.782
620.770;   -8.429; -187.122;  -93.781
621.044;  186.759;  323.895;  346.190
621.318;  599.782; -653.120; -614.783
621.592;  507.655; -430.121; -409.783
621.866;  256.181; -476.112; -572.799
622.140;   -3.307; -207.116; -356.791
622.413;   38.260;  138.889;  112.200
622.687;  -50.231; -746.101; -492.817
622.961;    9.734; -130.108; -143.805
623.235;  -64.539; -633.111; -661.800
623.509; -106.735; -816.105; -848.811
623.783;   -5.382;  -12.107;   48.193
624.056;  -22.867; -254.120; -280.783
624.330;   29.575;   63.888;   -3.797
624.604;   24.365; -271.116; -355.790
624.877;   49.471;  180.890;   26.198
625.151;   15.783; -249.114; -238.794
625.425;  -48.099; -150.103; -283.814
625.698;  -66.908; -367.119; -374.785
625.972; -106.552; -799.110; -765.802
626.245;   74.117;  685.884;  484.210
626.519;  -43.613; -426.120; -340.784
626.792;  -32.829; -192.107; -380.807
627.066;  -80.686; -485.122; -662.779
627.339; -108.031; -736.110; -663.802
627.613;   32.135;  351.880;  148.216
627.886;   40.025;  187.891; -612.803
628.160;  -23.619;  312.880; -161.783
628.433;  -92.704; -695.125; -703.775
628.706;  -81.988; -517.120; -615.784
628.979;   22.852;  296.876;  117.223
629.253; -101.879; -785.119; -833.786
629.526;  261.331; -334.126; -253.772
629.799;  243.409; -641.123; -479.778
630.072;   97.039; -497.128; -516.769
630.346;  -86.633;-1115.116;-1080.790
630.619;  340.847; -467.107; -545.808
630.892;  501.486;  709.889;  593.200
631.165;  271.824;  790.896;  679.187
631.438; -104.347;-1092.112;-1055.798
631.711;   51.137;  453.877;  257.221
631.984;  -67.488; -523.117; -624.789
632.257;  -86.141; -636.117; -681.789
632.530;  -51.133; -412.119; -433.785
632.803;    2.406; -109.115;    7.207
633.076;  -81.519; -360.123; -422.777
633.349;    7.943;  173.872;  121.231
633.622;  -49.359; -187.119; -240.785
633.895; -146.492; -903.120; -823.783
634.167;  -85.642; -496.126; -525.773
634.440;  -22.302;  -19.116; -137.792
634.713;  -12.905;  -22.119; -120.786
634.986;   72.633;  593.871;  453.233
635.258;  -90.621; -507.115; -597.793
635.531;   85.355;  742.882; -343.788
635.804;  -17.764; -303.117; -318.789
636.077;  -91.206; -830.116; -852.791
636.349;  -29.997; -586.115; -474.793
636.622;  345.256; 1695.874; 1392.228
636.894;  154.262; -474.120; -909.784
637.167;   94.150; -836.127; -789.771
637.439;   14.646; -278.128; -213.770
637.712;  -54.143; -312.126; -293.772
637.984;  -96.505; -635.116; -707.791
638.257;  325.982;  515.877;  488.222
638.529;  464.072; -881.125; -924.776
638.802;  215.964; -508.128; -449.769
639.074; -116.780; -927.122; -952.781
639.346; -130.013; -942.135; -930.757
639.619;   -3.701;  -79.142; -319.744
639.891;  -13.011;  -83.122; -168.779
640.163;  -74.709; -689.122; -756.780
640.435;   29.768;  273.878;  103.220
640.708;   -1.831;  -72.122; -132.780
640.980;  -48.704; -366.122; -362.781
641.252;  167.773;  -25.121;  -71.781
641.524; 1562.550;  580.879;  573.219
641.796; 1577.902;-1094.121; -907.782
642.068;  283.528; -191.121; -300.782
642.340;  -57.920; -486.121; -566.783
642.613;   19.207;  294.880;  323.217
642.885; -118.491; -787.120; -878.783
643.157;  -67.190; -810.120; -658.784
643.428;   44.412;  170.880;  218.216
643.700;  -67.636; -498.120; -425.784
643.972;  -33.534;  -16.119; -133.785
644.244;  -96.783; -474.119; -559.785
644.516;  -58.581; -250.119; -114.786
644.788;   47.746;  662.881;  548.214
645.060;  -22.702;  -12.119; -124.786
645.332; -107.376; -525.118; -535.787
645.603;   33.876;  479.882;  342.213
645.875;  -73.447; -334.118; -369.787
646.147;  138.880; 1487.882; 1242.212
646.418;  -81.519; -931.117; -918.788
646.690;   58.408; -714.117; -715.789
646.962;    5.135; -413.117; -451.789
647.233;  -16.063;   15.883;   11.211
647.505; -109.637; -595.117; -475.790
647.776;   22.040;  328.884;  229.210
648.048;  -38.208; -248.116; -418.790
648.320;  -84.931; -752.116; -679.791
648.591; -138.505;-1055.116; -958.791
648.862;  -86.678; -505.116; -577.792
649.134;    4.874;  115.885;  198.208
649.405;  -57.699; -661.115; -618.792
649.677;  -69.297; -475.115; -598.793
649.948;  -15.646; -181.115; -296.793
650.219;   -6.894;  -37.115; -147.793
650.491;  -79.942; -431.114; -520.794
650.762; -122.865; -705.114; -731.794
651.033;  -92.814; -437.114; -424.795
651.304; -107.937; -743.114; -728.795
651.576;  -83.410; -680.114; -645.795
651.847;  -46.083; -250.113; -140.796
652.118;  -29.232;  -32.113; -189.796
652.389; -112.680; -639.113; -722.796
652.660;  -29.778; -147.113;  -89.797
652.931; -142.626; -897.112; -871.797
653.202;  -93.425; -382.112; -541.798
653.473;  -71.773; -633.112; -533.798
653.744;  102.829; -595.112; -590.798
654.015;  100.931; -356.112; -303.799
654.286;  -78.118; -642.111; -663.799
654.557;  -69.916; -586.111; -521.799
654.828; -158.239;-1114.111;-1088.800
655.099;  -78.312; -404.111; -291.800
655.370;  -87.011; -427.111; -543.801
655.641; -135.634; -656.110; -714.801
655.911;  -94.882; -618.110; -638.801
656.182;   46.445;  437.890;  387.198
656.453;   87.746;  830.890;  746.198
656.724;  -68.927; -466.110; -426.802
656.994;  -92.075; -553.109; -568.803
657.265; -111.798; -862.109; -873.803
657.536;  -88.896; -500.109; -377.804
657.806; -114.220; -561.109; -593.804
658.077; -135.543; -866.109; -950.804
658.347;  -88.816; -523.108; -598.805
658.618; -123.939; -646.108; -694.805
658.888;  -20.988;  -41.108;  112.195
659.159;  -69.936; -432.108; -548.806
659.429;  -33.784; -292.108; -349.806
659.700;   10.918; -435.107; -390.807
659.970;  -36.181; -370.107; -359.807
660.241;  -21.329; -754.107; -921.807
660.511;  409.923; -147.107; -174.808
660.781;   58.500; -793.106; -748.808
661.052;  -52.324; -222.106; -381.808
661.322;  -28.172;   21.894;   -9.809
661.592;   -3.620;  257.894;  148.191
661.862;  -69.593; -369.106; -382.810
662.133; -100.067; -551.105; -502.810
662.403; -122.240; -770.105; -676.810
662.673;  -57.913; -256.105; -213.811
662.943;  -98.686; -612.105; -551.811
663.213;  -16.310;  -85.105;  -81.811
663.483;  -82.033; -593.104; -568.812
663.753;  -55.056; -194.104; -152.812
664.023;  -18.954;   68.896;  -32.813
664.293;  -63.228; -319.104; -126.813
664.563; -113.476; -694.104; -648.813
664.833; -118.299; -743.103; -608.814
665.103; -138.922; -730.103; -793.814
665.373; -113.545; -766.103; -806.814
665.643;  -99.844; -863.103; -918.815
665.913;   14.258; -534.103; -714.815
666.182;   88.810; -685.102; -719.816
666.452;  201.912;  -22.102;  -89.816
666.722;  -32.012; -724.102; -784.816
666.992; -131.485; -948.102; -921.817
667.261; -108.583; -824.102; -808.817
667.531;  188.794;  134.899;   45.183
667.801;  513.695; -440.101; -412.818
668.070;  224.522;  714.899;  697.182
668.340; -124.551; -883.101; -840.819
668.609;   69.551;  588.900;  301.181
668.879;  -77.198; -490.100; -558.819
669.149;  -87.446; -539.100; -516.820
669.418; -100.094; -698.100; -726.820
669.688;  -47.092; -482.100; -666.820
669.957;   37.484; -423.099; -546.821
670.226;  -37.114; -268.099; -331.821
670.496;  -96.637; -431.099; -635.822
670.765;  -90.960; -418.099; -501.822
671.034; -139.459; -872.099; -828.822
671.304;  -24.032;   55.902; -111.823
671.573; -159.655;-1085.098; -957.823
671.842;   33.072; -380.098; -294.823
672.112;   -6.452; -692.098; -586.824
672.381;  -13.300; -239.098; -214.824
672.650; -134.723;-1005.097;-1021.825
672.919;  -99.846; -631.097; -507.825
673.188; -118.094; -681.097; -878.825
673.457; -168.593;-1101.097;-1143.826
673.726;  -88.716; -579.096; -646.826
673.995;  -49.739; -533.096; -479.826
674.265;  -34.137; -263.096; -333.827
674.534;   -6.236; -183.096; -235.827
674.802;   -6.709; -618.096; -703.828
675.071;  764.868; -886.095; -801.828
675.340; 3145.520; -464.095; -339.828
675.609; 1048.921;  103.905;   82.171
675.878;   34.998; -949.095; -893.829
676.147;   31.300;  -26.095;   -8.829
676.416;   48.227; -210.094; -294.830
676.685;  597.778; 1000.906; -622.830
676.953;   55.230; -603.094; -452.831
677.222;  -34.418; -193.094; -273.831
677.491;  -36.416;  -24.094; -127.831
677.759;  -17.140;   11.907;  172.168
678.028;  -40.888; -279.093; -222.832
678.297;  -15.361;   71.907;  197.168
678.565; -153.259; -898.093; -944.833
678.834;  -53.308; -311.093; -268.833
679.102;  -81.756; -411.092; -391.834
679.371; -139.729; -898.092; -727.834
679.639; -136.877; -797.092; -786.834
679.908; -120.351; -794.092; -724.835
680.176; -158.249; -895.091; -941.835
680.445;  -69.422; -346.091; -352.835
680.713;  -21.270;  -58.091;  -23.836
680.982; -104.243; -523.091; -525.836
681.250; -119.442; -578.091; -507.837
681.518;  -96.515; -534.090; -751.837
681.787;  -28.413; -204.090; -167.837
682.055;  -74.461; -490.090; -422.838
682.323; -144.485; -993.090; -992.838
682.591;    3.092; -216.090; -538.838
682.859;   53.144;    9.911;  -35.839
683.128;    7.721;  232.911;  497.161
683.396; -168.228;-1102.089;-1122.840
683.664;  -54.701; -241.089;   21.160
683.932;   -1.599;  144.911;  -76.840
684.200;  -93.372; -576.088; -320.841
684.468;  -29.996;  -73.088; -124.841
684.736;  -28.944; -214.088; -175.841
685.004; -135.067;-1024.088; -982.842
685.272;  -75.040; -880.088; -774.842
685.540;  -79.589; -499.087; -557.843
685.808; -102.962; -651.087; -682.843
686.076; -116.035; -894.087; -969.843
686.343;  -78.758; -601.087; -815.844
686.611;   12.118; -195.087; -224.844
686.879;  344.045; -530.086; -553.844
687.147; 2628.472; -483.086; -480.845
687.414;  764.749;  -12.086; -169.845
687.682;  -34.475; -658.086; -757.846
687.950;  250.477;  259.915;  263.154
688.217;   -8.071; -792.085; -760.846
688.485;  -26.644; -632.085; -636.847
688.753;  402.008;  -11.085; -102.847
689.020;  104.209; -820.085; -851.847
689.288; -107.414; -853.084; -787.848
689.555;  -44.937; -195.084; -148.848
689.823;  -36.960; -241.084; -345.849
690.090;  -79.784; -546.084; -651.849
690.358; -159.082; -877.084; -897.849
690.625;   -2.980;  120.917;   45.150
690.892;  -81.278; -403.083; -369.850
691.160;  -14.527;   72.917;  -35.850
691.427;    1.775;  141.917;  130.149
691.694; -141.823; -855.083; -929.851
691.962; -160.021;-1177.082;-1060.852
692.229;   13.955;  127.918;   56.148
692.496;   57.507;  130.918;  -49.852
692.763;   12.109; -164.082; -201.853
693.031;  -78.889; -739.082; -716.853
693.298;  -48.838; -509.081; -368.853
693.565;  230.464; -155.081; -163.854
693.832; 1022.891;   -5.081;   -9.854
694.099;  107.318; -643.081; -642.855
694.366;  -75.381; -882.081; -896.855
694.633;  -63.229; -920.080; -633.855
694.900;  723.223; 4367.920; -114.856
695.167;  333.475; -214.080; -380.856
695.434;   86.801; -646.080; -623.856
695.701;  171.828;  121.921;  -61.857
695.968;  383.230; -365.079; -361.857
696.234;  914.457; -415.079; -646.858
696.501;10126.934; -776.079; -614.858
696.768; 5200.560; -554.079; -617.858
697.035;  293.712; -632.078; -667.859
697.302;   23.664; -448.078; -552.859
697.568;    7.266; -458.078; -497.859
697.835;  -41.183; -683.078; -624.860
698.102;  -16.956; -498.078; -407.860
698.368;   85.996;  384.923;  396.139
698.635;  -53.752;  -47.077; -424.861
698.901;  -29.826; -240.077; -348.861
699.168;   17.676; -534.077; -456.862
699.435;   43.928;  -72.077;  -13.862
699.701;  -98.245; -868.076; -764.862
699.968;    8.581;  144.924; -441.863
700.234; -118.117; -783.076; -822.863
700.500;  -59.490; -448.076; -539.864
700.767;   -4.113;   -1.075;   26.136
701.033; -134.062;-1015.075; -963.864
701.299;  -64.185; -450.075; -483.865
701.566;  112.842;  950.925;  763.135
701.832;   16.544;  -31.075;  -76.865
702.098; -102.705;-1054.074;-1034.866
702.365;  -99.003;-1098.074;-1030.866
702.631;  -52.776;-1038.074;-1063.867
702.897; 1165.001; -765.074; -676.867
703.163; 1990.177;  348.926;  254.133
703.429;  133.254; -256.073; -273.868
703.695;  -40.894; -796.073; -792.868
703.961;   20.683; -214.073; -210.868
704.227;  -67.065; -630.073; -725.869
704.493;  122.286;  613.927;  510.131
704.759;  -21.312; -565.072; -540.870
705.025;   25.090; -203.072; -194.870
705.291;  -15.858; -666.072; -562.870
705.557;  199.593;  719.928;   34.129
705.823;   37.170; -742.072; -694.871
706.089;  138.722; -307.071; -326.871
706.355;  378.574; -315.071; -244.872
706.620; 5822.325; -776.071; -729.872
706.886; 7976.227; -309.071; -362.873
707.152;  712.329; -818.070; -973.873
707.418;  -12.019;-1153.070;-1186.873
707.683;   -3.318; -550.070; -530.874
707.949;  -47.441; -547.070; -578.874
708.215;  -14.364; -129.070; -207.874
708.480;  -40.087; -520.069; -420.875
708.746;   77.039;   68.931;   28.125
709.011;  -67.584; -578.069; -612.876
709.277;  -83.482; -538.069; -543.876
709.542;  -49.705; -428.069; -387.876
709.808;   -7.704;  -59.068;   89.123
710.073;  -91.227; -577.068; -695.877
710.339;  -29.075; -242.068; -228.877
710.604;   55.452; -780.068; -845.878
710.869;  279.203; -277.068; -366.878
711.135;  -79.195; -715.067; -628.879
711.400;  -80.043; -507.067; -608.879
711.665;  -62.866; -404.067; -479.879
711.931;  -97.414; -661.067; -677.880
712.196; -119.313; -876.067; -954.880
712.461;   61.714; -402.066; -490.880
712.726;   89.766; -727.066; -771.881
712.991; -102.232; -647.066; -664.881
713.256;  -50.181; -350.066; -332.882
713.521;  -48.329; -417.065; -381.882
713.787;  -75.502; -454.065; -472.882
714.052;  -26.275; -214.065; -400.883
714.317;  -89.799;-1045.065; -981.883
714.581; 1054.253; -374.065; -268.883
714.846; 1514.855; -822.064; -888.884
715.111;  124.382;  261.936;  257.116
715.376;  -34.667;  -86.064; -223.885
715.641;  -19.590; -365.064; -367.885
715.906;  247.837;   15.936; -551.885
716.171;  110.414;  221.937;  209.114
716.436;   23.690;  -78.063; -104.886
716.700; -105.733; -818.063; -692.886
716.965; -130.031; -794.063; -807.887
717.230;  -80.554; -339.063; -392.887
717.494;  -34.428;  -40.062; -134.888
717.759;  -84.026; -784.062; -640.888
718.024;   -9.124;  269.938;  250.112
718.288;   80.328;  685.938;  395.111
718.553; -153.571; -803.062; -977.889
718.817; -153.769; -883.061; -899.889
719.082;  -36.642; -115.061; -125.890
719.346; -138.540;-1000.061; -947.890
719.611;  -61.463; -300.061; -255.891
719.875;  -99.487; -568.060; -537.891
720.140;  -63.060; -453.060; -603.891
720.404;   12.767; -136.060; -249.892
720.668;  660.394; -475.060; -411.892
720.933;  286.145;  146.940;  137.108
721.197; -106.403; -667.059; -600.893
721.461; -136.776; -851.059; -826.893
721.725;  -14.124;  -21.059; -250.894
721.990;  -65.198; -284.059; -204.894
722.254;  -32.046;  -26.059; -108.894
722.518;  -73.894; -286.058; -442.895
722.782;  -83.417; -743.058; -594.895
723.046;  102.884;  614.942;  570.105
723.310;   28.786;  374.942;  210.104
723.574; -103.162; -654.058; -614.896
723.838; -107.535; -576.057; -642.897
724.102;  -37.709; -226.057; -239.897
724.366; -135.807;-1032.057; -978.897
724.630;  -97.705; -749.057; -571.898
724.894;  -76.528; -722.057; -514.898
725.158;  -19.677;   38.944; -295.898
725.422;  -48.450; -394.056; -327.899
725.685;  -78.298; -441.056; -349.899
725.949;  -85.221; -566.056; -519.900
726.213;  -82.570; -732.056; -811.900
726.477;  106.282;-1020.055; -933.900
726.740;  114.959; -274.055; -104.901
727.004;  300.636; -384.055; -510.901
727.268; 3350.538; -442.055; -400.901
727.531;  920.189; -961.055; -775.902
727.795;  -52.584; -713.054; -673.902
728.059;  -55.907; -552.054; -557.903
728.322;  -72.355; -841.054; -669.903
728.586;   14.546; -692.054; -701.903
728.849;  -87.352; -695.053; -756.904
729.112; -116.450; -812.053; -912.904
729.376; -134.723; -959.053; -905.904
729.639;  -75.447; -536.053; -536.905
729.903; -112.920; -733.053; -699.905
730.166;  -59.768; -437.052; -399.906
730.429;  -31.091; -317.052; -468.906
730.693;  -73.590; -355.052; -894.906
730.956;  167.562;  810.948;  651.093
731.219;  571.439; -310.052; -103.907
731.482;   81.166;-1003.051; -894.907
731.745;   60.092; -794.051; -935.908
732.009;   11.719;  -30.051;   50.092
732.272; -101.629; -904.051; -771.909
732.535;  -47.427; -300.051; -310.909
732.798; -153.251;-1083.050;-1166.909
733.061;  -60.249; -430.050; -456.910
733.324;    3.528;   31.950; -180.910
733.587;   74.630;  290.950;  365.090
733.850;  -88.994; -973.049;-1050.911
734.113;   36.758;   33.951;   32.089
734.376;  -24.065; -328.049; -447.912
734.639;  193.162; 1188.951; 1011.088
734.901;   53.563; -180.049; -402.912
735.164;  405.590; -883.048; -837.913
735.427; 1112.217; -166.048; -355.913
735.690;  106.844; -205.048; -234.913
735.952;  -48.879; -923.048; -925.914
736.215;  -30.078;-1113.048;-1009.914
736.478;   11.999; -771.047; -774.915
736.740;  184.551;   33.953;  129.085
737.003;  544.703; -658.047; -672.915
737.266; 3444.679;  -94.047;   46.084
737.528;  382.756; -682.047; -660.916
737.791;  274.408; -316.046; -327.916
738.053;  749.035;  465.954;  649.083
738.316;10282.161; -162.046; -136.917
738.578; 7400.713; -770.046; -736.918
738.841;  400.565; -382.046; -446.918
739.103;  155.942; -875.045; -777.918
739.365;  437.418;   79.955;  -69.919
739.628;  -19.905; -884.045; -805.919
739.890;  -43.478; -758.045; -710.919
740.152;  -48.051; -692.044; -754.920
740.414;  -29.400; -408.044; -359.920
740.677;  -55.098; -785.044; -634.921
740.939;  -68.896; -587.044; -487.921
741.201;  210.906; -432.044; -572.921
741.463;    1.982; -689.043; -745.922
741.725;    9.684;  -21.043; -199.922
741.987;   50.361;  220.957;  116.078
742.249;  -19.237; -751.043; -859.923
742.511;  158.039; -703.043; -794.923
742.773;   -5.259; -546.042; -546.924
743.035;  118.043;  796.958;  533.076
743.297;  -73.230; -963.042;-1013.924
743.559;  662.872; -278.042; -262.925
743.821;   38.023; -735.042; -744.925
744.083;   -2.775;  -44.041; -149.925
744.345; -103.573; -869.041; -892.926
744.607;   22.154;   75.959;  122.074
744.868;  -61.595; -490.041; -554.927
745.130; -118.218; -994.041;-1008.927
745.392;   24.109;   -1.040;  -44.927
745.653;  -18.689; -411.040; -378.928
745.915;  144.112;  896.960;  631.072
746.177;   39.139;   35.960;  -43.928
746.438;  -12.834; -428.040; -543.929
746.700;  -55.457; -947.039; -988.929
746.961;   -8.356; -659.039; -740.930
747.223;  122.721; -190.039;  -74.930
747.484;   74.323; -391.039; -471.930
747.746;  132.650;  -23.038; -106.931
748.007;   71.276; -647.038; -689.931
748.269;  243.603; -468.038; -440.931
748.530;  419.680; -852.038; -638.932
748.791;  234.082; -354.038; -420.932
749.053;  384.633;  286.963;  163.067
749.314;  402.185; -236.037; -169.933
749.575;  453.937; -945.037; -905.933
749.836;  751.414; -217.037;   86.066
750.098; 2178.415;  -60.037;  -21.934
750.359;32858.142;  414.964;  555.066
750.620; 8655.294; -121.036; -220.935
750.881;  929.821; -585.036; -513.935
751.142; 1216.373; -950.036; -938.936
751.403;15602.024; -789.036; -705.936
751.664; 7148.051;-1034.035; -999.936
751.925;  462.503; -175.035; -262.937
752.186;  256.280; -298.035; -278.937
752.447;  108.206; -590.035; -445.937
752.708;   36.433; -532.035; -648.938
752.969;  -10.715; -566.034; -576.938
753.230;  -27.238; -777.034; -672.939
753.491;  -18.012; -650.034; -631.939
753.751;   57.840;  109.966;   19.061
754.012;   76.267;  258.967;  181.060
754.273;   43.319; -174.033;  -71.940
754.534;   -6.205; -487.033; -580.940
754.794;  -93.828; -926.033; -911.941
755.055;  131.599; 1051.967;  881.059
755.316;  -48.999; -700.032; -566.942
755.576;  -36.623; -606.032; -576.942
755.837;  -60.971; -527.032; -695.942
756.097;  -48.894; -530.032; -564.943
756.358;  -62.117; -725.032; -770.943
756.618;  -63.091; -705.031; -641.943
756.879;    1.436; -254.031; -349.944
757.139; -128.812;-1098.031;-1116.944
757.400;  -52.810; -538.031; -553.945
757.660;  -16.659; -365.031; -401.945
757.920;    8.068; -266.030; -228.945
758.181;  -33.780; -468.030; -351.946
758.441; -112.303; -870.030; -809.946
758.701;  -36.626; -308.030; -215.946
758.961;  -23.375; -220.030; -278.947
759.222;  -55.673; -574.029; -502.947
759.482;  -89.521; -683.029; -723.948
759.742;  -90.919; -706.029; -547.948
760.002;    2.957;  -83.029; -143.948
760.262;   20.684;   50.972;  182.051
760.522;  -37.264; -498.028; -574.949
760.782;  -58.687; -738.028; -612.949
761.042;  -44.461; -618.028; -573.950
761.302;   33.741;   55.972;  -18.950
761.562;   44.918; -164.027; -154.951
761.822;   53.895; -710.027; -551.951
762.082;  -46.154;-1104.027;-1093.951
762.342;   45.273; -328.027; -403.952
762.601;   55.825; -567.027; -506.952
762.861;  317.852; -281.026; -207.952
763.121;  375.628; -406.026; -411.953
763.381; 6933.605; -499.026; -485.953
763.640; 7915.232; -139.026; -307.954
763.900;  330.484; -242.026; -203.954
764.160;   79.910; -458.025; -491.954
764.419;  -16.038; -726.025; -782.955
764.679;  -87.686; -795.025; -726.955
764.939;  -17.959; -124.025; -210.955
765.198;  -88.333; -608.025; -563.956
765.458;  -87.281; -710.024; -612.956
765.717;  -81.554; -454.024; -590.957
765.976;  -60.827; -428.024; -411.957
766.236;  -79.225; -475.024; -610.957
766.495;   10.826;  260.977;   73.042
766.755; -104.972;-1090.023; -987.958
767.014;  -26.170; -594.023; -665.958
767.273;  -59.818; -373.023; -397.959
767.533;  -52.067; -228.023; -307.959
767.792;  -37.115; -151.022; -188.960
768.051;  -62.313; -228.022; -276.960
768.310;  -99.636; -546.022; -650.960
768.569;   -7.460; -161.022;    4.039
768.828;  -50.108; -285.022; -363.961
769.088; -123.181;-1050.021; -942.961
769.347;  -81.929; -755.021; -599.962
769.606;  -75.653; -876.021; -857.962
769.865; -112.101;-1016.021;-1033.963
770.124;  -13.874; -411.021; -336.963
770.383;  -54.522; -778.020; -910.963
770.641;    1.179; -398.020; -400.964
770.900;  -73.394; -953.020; -846.964
771.159;  -45.342; -851.020; -951.964
771.418;    4.060; -917.020; -779.965
771.677;  123.811; -224.019; -293.965
771.936;  154.163; -794.019; -865.966
772.194; 2259.140; -465.019; -437.966
772.453;11455.267; -213.019; -391.966
772.712;  816.118;  416.982;  329.033
772.970;  116.520;   32.982;   63.033
773.229;   70.672;  -22.018;  102.033
773.488;  -85.676; -814.018; -770.968
773.746;   56.726;  296.982;  335.032
774.005;   -0.748;  190.983;  -22.969
774.263;    1.479;  243.983;  177.031
774.522;  -44.219; -422.017; -548.969
774.780;  -71.467; -484.017; -417.970
775.039; -102.041; -551.017; -531.970
775.297;  -22.414; -135.016; -351.970
775.555; -109.687; -489.016; -612.971
775.814; -121.660; -618.016; -570.971
776.072; -125.534; -749.016; -740.971
776.330; -110.032; -630.016; -520.972
776.589; -128.730; -703.015; -721.972
776.847; -133.078; -645.015; -624.973
777.105; -169.727;-1016.015;-1032.973
777.363;  -86.950; -459.015; -454.973
777.621; -133.348; -660.015; -717.974
777.879;  -29.721;  -42.014;   32.026
778.138; -101.345; -554.014; -717.974
778.396; -107.243; -585.014; -526.975
778.654; -157.566;-1015.014; -970.975
778.912;  -61.339; -269.014; -371.976
779.170; -141.738; -880.013; -803.976
779.427; -155.086; -922.013; -897.976
779.685; -130.859; -880.013; -832.977
779.943; -113.632; -654.013; -593.977
780.201; -156.081; -964.012; -883.978
780.459; -102.804; -651.012; -610.978
780.717;  -82.802; -440.012; -390.978
780.974; -107.725; -449.012; -490.979
781.232;  -70.398; -358.012; -338.979
781.490;  -98.497; -551.011; -472.979
781.747; -116.545; -555.011; -476.980
782.005;   16.282;  462.989;  254.020
782.263; -161.791; -542.011;-1004.981
782.520; -101.965; -326.011; -501.981
782.778; -164.613;-1013.010;-1051.981
783.035; -171.486; -962.010; -938.982
783.293;  -65.184; -248.010; -206.982
783.550;  -61.408; -134.010; -198.982
783.808; -140.856; -764.010; -776.983
784.065; -152.704; -745.009; -874.983
784.322;  -56.152;   25.991;  -86.984
784.580; -148.201; -915.009; -771.984
784.837;  -95.599; -392.009; -466.984
785.094; -144.022; -783.009; -762.985
785.352;  -92.770; -304.008; -404.985
785.609; -119.444; -934.008; -839.985
785.866;  -90.392; -345.008; -401.986
786.123;  -86.390; -639.008; -583.986
786.380; -109.463; -665.008; -604.987
786.637;  -51.737; -225.007; -380.987
786.895;  -43.885; -456.007; -543.987
787.152;  -54.833; -135.007; -267.988
787.409;  -46.756; -123.007; -225.988
787.666;  -94.705; -299.006; -378.988
787.923; -114.328; -616.006; -695.989
788.179; -112.651; -551.006; -584.989
788.436; -120.324; -585.006; -585.990
788.693;  -53.372;  -92.006;  -87.990
788.950;   97.904; -125.005; -112.990
789.207;  150.431; -381.005; -372.991
789.464;  -64.392; -161.005; -301.991
789.720;  -16.740;  150.995;  110.009
789.977; -173.364;-1003.005; -671.992
790.234;  -27.362;   44.996;  -66.992
790.490; -167.760; -884.004;-1031.993
790.747;  -22.483;  -85.004;   22.007
791.004;  -44.482; -426.004; -348.993
791.260;  -95.605; -430.004; -560.994
791.517; -119.328; -843.003; -788.994
791.773;  -49.776; -379.003; -342.994
792.030; -113.725; -596.003; -660.995
792.286; -110.298; -686.003; -636.995
792.543;  -34.346;  -74.002; -159.995
792.799;  -53.919; -584.002; -382.996
793.055; -163.418;-1179.002;-1210.996
793.312; -106.116; -827.002; -816.997
793.568;  -60.139; -746.002; -599.997
793.824;   -5.087; -226.001; -284.997
794.081;   17.389; -447.001; -508.998
794.337;   55.466; -664.001; -561.998
794.593; 1162.018; -319.001; -271.999
794.849; 6147.670; -746.001; -772.999
795.105;  313.896; -270.000; -261.999
795.361;    0.873; -490.000; -457.000
795.617;  -63.275; -875.000; -945.000
795.873;  -52.900; -360.000; -407.000
796.129;  -50.850; -368.000; -306.000
796.385;  -24.700; -124.000; -156.000
796.641;   65.000;  412.000;  550.000
796.897;  -81.775; -666.000; -635.000
797.153;   45.325;  453.000;  357.000
797.409; -109.575; -785.000; -868.000
797.665;  -86.650; -625.000; -732.000
797.921;  -81.800; -775.000; -762.000
798.176;  -50.300; -744.000; -747.000
798.432;  -61.175; -824.000; -596.000
798.688;  -87.950;-1174.000;-1078.000
798.943;   66.800; -165.000; -147.000
799.199;   -8.650;-1005.000; -959.000
799.455;  229.750;  369.000;  316.000
799.710;  134.375; -813.000; -380.000
799.966;  311.075; -162.000; -160.000
800.221;  473.025; -638.000; -721.000
800.477; 9929.650; -743.000; -710.000
800.732; 9315.800; -773.000; -800.000
800.988;  653.775;  205.000;  -19.000
801.243; 1925.675; -454.000; -344.000
801.498; 8865.075; -814.000; -739.000
801.754;  509.650; -289.000; -163.000
802.009;   83.850; -257.000; -335.000
802.264;  -51.725; -967.000;-1033.000
802.520;   31.700;  222.000;   -3.000
802.775;  -48.750; -524.000; -359.000
803.030;   35.500;  395.000;  356.000
803.285; -125.900; -840.000; -903.000
803.540;  -58.150; -686.000; -699.000
803.795;  -65.650; -648.000; -583.000
804.051;  -48.350; -279.000; -346.000
804.306;   12.825;  168.000;  128.000
804.561;  117.825;  451.000;  362.000
804.816;  124.500;  714.000;  861.000
805.071;  -20.875; -185.000; -280.000
805.325;  165.050; -257.000; -427.000
805.580;  -98.500; -841.000; -877.000
805.835;  -23.800; -204.000; -297.000
806.090;  -68.000; -760.000; -676.000
806.345;  -34.350; -344.000; -264.000
806.600;  -45.175; -549.000; -632.000
806.854;  -31.550; -408.000; -538.000
807.109;   -9.700; -493.000; -577.000
807.364;    3.300; -407.000; -328.000
807.618;  -11.050; -415.000; -381.000
807.873;   32.125; -470.000; -494.000
808.128;   82.275; -257.000; -518.000
808.382;   98.725; -224.000; -332.000
808.637;   56.650; -440.000; -511.000
808.891;  149.075; -257.000; -180.000
809.146;   74.125; -902.000; -794.000
809.400;  215.525; -848.000; -923.000
809.654;  274.975; -779.000; -551.000
809.909;  443.950; -841.000; -927.000
810.163; 5636.350; -813.000; -651.000
810.418;15476.875; -940.000; -861.000
810.672;  977.575; -685.000; -690.000
810.926;  682.150; -993.000; -973.000
811.180; 1360.125; -439.000; -372.000
811.434;30622.750;  240.000;  135.000
811.689;13193.375; -231.000; -365.000
811.943;  600.725; -936.000; -953.000
812.197;  311.150; -893.000; -671.000
812.451;  135.925; -379.000; -514.000
812.705;  -21.725; -809.000; -619.000
812.959;    2.550; -263.000; -388.000
813.213;  -25.125; -283.000; -209.000
813.467;   55.050;  470.000;  253.000
813.721; -101.850; -764.000; -792.000
813.975; -114.650; -826.000; -877.000
814.229;   44.000;  430.000;  353.000
814.482;  -76.025; -517.000; -566.000
814.736; -127.575; -766.000; -744.000
814.990; -136.600; -779.000; -872.000
815.244;  -47.125; -228.000; -285.000
815.497;  -90.550; -636.000; -601.000
815.751;  -18.000; -141.000;   82.000
816.005; -110.975; -470.000; -586.000
816.258;  -64.900; -510.000; -363.000
816.512; -111.825; -693.000; -610.000
816.766;    3.025;  121.000;  157.000
817.019;    8.350;  148.000;  149.000
817.273; -120.300;-1000.000; -802.000
817.526;  -35.825; -206.000; -173.000
817.779;  -76.525;-1049.000; -960.000
818.033;  -94.225; -693.000; -807.000
818.286; -121.175; -725.000; -792.000
818.540; -104.725; -403.000; -403.000
818.793;  -76.625; -402.000; -489.000
819.046; -102.500; -582.000; -520.000
819.299;  -49.875; -157.000; -166.000
819.553; -108.000; -552.000; -592.000
819.806; -161.075;-1016.000; -838.000
820.059;  -76.050; -334.000; -354.000
820.312;   16.100;  152.000;  185.000
820.565;  -20.025;  110.000;  -27.000
820.818;  -62.275;  -59.000; -173.000
821.071; -164.950;-1041.000; -957.000
821.324; -108.175; -536.000; -540.000
821.577;  -99.425; -457.000; -483.000
821.830;  -82.325; -270.000; -172.000
822.083; -132.300; -733.000; -288.000
822.336;  -53.425; -261.000; -167.000
822.589; -141.525; -805.000; -688.000
822.842; -155.550; -875.000; -770.000
823.094; -181.375;-1076.000;-1114.000
823.347; -144.150; -925.000; -729.000
823.600;    6.650;  402.000;  187.000
823.853;  -52.875; -311.000; -267.000
824.105;  -77.875; -331.000; -575.000
824.358; -120.675; -617.000; -716.000
824.611;   21.400;  234.000;   40.000
824.863;  -60.525; -612.000; -591.000
825.116;   40.000;  -33.000;   27.000
825.368;   60.850; -366.000; -372.000
825.621;  126.800; -186.000; -240.000
825.873;   66.175; -704.000; -737.000
826.126;  529.125; -669.000; -641.000
826.378;11022.950; -389.000; -505.000
826.630; 2905.325; -890.000; -898.000
826.883;   41.775; -754.000; -693.000
827.135;   36.775; -279.000; -270.000
827.387; -117.800; -893.000; -839.000
827.639;  -41.850;  -86.000;   32.000
827.892; -123.625; -742.000; -582.000
828.144; -140.775; -848.000; -804.000
828.396;  -54.675;  104.000;  -80.000
828.648;  -92.225; -440.000; -333.000
828.900; -146.950; -702.000; -795.000
829.152; -125.425; -684.000; -683.000
829.404;  -65.325; -215.000; -267.000
829.656;  -60.600;  321.000;  214.000
829.908;  -33.300;  393.000;  229.000
830.160; -163.200;-1064.000;-1047.000
830.412; -104.175; -481.000; -430.000
830.664; -120.300; -557.000; -665.000
830.916;  -77.875; -268.000; -206.000
831.167; -174.600;-1073.000; -951.000
831.419; -127.750; -623.000; -566.000
831.671; -147.450; -764.000; -809.000
831.923; -100.575; -311.000; -447.000
832.174;  -74.825; -273.000; -331.000
832.426; -118.075; -493.000; -582.000
832.678; -190.650;-1043.000;-1091.000
832.929; -174.100; -947.000; -935.000
833.181;  -85.750; -575.000; -677.000
833.432;  -55.125;  -59.000; -186.000
833.684;  -23.150;  112.000;  -27.000
833.935; -116.700; -610.000; -566.000
834.187; -132.875; -829.000; -823.000
834.438;  -45.050;  -58.000;  -25.000
834.689;  -65.125; -255.000; -123.000
834.941;  -53.275; -343.000; -244.000
835.192; -116.425; -590.000; -533.000
835.443; -111.600; -419.000; -506.000
835.695;  -22.400;  138.000;  -16.000
835.946;  -92.000; -608.000; -378.000
836.197; -120.375; -599.000; -622.000
836.448;  -88.800; -528.000; -395.000
836.699;  -69.250; -253.000; -341.000
836.950;  -13.125;   72.000;    7.000
837.201; -159.150;-1003.000; -987.000
837.452;  -59.700; -356.000; -170.000
837.703; -111.650; -791.000; -737.000
837.954;  -47.200; -205.000; -365.000
838.205;  -88.350;-1029.000;-1008.000
838.456;  124.950; -196.000; -282.000
838.707;  -12.250; -423.000; -519.000
838.958;  -13.250; -634.000; -647.000
839.209;  243.375;   18.000;   40.000
839.460;   87.375; -439.000; -201.000
839.710;  157.875; -135.000; -297.000
839.961;  380.675;  730.000;  612.000
840.212;  290.900; -382.000; -497.000
840.462; 1054.275; -328.000; -277.000
840.713;17121.350; -571.000; -536.000
840.964; 7313.350;  -62.000; -143.000
841.214;  456.300; -384.000; -624.000
841.465;  515.750; -214.000; -141.000
841.715;  445.600; -417.000; -380.000
841.966;  532.725; -746.000; -685.000
842.216; 7393.775; -330.000; -431.000
842.466;30129.725; -169.000; -313.000
842.717; 1800.625; -964.000; -952.000
842.967;  254.875; -635.000; -641.000
843.217;  225.550;   20.000;   28.000
843.468;   54.125; -104.000; -132.000
843.718;  -60.325; -718.000; -726.000
843.968; -103.425; -837.000; -765.000
844.218;   -1.625; -315.000; -262.000
844.469;  -59.925; -577.000; -561.000
844.719; -107.200; -537.000; -682.000
844.969; -105.600; -550.000; -580.000
845.219; -148.950; -814.000; -862.000
845.469;  -87.375; -392.000; -342.000
845.719; -139.150; -792.000; -884.000
845.969;  -20.175;  119.000;  174.000
846.219; -125.500; -738.000; -720.000
846.469;   -6.775;  464.000;  432.000
846.718;  -52.000; -115.000;   31.000
846.968; -134.625; -827.000; -827.000
847.218;  -57.625; -224.000; -371.000
847.468;   -5.250; -586.000; -555.000
847.718; -152.300; -827.000; -798.000
847.967; -136.800; -826.000; -915.000
848.217;  -93.375; -449.000; -569.000
848.467;  -79.475; -405.000; -376.000
848.716; -127.450; -708.000; -725.000
848.966;  -24.225; -372.000; -358.000
849.215;  -70.375; -428.000; -419.000
849.465; -103.150; -785.000; -615.000
849.714; -148.025;-1132.000;-1150.000
849.964;  -64.175; -551.000; -613.000
850.213;  -42.650; -393.000; -355.000
850.463;   58.150;  137.000;  340.000
850.712;   -5.800; -542.000; -567.000
850.961;    4.250; -739.000; -678.000
851.211;   89.975; -513.000; -504.000
851.460;  148.650; -635.000; -650.000
851.709;  515.000;  -25.000;   18.000
851.958; 9750.500; -912.000; -750.000
852.208;12739.150; -859.000; -879.000
852.457;  476.700; -181.000;  -13.000
852.706;   61.575; -791.000; -823.000
852.955;    8.125; -507.000; -528.000
853.204;  -86.400; -521.000; -461.000
853.453;  -81.150; -418.000; -458.000
853.702; -137.750; -660.000; -750.000
853.951; -107.650; -532.000; -520.000
854.200; -117.125; -613.000; -562.000
854.449; -143.775; -695.000; -661.000
854.698; -100.025; -340.000; -279.000
854.946;  -68.475; -181.000; -284.000
855.195; -160.625; -843.000; -868.000
855.444; -101.575; -395.000; -420.000
855.693; -136.275; -345.000; -432.000
855.941; -113.400; -387.000; -516.000
856.190;  -70.300; -256.000; -382.000
856.439; -137.825; -652.000; -703.000
856.687;  -61.550;  -99.000;  -72.000
856.936; -124.675; -621.000; -323.000
857.184; -183.975;-1067.000;-1020.000
857.433; -125.800; -423.000; -512.000
857.681; -173.525; -989.000; -953.000
857.930;  -80.225; -282.000; -433.000
858.178; -168.150; -856.000; -929.000
858.427; -157.250; -802.000; -781.000
858.675; -130.175; -377.000; -544.000
858.923; -114.950; -527.000; -819.000
859.172; -181.800;-1094.000;-1070.000
859.420; -105.325; -339.000; -239.000
859.668; -143.800; -624.000; -628.000
859.916;  -19.750;  109.000;  115.000
860.164; -128.050; -699.000; -603.000
860.413;  184.075; -878.000; -696.000
860.661;  151.975; -709.000; -577.000
860.909; -102.925; -339.000; -325.000
861.157;  -75.875; -277.000; -444.000
861.405; -144.500; -534.000; -670.000
861.653;   -5.700;  310.000;  310.000
861.901;  117.325; -543.000; -613.000
862.149;  -29.525; -801.000; -824.000
862.396;  -86.500; -297.000; -187.000
862.644;  -94.925; -368.000; -347.000
862.892;  -57.125;   98.000;  138.000
863.140; -122.925; -549.000; -530.000
863.388; -165.175; -815.000; -759.000
863.635; -133.925; -642.000; -601.000
863.883;  -30.650;  231.000;  190.000
864.131; -104.325; -288.000; -357.000
864.378; -151.675; -675.000; -540.000
864.626; -109.025; -347.000; -415.000
864.873; -122.625; -556.000; -505.000
865.121; -151.975; -714.000; -799.000
865.368;  -53.475; -173.000;   75.000
865.616;  -40.850;  -33.000;  -40.000
865.863;  -70.250; -462.000; -506.000
866.111; -112.300; -795.000; -824.000
866.358;   40.550; -426.000; -420.000
866.605; 2527.275;  -64.000; -804.000
866.853; 2812.300; -621.000; -537.000
867.100;  -25.850; -728.000; -775.000
867.347;  -87.225; -672.000; -611.000
867.594;  -91.500; -740.000; -714.000
867.841;   63.275;   97.000;   17.000
868.089; -148.475; -746.000; -698.000
868.336; -113.225; -477.000; -420.000
868.583; -135.950; -637.000; -741.000
868.830;  -58.175; -131.000; -170.000
869.077; -179.725; -859.000; -787.000
869.324; -120.900; -502.000; -458.000
869.571; -135.025; -398.000; -430.000
869.818; -127.775; -485.000; -439.000
870.065; -118.300; -439.000; -513.000
870.311; -119.875; -456.000; -542.000
870.558; -100.975; -332.000; -311.000
870.805;  -85.875; -320.000; -384.000
871.052; -112.800; -494.000; -369.000
871.298;  -69.350; -204.000; -131.000
871.545;  -83.000; -151.000; -185.000
871.792;  -95.025; -173.000; -222.000
872.038;  -70.750;   43.000; -126.000
872.285; -137.175; -496.000; -387.000
872.532; -115.675; -357.000; -387.000
872.778;    6.925;  556.000;  403.000
873.025; -109.725; -384.000; -359.000
873.271;   15.500;  501.000;  578.000
873.517;  -54.875; -133.000; -209.000
873.764;  -41.100; -193.000;  -80.000
874.010;  -84.350; -143.000; -230.000
874.257;  -50.225;  123.000;   90.000
874.503; -139.325; -579.000; -479.000
874.749;  -84.675;   31.000;  275.000
874.995;  -71.025;  -80.000;  -20.000
875.242; -125.675; -540.000; -478.000
875.488; -119.875; -414.000; -439.000
875.734;  -70.725; -106.000; -234.000
875.980;   80.575; -872.000;-1032.000
876.226;  291.400; -157.000; -255.000
876.472;   -8.350;  343.000;  237.000
876.718;  -42.800;  184.000;  158.000
876.964;  -52.850;   56.000;   55.000
877.210; -150.200; -547.000; -677.000
877.456; -144.425; -630.000; -557.000
877.702; -175.050; -821.000; -832.000
877.948; -128.775; -377.000; -497.000
878.193;   -3.100;  361.000;  255.000
878.439; -110.175; -487.000; -472.000
878.685; -106.850; -272.000; -343.000
878.931; -141.075; -618.000; -676.000
879.176;  -86.900; -201.000; -201.000
879.422; -170.875; -933.000; -820.000
879.668;   55.775;   10.000;   79.000
879.913;   92.850;   53.000;  137.000
880.159;  -67.350; -112.000;  -17.000
880.404;  -64.475; -152.000; -162.000
880.650;  -57.975;   91.000;  141.000
880.895; -167.625; -670.000; -710.000
881.141; -132.225; -454.000; -428.000
881.386; -152.675; -503.000; -658.000
881.631;  -85.600; -311.000; -166.000
881.877;  -36.600;  112.000;  -13.000
882.122; -134.600; -684.000; -600.000
882.367;  -88.125; -136.000; -186.000
882.612;  -76.975;  -80.000; -176.000
882.858; -182.000; -877.000; -823.000
883.103; -108.025; -297.000; -267.000
883.348; -152.750; -759.000; -852.000
883.593; -161.500; -677.000; -602.000
883.838;  -64.350; -311.000;  -24.000
884.083;   14.800;  353.000;  288.000
884.328; -100.800; -564.000; -545.000
884.573;  -62.850; -196.000; -143.000
884.818;  130.500; -694.000; -531.000
885.063;  136.625; -348.000; -315.000
885.308; -118.925; -475.000; -398.000
885.553;  -15.500;  245.000;  325.000
885.797; -127.525; -545.000; -615.000
886.042;  -59.450;    8.000;   58.000
886.287;  -87.350; -253.000; -211.000
886.532;  -51.075;   26.000;  204.000
886.776;  -91.275; -407.000; -525.000
887.021; -149.850; -621.000; -574.000
887.265; -160.100; -685.000; -689.000
887.510; -128.500; -557.000; -496.000
887.755;  -88.400; -194.000; -164.000
887.999; -151.350; -552.000; -575.000
888.244;  -71.075;  -58.000;  161.000
888.488;   -7.425;  371.000;  393.000
888.732; -125.300; -368.000; -520.000
888.977; -138.875; -622.000; -567.000
889.221; -162.100; -683.000; -659.000
889.465; -133.125; -422.000; -566.000
889.710;  -85.975;  -56.000; -299.000
889.954;    3.575;  579.000;  467.000
890.198; -154.925; -584.000; -707.000
890.442; -154.800; -716.000; -712.000
890.687; -156.600; -800.000; -753.000
890.931;  -94.825; -273.000; -210.000
891.175; -147.575; -502.000; -500.000
891.419;  -94.050; -105.000; -110.000
891.663;  -87.125; -239.000; -112.000
891.907; -170.225; -801.000; -545.000
892.151; -178.250; -920.000; -815.000
892.395; -110.225; -274.000; -387.000
892.638;  -22.450;  408.000;  291.000
892.882; -183.700; -780.000; -867.000
893.126;    8.375;  758.000;  558.000
893.370;  -89.675; -167.000; -168.000
893.614; -158.800; -714.000; -715.000
893.857; -108.400; -183.000; -197.000
894.101; -148.425; -527.000; -631.000
894.345;  -56.625;  300.000;  150.000
894.588;    1.450;  569.000;  380.000
894.832;  -81.750; -178.000;  -84.000
895.075;  -92.625;   15.000;  -92.000
895.319; -149.900; -552.000; -420.000
895.563; -116.575; -413.000; -353.000
895.806; -150.850; -628.000; -741.000
896.049;  -83.300; -576.000; -368.000
896.293;   55.325;  527.000;  405.000
896.536; -101.800; -465.000; -468.000
896.779;  -73.575; -149.000;   -1.000
897.023; -143.525; -751.000; -714.000
897.266;  -28.675;  325.000;  269.000
897.509; -177.875; -900.000; -901.000
897.752;  -47.375;  149.000;  171.000
897.996; -194.000; -972.000; -864.000
898.239;  -47.075;  168.000;  102.000
898.482; -136.225; -431.000; -453.000
898.725;  -50.500;  101.000;   53.000
898.968; -166.075; -609.000; -744.000
899.211; -117.100; -513.000; -361.000
899.454; -134.275; -633.000; -539.000
899.697;  -80.500;   90.000;  -43.000
899.940; -166.075; -761.000; -757.000
900.182; -114.400; -335.000; -405.000
900.425; -105.125; -150.000; -298.000
900.668;  -14.675;  491.000;  350.000
900.911; -109.250; -292.000; -345.000
901.154;  -55.950;  141.000;   -3.000
901.396; -145.475; -407.000; -412.000
901.639; -148.325; -430.000; -496.000
901.882; -174.575; -790.000; -809.000
902.124;  -94.900;  -29.000; -143.000
902.367; -127.575; -315.000; -361.000
902.609; -148.900; -476.000; -453.000
902.852;  -94.775; -108.000; -260.000
903.094; -129.775; -458.000; -337.000
903.337;  -66.850;  -26.000;   53.000
903.579; -114.825; -228.000; -441.000
903.821; -167.875; -597.000; -744.000
904.064;  -61.525;   85.000;  127.000
904.306;  -88.225; -126.000; -166.000
904.548; -105.450; -152.000; -366.000
904.790; -100.800; -195.000; -340.000
905.033; -144.300; -625.000; -577.000
905.275; -131.650; -513.000; -524.000
905.517;   16.900;  468.000;  256.000
905.759;  -91.350; -667.000; -761.000
906.001; -111.625; -322.000; -369.000
906.243;  -79.225; -162.000; -224.000
906.485;   60.550; -265.000; -207.000
906.727;   69.125; -499.000; -542.000
906.969;  -42.100;  -30.000; -135.000
907.211;   79.650; -316.000; -382.000
907.453;  189.900; -188.000; -237.000
907.695;  -13.775; -158.000; -385.000
907.936;   33.700;  818.000;  706.000
908.178;  -57.650;   92.000; -135.000
908.420;  -81.475; -111.000; -162.000
908.662; -139.625; -633.000; -682.000
908.903;  -97.275; -208.000; -123.000
909.145;  -66.475; -240.000; -305.000
909.386;   -6.350;  315.000;  280.000
909.628;   19.025;  363.000;  397.000
909.870;    2.400;   29.000;  264.000
910.111; -104.750; -809.000; -949.000
910.353;    2.950; -123.000; -161.000
910.594;   -6.325; -574.000; -606.000
910.835;   60.775; -265.000; -326.000
911.077;  128.375; -503.000; -604.000
911.318;  292.600; -505.000; -471.000
911.559;  426.850; -577.000; -880.000
911.801; 1266.225; -284.000; -280.000
912.042; 9734.675;  -50.000; -159.000
912.283;26376.250;  404.000;  371.000
912.524; 4283.375; -396.000; -457.000
912.765;  454.550; -193.000;   79.000
913.006;  216.250; -307.000; -338.000
913.247;   39.375; -270.000; -290.000
913.488;  -11.825;  -43.000;   30.000
913.729;  -97.325; -373.000; -373.000
913.970;  -68.300;  -96.000; -292.000
914.211;  -73.200; -160.000; -198.000
914.452;  -71.125; -118.000;  -11.000
914.693;   -0.400;  510.000;  592.000
914.934;    0.225;  510.000;  440.000
915.175;  -72.500;   53.000;  -95.000
915.415;  -84.125; -137.000;   27.000
915.656;  -75.800;  -28.000;  192.000
915.897; -112.350; -252.000;  -82.000
916.137;  -82.000;   74.000;   -9.000
916.378; -144.400; -573.000; -517.000
916.619;  -95.100; -159.000;  -63.000
916.859;  -31.050;  303.000;  330.000
917.100;  125.225; 1655.000; 1070.000
917.340;   39.800;  930.000;  728.000
917.581;   41.575;  965.000;  789.000
917.821;  -43.975; -171.000;  143.000
918.061;  -16.850; -199.000;  -72.000
918.302;  -64.125; -152.000; -211.000
918.542;  -39.225;  -22.000;    3.000
918.782;   21.400;  369.000;  377.000
919.023;  112.850;  360.000;  427.000
919.263; 1661.850; 8131.000;  202.000
919.503; 1006.800; -137.000;  -54.000
919.743;  512.975;  390.000;  266.000
919.983;  225.125; -134.000;  -26.000
920.223;   74.100;  135.000;   14.000
920.463;  145.200;  631.000;  554.000
920.703;  135.200;   84.000;   39.000
920.943;  175.100; -110.000;   90.000
921.183;  249.725; -414.000; -405.000
921.423;  524.450;  307.000;  546.000
921.663;  745.175; -174.000; -257.000
921.903; 1551.125;  237.000;  173.000
922.143; 8759.075;  372.000;  389.000
922.383;34327.050;  158.000;  115.000
922.622;12290.475; -120.000;  -15.000
922.862; 1278.000;  796.000;  785.000
923.102;  483.975;  -51.000;   33.000
923.341;  197.925;   59.000;   74.000
923.581;   91.725;  450.000;  360.000
923.821;   18.175;  301.000;  398.000
924.060;    3.525;  351.000;  193.000
924.300;  -77.350;  -16.000; -128.000
924.539;   -4.650;  584.000;  473.000
924.779;   -5.075;  812.000;  597.000
925.018;  -44.600;  247.000;  353.000
925.257;   -5.200;  595.000;  666.000
925.497;  -50.175;  447.000;  412.000
925.736;  -79.250;  -35.000;  102.000
925.975;   -2.950;  687.000;  669.000
926.214;   18.875;  907.000;  850.000
926.454;   13.950;  706.000;  757.000
926.693;  -41.675;  419.000;  543.000
926.932;   24.450; 1021.000;  825.000
927.171;   67.825; 1107.000; 1044.000
927.410;   57.850; 1144.000;  967.000
927.649;   22.900;  924.000;  742.000
927.888;  -10.775;  590.000;  564.000
928.127;  -15.900;  680.000;  678.000
928.366;   21.450;  842.000;  826.000
928.605;   25.175;  831.000;  737.000
928.844;  222.350; 1451.000; 1393.000
929.083;  556.725;  770.000;  613.000
929.321;  306.775; 1335.000; 1359.000
929.560;   86.600; 1158.000; 1122.000
929.799;  -41.900;  574.000;  475.000
930.038;   75.925; 1025.000; 1394.000
930.276;  -49.675;  334.000;  397.000
930.515;   -4.775;  827.000;  681.000
930.753;  -30.175;  614.000;  589.000
930.992;  -27.275;  664.000;  717.000
931.230;   -4.675;  847.000;  847.000
931.469;  176.075; 2162.000;  892.000
931.707;   65.625;  840.000;  751.000
931.946;   65.050; 1278.000; 1344.000
932.184;   49.800; 1437.000; 1175.000
932.423;   40.250; 1265.000;  963.000
932.661;   63.350; 1296.000; 1428.000
932.899;   16.025;  987.000;  821.000
933.137;   12.625;  754.000;  564.000
933.376;  136.475; 1664.000; 1335.000
933.614;  156.425; 1759.000; 1196.000
933.852;   49.475; 1357.000; 1171.000
934.090;  138.775; 1722.000; 1747.000
934.328;  102.550; 1252.000; 1457.000
934.566;  107.225; 1431.000; 1110.000
934.804;  138.875; 1263.000; 1309.000
935.042;  513.400; 1861.000; 1850.000
935.280; 2055.075; 2088.000; 2063.000
935.518; 2075.650; 2113.000; 2007.000
935.756;  410.350; 2481.000; 2316.000
935.994;  177.725; 1808.000; 1751.000
936.231;  310.925; 2890.000; 2950.000
936.469;  176.575; 2367.000; 2378.000
936.707;  146.675; 2220.000; 2167.000
936.945;  228.025; 2825.000; 2882.000
937.182;  199.500; 2679.000; 2741.000
937.420;  294.400; 3602.000; 3031.000
937.657;  377.000; 3365.000; 3478.000
937.895;  332.075; 3331.000; 3488.000
938.133;  301.550; 3540.000; 3528.000
938.370;  338.500; 3896.000; 4191.000
938.607;  388.750; 4488.000; 4205.000
938.845;  546.575; 5587.000; 5549.000
939.082;  471.775; 5387.000; 5177.000
939.320;  524.325; 5799.000; 5728.000
939.557;  624.150; 6549.000; 6491.000
939.794;  708.975; 7285.000; 7097.000
940.031;  889.475; 8421.000; 8368.000
940.269; 1081.025; 9552.000; 9107.000
940.506; 1112.225;10901.000;10507.000

