
Integration time [ms]: 100.000
Averaging Nr. [scans]: 40
Smoothing Nr. [pixels]: 0
Data measured with spectrometer [name]: 2101013U2
Wave   ;Sample   ;Dark     ;Reference
[nm]   ;[counts] ;[counts] ;[counts] 

394.013;   64.718; -450.257; -315.536
394.305;  250.616; -461.258; -419.536
394.596; 1097.463; -676.269; -527.514
394.887; 2645.080; -796.268; -654.518
395.178; 1006.635;  145.736;   11.476
395.470;   86.022; -210.263; -356.526
395.761;  230.170;  305.734;  394.479
396.052;  369.838; -545.284; -306.489
396.343;  367.083; -557.276; -454.503
396.634;  118.527; -200.279; -290.497
396.926;  154.027; -618.268; -565.517
397.217;  137.712;   11.725;  -17.504
397.508;   62.578; -366.273; -154.507
397.799;   88.052; -555.279; -571.497
398.090;   16.396; -973.280; -902.495
398.381;  145.088;   11.708;  -11.473
398.672;    2.214; -585.292; -742.473
398.963;   65.908; -348.279; -373.498
399.254;  129.973;   54.709; -209.475
399.545;  -29.059;-1017.266; -883.520
399.836;   69.522; -407.277; -343.501
400.127;   75.464; -205.295; -209.468
400.418;   65.048; -423.274; -392.506
400.709;   76.233; -359.281; -333.493
401.000;   67.902; -268.291; -309.476
401.290;  124.376;  225.698;  115.545
401.581;   87.971; -166.286; -228.485
401.872;   28.661; -542.298; -486.462
402.163;   76.332; -313.296; -252.467
402.454;   97.299; -123.291; -163.475
402.744;   97.223; -844.297; -813.465
403.035;  493.779; -226.293;  -86.471
403.326;  654.592; -366.292; -384.474
403.617;  410.880;  204.701;  165.539
403.907;  266.669; -593.283; -679.490
404.198; 2360.905; -545.307; -599.446
404.489; 6183.799; -618.283; -588.491
404.779; 2125.254; -618.302; -660.456
405.070;  243.108;  -67.304; -174.451
405.360;  343.506; -259.293; -238.472
405.651;  359.140;  125.699;   98.542
405.942;  203.916;  209.714;  127.516
406.232;  320.955; -432.285; -413.487
406.523;  543.824;  641.706;  758.530
406.813;  106.718; -579.286; -644.484
407.104;  363.762;  261.708;  144.527
407.394;  207.982; -604.299; -591.462
407.685;  174.655;  336.715;  222.513
407.975;   77.447; -400.283; -382.490
408.265;  123.863; -134.289; -190.478
408.556;   74.246; -472.291; -459.475
408.846;  179.925;  474.706;  429.530
409.137;   88.172;   -1.288; -216.480
409.427;   51.755; -193.285; -271.487
409.717;   57.806; -776.273; -692.508
410.007;  144.199;    4.715; -170.486
410.298;  102.967; -360.295; -342.469
410.588;   73.778; -495.285; -510.486
410.878;   35.708; -792.287; -873.482
411.168;  127.664; -481.298; -478.463
411.459;  136.342; -295.283; -242.489
411.749;   53.919; -609.292; -507.474
412.039;   83.345; -755.289; -386.480
412.329;  204.540;   40.722;  132.501
412.619;  219.018;  -62.286; -148.485
412.909;  389.066;  639.711;  594.521
413.199;  352.696; -130.280; -251.495
413.490;  417.806;  521.710;  352.523
413.780;  148.800;-1013.279; -913.496
414.070;  342.684;  -46.276;  235.497
414.360;  387.811; -729.278; -666.498
414.650;  419.254; -726.288; -688.482
414.940;  533.299; -538.280; -441.496
415.230;  924.376;   50.712;   74.519
415.520; 5968.137;  155.730;   66.486
415.809;23536.908; -305.281; -125.493
416.099;18125.324; -388.277; -229.501
416.389; 5027.920;  435.726;  236.494
416.679; 2966.200;   91.738;   85.473
416.969;  526.587; -527.287; -503.483
417.259;  464.727;  341.721;  171.503
417.549;  685.781;  522.718;  318.508
417.838; 1624.854; -205.268; -147.518
418.128; 5359.037;  650.710;  492.522
418.418; 4441.463; -491.272; -579.509
418.708; 3059.521;    9.726;  -48.506
418.997;11384.491; -474.275; -480.505
419.287;11745.402; -733.273; -790.507
419.577;11023.741; -160.283; -123.489
419.866;36779.372; -588.277; -498.501
420.156;37832.433; -242.270;  -55.513
420.446; 6783.018; -112.263;  -26.526
420.735;  913.427; -376.271; -446.512
421.025;  843.010; 1830.722;  315.502
421.314;  752.875; -203.271; -226.512
421.604; 1658.872;   89.732;  233.484
421.893;  978.847; -705.271; -602.511
422.183;  256.593; -487.263; -461.526
422.472;  403.123;  -36.271; -107.511
422.762;  474.422; -416.266; -379.521
423.051;  244.059; -916.276; -916.503
423.341;  334.079; -491.273; -439.507
423.630;  445.078; -121.265;   15.477
423.919;  382.416;   58.725;   49.495
424.209;  401.598;  -31.263;   56.473
424.498;  482.927;   68.732;  161.483
424.787; 1110.308; -535.267; -601.518
425.077; 3402.177;   34.735;   29.478
425.366; 4980.229; -734.262; -744.528
425.655; 9870.730;  639.727;  259.493
425.945;20748.383; -313.247; -268.554
426.234;11455.902;  117.741;  300.467
426.523; 5002.832;  -86.259; -350.534
426.812; 6888.443;  107.734;  159.480
427.101;10065.493; -127.269; -323.515
427.390;12809.862;  -55.270;  -86.514
427.680; 3116.227; -624.257; -411.538
427.969;  523.362; -330.255; -301.540
428.258;  340.268; -385.257; -477.536
428.547;  567.542;  449.728;  397.490
428.836; 1405.004; -421.253; -398.543
429.125; 2010.084; -199.259;  -72.534
429.414;  865.426; -330.251; -294.548
429.703; 3064.001; -231.251; -213.548
429.992; 9096.305; -938.250; -828.549
430.281; 5941.711; -397.264; -331.524
430.570;  601.867;  -21.252;   32.454
430.859;  611.981;  279.741;  352.466
431.148;  473.254;  636.752;  631.446
431.437;  293.366;  391.748;  367.454
431.725;  161.445; -544.257; -481.536
432.014;  124.886; -845.253; -756.545
432.303;  400.755; -149.239; -105.569
432.592;  666.717; -460.263; -178.525
432.881; 1076.455; -601.248; -437.554
433.169; 6025.263; -343.255;  -61.540
433.458;12224.063;  445.765;  540.424
433.747; 5146.460; -397.261; -289.529
434.036;  960.030; -275.242; -280.564
434.324; 2088.242; -395.249; -379.551
434.613; 3572.024;   40.757;  159.437
434.902; 1230.120;  333.760;  439.433
435.190;  669.428;   75.761;  295.431
435.479;  392.156;  -52.245;   83.441
435.767;  125.714; -411.244; -427.561
436.056;  230.526; -340.242; -294.563
436.345;  381.297; -372.240; -223.568
436.633;  392.688;   60.750;  383.450
436.922;  313.274;  208.760;  414.432
437.210;  705.053; -194.236;    1.426
437.499; 2300.586; -583.235; -432.576
437.787; 2550.203; -339.236;  -10.574
438.075;  623.509;   56.761;  162.430
438.364;  849.712;  -44.238;  250.429
438.652;  527.491; -286.226; -138.592
438.941;  155.030;    3.770;  269.415
439.229;   24.964; -665.252; -466.545
439.517;   38.170; -160.234;  -85.577
439.806;    1.882; -501.225; -290.595
440.094;  197.253;  377.766;  650.421
440.382;  220.756; -653.233; -302.580
440.670;  247.311; -361.235; -285.576
440.959;   48.749; -347.223; -170.599
441.247;   79.392; -151.229; -109.587
441.535;  126.393; -266.235;   31.423
441.823;   61.675; -497.234; -305.578
442.111;  203.521;  173.771;  327.412
442.400;  599.805; -628.245; -335.559
442.688; 1646.302; -111.234; -620.579
442.976; 1178.537; -786.213; -450.617
443.264;  124.114; -324.224; -364.597
443.552;  124.967; -258.226;   51.408
443.840;  180.767;  602.765;  876.423
444.128;  120.980;  265.767;  269.420
444.416;   17.074; -694.228; -312.588
444.704;   32.054; -465.219;  -92.605
444.992;   84.220;   -0.226;  240.407
445.280;   51.006; -517.230;  -94.585
445.568;   64.966; -694.212; -396.618
445.856;  400.638; -174.221;  357.398
446.143;  931.475;  -54.220;   -7.604
446.431;  740.052;  -25.228;  625.411
446.719;  274.473;  489.783;  675.391
447.007;  199.425;  481.769;  705.416
447.295;  191.746;  597.777;  871.402
447.583;  116.064; -464.229;  -34.587
447.870;  178.885; -434.221; -202.601
448.158;  478.080; -104.230;  129.415
448.446;  376.701; -800.219; -338.604
448.733;  190.715;   13.776;  269.403
449.021;  284.565;   60.788;  341.382
449.309;  188.005; -296.210;  208.379
449.596;  228.169;  128.783;   59.392
449.884;  158.928; -571.222; -325.600
450.172;  156.683; -756.227; -406.590
450.459;  433.745;  645.786;  780.387
450.747; 2289.768; -411.218; -147.608
451.034; 7333.128;  493.772;  889.411
451.322; 6060.448; -413.214; -170.614
451.609;  522.467;  292.777;  508.403
451.897;  588.318; -550.203; -183.634
452.184; 1772.897; -622.223; -400.598
452.472; 1666.802;   97.792;  269.375
452.759;  366.027;  512.781;  864.395
453.047;  146.038; -407.212; -125.617
453.334;   89.260; -732.219; -216.606
453.621;  112.326; -438.214; -161.615
453.909;  139.085;   13.796;  384.368
454.196;  115.930; -299.199; -123.641
454.483;  215.106;  317.798;  540.364
454.771;  144.580; -215.208;  196.374
455.058;   42.258; -316.207;  102.374
455.345;  110.486;   71.807;  344.347
455.632;   79.986; -128.207;  235.373
455.919;   54.628;  -82.196;  182.354
456.207;  -70.815; -774.198; -450.642
456.494;    6.968; -475.200;  -66.639
456.781;   12.752; -399.202; -198.635
457.068;   70.143; -253.206;  -29.628
457.355;    3.219; -698.206; -401.629
457.642;   13.299; -552.205; -290.630
457.929;   16.627; -778.194; -417.651
458.216;   71.463; -575.212; -354.617
458.503;  222.606; -173.193;  -19.652
458.790;  230.327; -864.208; -630.625
459.077;  261.707;  -77.202;  110.364
459.364;  799.695; -350.195; -210.649
459.651; 1625.916;  -46.206;  220.372
459.938;  784.518; -864.209; -665.623
460.225;  169.085;  132.799;  276.363
460.512;  -39.125; -836.197; -688.645
460.799;  119.342;  -32.218;  320.392
461.086;   89.873; -370.200; -251.640
461.372;   36.635; -509.198; -279.642
461.659;  131.029; -165.196;  108.354
461.946;   92.480; -445.193;  -54.651
462.233;  262.170;  842.800;  888.361
462.519;  354.417; -814.201; -464.639
462.806;  999.451; -768.197; -497.645
463.093;  863.376; -445.191;  -66.656
463.380;  -24.108; -920.186; -824.664
463.666;   53.152; -259.197;  -18.646
463.953;   92.265; -406.195; -243.648
464.239;  216.639; -173.195;  -77.648
464.526;  412.900;  413.806;  743.350
464.813;  368.912; -565.190; -304.658
465.099;  374.081;  606.807;  607.348
465.386;  343.635;  903.807;  921.348
465.672;   59.576; -694.197; -522.645
465.959;   31.705; -598.188; -520.662
466.245;   19.235; -468.193; -359.652
466.532;  101.862; -109.195;   63.352
466.818;   77.192; -357.186; -216.664
467.104;   -1.868; -488.182; -415.672
467.391;  -17.386; -628.189; -459.658
467.677;   37.170; -289.186;    9.335
467.964;   15.446; -682.189; -471.660
468.250;   75.448; -331.186; -160.665
468.536;   72.440;   90.811;  180.341
468.822;  -28.365; -821.184; -574.668
469.109;  145.837;  351.827;  471.311
469.395;  196.720;  729.808;  787.346
469.681;  204.293;   46.811;  156.341
469.967; 1220.423; -699.188; -382.660
470.254; 2646.131; -494.188; -306.662
470.540; 1672.328; -601.196; -476.646
470.826;  248.043; -488.181; -397.675
471.112;  307.863;  288.816;  113.331
471.398;   94.768; -253.183;  -58.670
471.684;   45.946; -626.177; -447.680
471.970;    1.897; -918.180; -981.675
472.256;   14.019; -521.192; -441.654
472.542;   15.498; -499.171; -434.691
472.828;   22.553; -743.182; -607.672
473.114;   37.767; -380.166; -283.700
473.400;   18.488; -504.175; -293.684
473.686;   44.848; -452.166; -400.701
473.972;   65.027; -230.174; -131.687
474.258;  -37.538; -925.173; -843.689
474.544;  194.213; -183.178;   -2.679
474.830;  297.714;  -65.175;   45.316
475.116;  445.464; -123.190; -196.658
475.401;  621.199; -558.180; -467.676
475.687;  203.198; -725.180; -718.676
475.973;   23.811; -673.181; -770.673
476.259;  256.916;  736.825;  764.315
476.544;  368.179; -539.176; -437.682
476.830;  783.119; -398.172; -322.690
477.116;  679.353; -430.177; -336.682
477.401;  125.198;  346.820;  358.324
477.687;   -8.312; -289.175; -405.684
477.973;   55.864;   21.819;   28.326
478.258;    5.268; -448.163; -348.706
478.544;   66.378;   21.815;   61.334
478.829;  -33.996; -818.171; -738.692
479.115;  -40.906; -749.172; -651.690
479.401;   -4.302; -444.174; -449.686
479.686;   33.972; -253.180;  -74.676
479.972;  -31.357; -886.178; -776.680
480.257;   44.043; -258.166;  -65.700
480.542;    1.058; -614.170; -469.693
480.828;  223.261; 1288.824; 1392.317
481.113;  -21.941; -464.176; -426.683
481.399;   -9.383; -236.161; -202.711
481.684;  -48.257; -620.166; -462.700
481.969;   25.356; -158.159;  -73.713
482.255;   -0.807; -439.169; -285.695
482.540;    3.593; -569.178; -441.680
482.825;   15.962; -395.187; -404.663
483.110;   89.172;  -85.169; -105.696
483.396;  166.927; -840.157; -652.718
483.681;  465.552;  543.826;  730.313
483.966;  156.000; -696.160; -700.712
484.251;    1.701; -404.174; -310.687
484.536;    8.928; -356.165; -378.703
484.822;   21.029; -205.173; -218.687
485.107;   -8.285; -599.152; -502.726
485.392;  135.984;  662.836;  541.296
485.677;   88.006;  354.832;  163.302
485.962;   98.200;  160.843;  270.283
486.247;   92.326;  -14.162;   -8.707
486.532;   49.944; -178.166; -325.701
486.817;  165.587;  381.839;  431.291
487.102;  116.073; -453.154; -514.722
487.387;  638.629; -637.156; -652.718
487.672; 1119.414; -154.164;  -38.705
487.957;  678.844; -394.160; -286.711
488.241;  185.657; -290.150; -314.729
488.526;  693.617; -280.152; -148.726
488.811; 1120.720; -881.177; -818.680
489.096;  865.851; -666.154; -702.723
489.381;  485.163;    3.847;  162.275
489.666;  354.442; -428.161; -510.710
489.950;  173.704;  558.846;  627.277
490.235;  -27.423; -480.151; -458.728
490.520;  -36.559; -756.161; -723.710
490.804;  -58.619; -827.156; -736.719
491.089;   -5.227; -469.149; -299.732
491.374;   38.588; -132.164;  -75.704
491.658;   -1.016; -817.147; -717.735
491.943;  194.146; -657.152; -609.727
492.227;  287.594; -178.155;  -38.721
492.512;   58.299; -294.157; -341.717
492.797;  -61.908; -713.149; -716.731
493.081;  -34.813; -588.147; -598.735
493.366;  -44.707; -751.161; -635.711
493.650;  206.365;  831.859;  917.254
493.935;   26.834; -648.147; -447.734
494.219;  -44.473; -778.142; -687.743
494.503;  -44.213; -585.150; -487.730
494.788;   58.366;   46.842;   74.285
495.072;  114.833;  184.850;  434.271
495.356;  178.576; -463.148; -343.733
495.641;  482.643; -812.146; -736.736
495.925;  454.911; -976.156; -903.719
496.209;   48.972; -599.149; -451.732
496.494;  -38.147; -763.142; -544.744
496.778;    9.723; -364.154; -360.722
497.062;  -55.464; -819.156; -627.719
497.346;  -32.154; -869.160; -640.711
497.631;  158.729;  580.852;  560.266
497.915;   77.129;  -64.145;  175.261
498.199;   66.477; -341.157; -277.718
498.483;   54.715; -562.152; -508.725
498.767;  187.134;  301.850;  300.271
499.051;  183.945; -126.149; -100.732
499.335;   39.468; -693.149; -739.731
499.619;  -29.184; -381.129; -423.767
499.903;   48.193; -272.155;  -65.721
500.187;   52.181; -588.153; -316.724
500.471;   22.045; -796.152; -595.727
500.755;  110.516;   62.839;  -96.710
501.039;   37.818; -270.155; -357.721
501.323;   99.667;  -21.141;  264.254
501.607;   39.994; -447.163; -503.706
501.891;    7.179; -607.156; -512.718
502.174;  -22.535; -726.144; -585.741
502.458;   65.749;   89.849;  370.273
502.742;   36.066; -180.138; -191.751
503.026;  101.833; -412.147; -254.734
503.310;  157.380; -437.159; -375.713
503.593;  120.585; -464.147; -325.735
503.877;  118.081; -232.133; -156.760
504.161;  190.033;    2.847;  -50.724
504.444;  156.618; -841.158; -710.716
504.728;  449.312; -487.164; -522.704
505.012;  692.531; -257.150;  -76.729
505.295;  490.867; -417.161; -212.711
505.579;  506.860; -256.156; -496.719
505.862;  713.900; -555.145; -333.738
506.146;  703.057; -681.159; -758.714
506.429;  389.832;  568.841;  461.286
506.713;   71.103; -732.151; -667.728
506.996;  309.548;   90.846;  295.278
507.280;  309.807; -633.165; -474.703
507.563;  236.541; -469.155; -261.721
507.847;   83.856; -423.153; -112.724
508.130;   91.493; -665.161; -456.711
508.413;  111.914; -758.167; -577.700
508.697;  224.114; -151.167;   12.300
508.980;  143.233; -422.153; -312.724
509.263;    8.813; -466.155; -450.720
509.547;   44.781; -124.150;   82.271
509.830;   45.020; -172.160;  140.289
510.113;   97.360;  128.844;  298.281
510.396;   36.438; -530.152; -300.725
510.680;  210.202; -818.145; -812.738
510.963;  742.377;  184.846;  180.277
511.246;  667.764; -493.150; -357.730
511.529;  301.282; -482.145;  -83.739
511.812;  347.102; -250.134;   10.241
512.095;  248.076; -740.151; -396.728
512.378;   89.939; -317.147; -245.736
512.661;   20.123; -703.137; -623.753
512.944;   30.554; -750.142; -637.744
513.227;   75.420; -170.137; -171.752
513.510;   26.715; -479.144; -671.741
513.793;   31.721; -485.140; -435.747
514.076;  155.237;  -43.127;  -39.771
514.359;  106.573; -294.149; -135.732
514.642;   68.332; -442.142; -567.744
514.925;  720.069;  581.860;  561.253
515.208;  938.849; -498.134; -443.758
515.491;  622.863; -276.133; -182.761
515.773;  369.519; -410.143; -337.742
516.056; 1975.280;  249.864;  409.246
516.339; 2742.858; -754.136; -652.755
516.622; 2020.886; -518.150; -488.730
516.904; 1451.701;  882.857;  975.257
517.187;  678.269; -730.138; -523.752
517.470;  420.500; -568.143; -510.743
517.752;  415.911; -624.136; -470.756
518.035;  324.982; -708.139; -725.749
518.318;  343.659; -799.136; -744.755
518.600; 2289.616; -300.132; -325.762
518.883; 3166.532;  310.858;   88.256
519.165; 1546.437; -585.138; -426.751
519.448;  422.916;  -61.132;  -19.762
519.730;  220.244; -573.126; -415.773
520.013;  332.009;  588.867;  664.240
520.295;  979.054;  -94.134;  -15.759
520.578; 2193.829; -335.131; -305.764
520.860; 2429.666; -254.132;   56.238
521.143; 1258.588; -763.135; -584.756
521.425;  470.257; -251.125; -279.775
521.707;  685.962; -622.127; -380.771
521.990; 1699.663; -199.127;  167.229
522.272; 1917.848; -116.140;   -4.748
522.554;  931.370; -237.143; -157.742
522.836;  395.627;  -24.134;   99.241
523.119;  257.132; -496.148; -189.734
523.401;  168.061; -448.130; -314.766
523.683;   97.799; -865.137; -693.753
523.965;  279.967;  408.862;  260.248
524.247;  272.553;   54.878;  170.220
524.529;  188.354; -451.134; -367.759
524.812;  331.737;   -3.130;  191.234
525.094;  821.991; -773.138; -631.751
525.376; 1301.466; -143.124;   78.223
525.658;  776.181; -441.136; -339.754
525.940;   21.975; -805.131; -671.764
526.222;   44.609; -188.136;  -88.755
526.504;  149.448; -190.131;   32.237
526.786;  230.981; -960.133; -647.760
527.068;  363.272; -124.123;  -67.778
527.349;  160.777; -865.137; -774.754
527.631;  148.516; -137.132;   22.238
527.913;  145.161; -664.127; -450.771
528.195;  150.350; -761.125; -639.774
528.477;  233.874;  -93.134;  -30.758
528.759;  120.462; -648.130; -522.766
529.040;   73.170; -569.123; -293.778
529.322;   59.753; -235.125;  -10.774
529.604;  154.265;  -47.130;   93.233
529.886;  171.194; -546.126; -302.773
530.167;  133.331;  232.870;  192.235
530.449;   48.588;    1.853;   63.265
530.731;   15.827; -572.122; -459.779
531.012;   78.048; -513.120; -216.784
531.294;   66.287; -118.116;  -43.792
531.575;  152.082;  290.875;  538.225
531.857;   41.294; -548.135; -266.757
532.138;  104.040; -113.141;   40.254
532.420;  195.090;  294.865;  403.244
532.701;  266.359; -722.133; -751.760
532.983;  386.387;  232.867;  182.239
533.264;  146.192; -243.126;  175.228
533.546;  -36.491; -491.136; -508.755
533.827;   54.055;  173.867;   -1.759
534.109;   53.019; -352.135;  -80.757
534.390;   89.920; -725.132; -582.762
534.671;  261.315; -270.135;  -82.756
534.953;  137.498; -751.123; -611.779
535.234;    8.197; -426.117; -255.789
535.515;  -73.494; -891.119; -735.785
535.796;  -22.043; -431.128; -193.770
536.078; -116.134;-1050.124; -904.777
536.359;   19.374;  -22.123;    3.221
536.640;  -12.173; -480.125; -197.774
536.921;  161.095;  225.871;  143.232
537.202;  365.763;  -87.138;  -16.751
537.483;  437.853;  251.869;  377.236
537.764;  169.631;   17.870;   98.235
538.045;  -38.627; -543.134; -371.758
538.326;  -29.953; -596.129; -447.768
538.607;   20.163; -686.127; -476.771
538.888;  180.039;   98.879;    5.218
539.169;  182.784; -704.122; -535.781
539.450;  340.244;  236.871;   16.233
539.731;  234.043; -361.121; -182.783
540.012;  142.323;  199.880;  412.216
540.293;   90.885;   82.876;  158.224
540.574;   31.833; -895.113; -717.796
540.855;  459.892;  435.879;  377.218
541.136;  540.056;   47.878;  139.220
541.416;  279.688; -161.130; -220.766
541.697;  188.749; -274.131; -170.763
541.978;  977.542; -270.135; -315.757
542.259; 1262.613; -211.127; -236.771
542.539;  624.056; -191.116; -186.790
542.820;  211.107;  461.875;  480.225
543.101;  155.078;  -52.145;  -77.738
543.381;   32.662; -638.127; -591.771
543.662;  265.585;  159.873; -254.771
543.942;  553.483; -751.127; -830.770
544.223; 1020.583;  193.878;  161.219
544.504;  667.541; -275.124; -182.777
544.784;  556.069; -592.126; -408.773
545.065; 1596.335;  104.884; -254.791
545.345; 1870.907;  227.881;   14.215
545.626; 1217.407;  -14.113; -108.796
545.906;  861.681;   77.869;   98.235
546.186;  338.973;   92.874;  -95.773
546.467;  196.893;   99.877;  -95.778
546.747;  313.906;  264.884;  327.210
547.027;  361.014;   91.876;  111.223
547.308;  306.983; -376.127; -530.770
547.588;  389.897;  299.871;  371.232
547.868;  201.607;  458.870;  588.235
548.149;  182.617;  609.885;  593.207
548.429;  129.036; -347.127; -299.771
548.709;  183.048; -645.120; -461.784
548.989;  433.091;   84.882;   88.213
549.269; 1972.289;   10.868;  139.239
549.550; 4567.972;  215.877;  117.222
549.830; 4078.450; -758.111; -556.799
550.110;  818.732; -468.110; -320.801
550.390;  800.028; -128.122;  -56.779
550.670; 1058.578; -868.114; -783.795
550.950;  762.441; -509.121; -471.782
551.230;  192.287;  549.879;  460.218
551.510;   -2.810; -381.121; -326.782
551.790;   27.915; -173.109; -127.803
552.070;  260.418;  940.877; 1181.223
552.350;  407.636; -492.119; -377.786
552.630;  552.235;   -2.121;   77.219
552.909;  342.635;  181.884;   73.209
553.189;  229.746;  -49.132;   33.237
553.469;  176.685; -703.119; -514.786
553.749;  180.964; -469.127; -357.772
554.029;  148.076;   33.883;  -24.790
554.308;  146.146; -154.115;  -37.794
554.588;   59.456; -196.128; -204.770
554.868;   65.717; -366.121;  -47.782
555.147;  144.143; -114.115;  -46.793
555.427;  581.663; -260.116; -250.792
555.707; 3668.241; -284.115; -200.793
555.986; 4438.953; -719.111; -538.800
556.266; 2340.930;   23.884;   72.210
556.546;   90.165; -888.121; -675.782
556.825;  246.301; -657.114; -556.794
557.105; 1702.754; -125.128;   17.230
557.384; 1960.284;  122.884;  187.209
557.664;  740.837; -717.116; -508.792
557.943;  112.166; -557.121; -411.782
558.222;  161.194; -345.118; -344.788
558.502;  281.420; -116.115;  -76.793
558.781;  469.040;  194.885;  499.208
559.061;  391.119; -232.118; -227.788
559.340;  272.124;  302.883;  353.211
559.619;  671.304;   93.884;  148.210
559.899;  971.326; -239.117; -266.789
560.178;  881.594; -778.115; -593.793
560.457; 3017.877; -623.117; -562.790
560.736; 4193.029; -472.111; -482.800
561.015; 2745.027; -500.128; -502.769
561.295;  371.910;  180.893;  215.193
561.574;  342.717;  119.885;  116.207
561.853;  493.019;  274.891;  303.197
562.132;  466.047;  -45.114;  182.206
562.411;  415.261;  396.879;  553.219
562.690;  124.690; -592.115; -458.792
562.969;  140.089;  472.888;  630.203
563.248;  468.883; 2966.878; 2487.219
563.527;  260.004; -290.111; -408.800
563.806;  359.111; -650.127; -521.771
564.085;  390.125; -297.105; -206.810
564.364;  234.129; -594.117; -405.790
564.643;  480.411; -276.121; -223.781
564.922; 1751.388;  221.890;  397.198
565.201; 1781.167; -640.109; -700.803
565.479;  756.689; -297.115; -219.792
565.758;  296.504; -810.128; -712.770
566.037;  447.418; -155.109; -100.803
566.316;  235.984; -286.116;  -28.791
566.595;   38.292;  -17.115;  -12.793
566.873;   90.731; -166.111;  -79.801
567.152;  -69.511; -490.113; -590.797
567.431;   24.030; -113.116;    6.210
567.709;    3.510; -344.107; -212.807
567.988;  222.675; -810.114; -769.794
568.266;  511.366; -160.115;  -68.793
568.545;  366.322; -644.100; -514.819
568.824;  560.638;  160.885;  356.208
569.102;  527.075; -351.114; -235.794
569.381;  215.287; -492.116; -407.792
569.659;  -46.015; -553.113; -553.796
569.938;   34.757; -743.122; -465.780
570.216;  103.796; -225.109; -225.804
570.494;  -17.847; -632.114; -572.795
570.773;   36.990;  202.879;  114.218
571.051;   12.046; -373.123; -357.778
571.330;   58.433; -221.113; -174.796
571.608;   40.190; -181.098; -173.823
571.886;  -78.152; -671.111; -581.799
572.164;  -67.633; -739.121; -621.782
572.443;  -42.871; -562.105; -512.811
572.721;  -23.072; -399.117; -289.790
572.999;  -25.904; -280.117; -168.788
573.277;   98.422;  379.894;  620.191
573.555;  260.074;   94.894;   37.190
573.834; 1269.196;  -86.117; -114.788
574.112; 1480.713;  880.893;  811.193
574.390;  439.580; -143.111;  -96.801
574.668;    3.115;  -91.112;  -61.797
574.946;  -24.075; -165.106; -187.810
575.224;   18.242;   71.891;  -16.803
575.502;  -16.793; -200.116; -204.791
575.780;  -87.759; -767.112; -829.798
576.058;  125.404; 1589.889; 1004.200
576.336;  -23.665; -210.110; -129.801
576.614;  -63.834; -511.112; -340.798
576.891;   43.321; -711.115; -823.794
577.169;  459.954; -158.108; -285.805
577.447;  549.137;  169.893;  202.193
577.725;  260.245;  629.888;  854.201
578.003;   23.368;  -71.112; -371.798
578.280;   89.413; -208.104; -242.812
578.558;   91.195; -450.115; -422.793
578.836;  132.653; -210.114; -145.795
579.114;   55.314; -630.112; -670.797
579.391;   82.148;   -6.117;  -18.789
579.669;  -80.803; -595.114; -704.794
579.947;  173.884; -326.107; -127.806
580.224;  335.809; -692.107; -524.806
580.502;  301.588;  127.893;   76.193
580.779;   23.103;  -42.117;   75.210
581.057;  -59.079; -584.109; -470.804
581.334;  -93.797; -726.102; -695.815
581.612;   32.425;   54.895;  511.190
581.889;  -18.959;  -83.101; -129.818
582.167;  -26.420; -298.099; -190.821
582.444;  -89.665; -845.102; -814.817
582.721;   98.011;  657.899;  715.183
582.999;   40.027; -326.100; -167.821
583.276;  487.100; -812.123; -713.779
583.553;  661.331; -364.102; -294.816
583.831;  203.259; -607.104; -631.812
584.108;   56.802;  349.892;  174.195
584.385;    1.327; -122.102;  -98.815
584.662;  -64.794; -651.111; -828.801
584.940;   26.855;  204.889;  204.199
585.217;   -8.865;  -73.113; -303.796
585.494;   30.789;   71.890;  118.198
585.771;  195.947; -250.109; -354.804
586.048;  477.059; -196.113;  -76.796
586.325;  279.059; -721.110; -773.801
586.602;  100.288;  230.896;  213.188
586.879;  -10.326; -499.100; -580.820
587.156;   55.476; -156.105; -331.810
587.433;  -35.367; -701.102; -667.817
587.710;   60.667;  152.888;  234.202
587.987;  283.731; -264.105; -236.811
588.264;  767.343;  315.888;  387.202
588.541; 1279.666;  -61.104;   26.187
588.818; 2596.699;   72.892;  171.196
589.095; 2224.136; -163.104; -174.812
589.371;  360.320; -459.109; -414.804
589.648;    6.038; -581.107; -437.807
589.925;   14.054; -517.114; -621.795
590.202;   12.941; -741.112; -607.798
590.478;   85.258; -166.105;  -73.811
590.755;  259.605; -241.108; -132.806
591.032; 2360.186; -741.110; -699.802
591.308; 3209.730; -732.094; -790.831
591.585; 1681.735; -573.110; -560.802
591.862;  119.235;-1056.102; -950.817
592.138;   44.203; -475.108; -474.805
592.415;  141.064; -486.104; -495.813
592.691; 1397.962;  460.896;  518.188
592.968; 1810.642; -208.098; -123.824
593.244;  864.881; -695.116; -595.790
593.521;   67.885; -105.102;  -42.817
593.797;  -13.946; -810.122; -720.780
594.074;  301.554; -611.096; -588.826
594.350;  628.240;  828.905;  729.172
594.626;  294.556; -303.111; -283.801
594.903;   98.186; -643.101; -645.817
595.179;  189.968;  243.896;  418.187
595.455;    9.489; -136.107; -150.807
595.731;    3.769;  -19.103;  -38.814
596.008;  -37.449; -464.111; -434.800
596.284;   22.376; -187.100; -242.820
596.560;   44.411; -501.093; -493.833
596.836;  188.278; -173.105;  -70.810
597.112;  329.253; -582.108; -437.805
597.388;  271.877;  -49.097;  -48.826
597.665;  107.137;  437.887;  530.203
597.941;  -62.060; -572.089; -658.839
598.217;   20.464; -323.110; -293.802
598.493;  245.923;   61.891; -204.804
598.769;  480.046; -175.100;  -50.819
599.045;  287.306; -490.108; -562.806
599.321;   46.225; -193.100; -261.820
599.597;  134.498; -355.109; -476.804
599.872;  450.391;  409.896;  429.187
600.148;  358.154;  -61.097; -172.826
600.424;  266.886;   91.893;  202.193
600.700;  224.613; -170.107; -280.807
600.976;  126.248; -442.097; -464.825
601.252;  240.894; -226.109; -272.803
601.527;  193.466; -833.104; -840.813
601.803;  138.834; -453.105; -404.812
602.079;  173.346; -124.100; -118.819
602.354;  540.771; -620.092; -531.835
602.630;  781.585; -140.113; -482.796
602.906; 2159.741; -910.101; -863.818
603.181; 6296.135; -627.119; -534.786
603.457; 5358.801;   98.903; -278.826
603.733;  778.744; -605.120; -626.783
604.008;  924.600; -245.106; -164.810
604.284; 2917.037; -636.101; -580.817
604.559; 2501.120;   -3.112;  -42.799
604.835;  449.803; -163.105; -225.810
605.110;  395.455; -732.099; -892.821
605.385;  660.189;  224.907;  267.167
605.661;  618.093; -625.095; -729.829
605.936; 1088.532; -664.108; -737.806
606.211;  948.701;  -17.103; -170.815
606.487;  180.499; -329.114; -376.794
606.762;   24.611; -791.119; -745.786
607.037;  -31.797; -501.105; -433.810
607.313;  -50.914; -589.096; -574.828
607.588;   -0.875; -375.106; -137.810
607.863;   40.915;  -28.101; -143.818
608.138;  166.638;  513.890;  516.198
608.413;   21.284; -576.099; -592.822
608.688;   24.553; -203.108; -267.805
608.964;  185.819; -509.106; -218.809
609.239;  230.251; -107.105; -212.810
609.514;  238.608;  281.895;  240.188
609.789;  613.688; -187.104; -716.812
610.064;  823.060; -435.096; -609.827
610.339;  815.545; -855.109; -799.804
610.614; 1123.876; -131.100; -315.820
610.889;  621.259;  215.895;  107.188
611.163;   34.884; -407.104; -591.812
611.438;   63.975;   81.886; -167.794
611.713;    6.662; -467.101; -499.817
611.988;   39.539; -144.101; -328.818
612.263;  -29.797; -771.102; -717.815
612.538;  197.709;  385.887;  251.204
612.812;  150.452; -832.100; -911.820
613.087;  117.640; -358.098; -338.823
613.362;  -37.561; -497.107; -557.807
613.637;   50.922;  261.897;  138.186
613.911;  -14.578; -256.092; -345.835
614.186;   97.662; -249.107; -292.807
614.460;  640.540; -842.081; -758.854
614.735;  729.914;  -55.087;  -17.843
615.010;  156.379;   43.912;  -82.841
615.284;  234.352;  360.892;  246.195
615.559;  365.170; -792.092; -955.835
615.833;  272.907;  -76.099;  -87.822
616.108;    5.382; -225.090; -390.837
616.382;  135.690;  274.913;  402.156
616.656;  150.858; -241.090; -232.837
616.931;  470.783; -785.099; -700.822
617.205; 1000.242; -973.104; -979.813
617.480;  906.555;  -91.125;    6.225
617.754;  164.727; -396.125; -128.774
618.028;   18.573; -369.129; -382.768
618.302;   64.826;   73.892;  -25.805
618.577;  -52.177; -371.103; -518.815
618.851;  -57.059; -399.109; -600.803
619.125;  -47.646; -335.134; -378.759
619.399;  -24.883; -244.104; -374.813
619.673;  -49.437; -330.115; -515.792
619.947;  -55.222; -333.114; -448.795
620.222;  -11.318; -198.110; -204.801
620.496;    5.517;  -47.121;  -96.782
620.770;    7.008; -187.122;  -93.781
621.044;  207.226;  323.895;  346.190
621.318;  688.870; -653.120; -614.783
621.592;  622.292; -430.121; -409.783
621.866;  322.221; -476.112; -572.799
622.140;   32.107; -207.116; -356.791
622.413;   57.125;  138.889;  112.200
622.687;  -34.913; -746.101; -492.817
622.961;   -7.949; -130.108; -143.805
623.235;  -65.924; -633.111; -661.800
623.509; -108.542; -816.105; -848.811
623.783;   21.085;  -12.107;   48.193
624.056;  -38.279; -254.120; -280.783
624.330;   53.640;   63.888;   -3.797
624.604;   51.904; -271.116; -355.790
624.877;   75.537;  180.890;   26.198
625.151;   21.273; -249.114; -238.794
625.425;  -41.156; -150.103; -283.814
625.698;  -61.645; -367.119; -374.785
625.972;  -88.111; -799.110; -765.802
626.245;   75.181;  685.884;  484.210
626.519;  -50.050; -426.120; -340.784
626.792;  -37.662; -192.107; -380.807
627.066;  -90.224; -485.122; -662.779
627.339;  -95.640; -736.110; -663.802
627.613;   43.773;  351.880;  148.216
627.886;   68.816;  187.891; -612.803
628.160;    2.144;  312.880; -161.783
628.433;  -95.467; -695.125; -703.775
628.706;  -82.375; -517.120; -615.784
628.979;   22.414;  296.876;  117.223
629.253;  -88.340; -785.119; -833.786
629.526;  325.267; -334.126; -253.772
629.799;  310.196; -641.123; -479.778
630.072;  143.375; -497.128; -516.769
630.346;  -53.519;-1115.116;-1080.790
630.619;  429.789; -467.107; -545.808
630.892;  595.002;  709.889;  593.200
631.165;  304.117;  790.896;  679.187
631.438;  -88.057;-1092.112;-1055.798
631.711;   48.349;  453.877;  257.221
631.984;  -58.599; -523.117; -624.789
632.257;  -79.402; -636.117; -681.789
632.530;  -54.945; -412.119; -433.785
632.803;   14.046; -109.115;    7.207
633.076;  -81.132; -360.123; -422.777
633.349;   17.529;  173.872;  121.231
633.622;  -41.096; -187.119; -240.785
633.895; -118.855; -903.120; -823.783
634.167;  -64.031; -496.126; -525.773
634.440;  -16.088;  -19.116; -137.792
634.713;    6.109;  -22.119; -120.786
634.986;   82.743;  593.871;  453.233
635.258;  -72.181; -507.115; -597.793
635.531;   87.244;  742.882; -343.788
635.804;  -17.950; -303.117; -318.789
636.077;  -89.992; -830.116; -852.791
636.349;  -13.483; -586.115; -474.793
636.622;  383.717; 1695.874; 1392.228
636.894;  221.775; -474.120; -909.784
637.167;  138.336; -836.127; -789.771
637.439;   32.032; -278.128; -213.770
637.712;  -47.782; -312.126; -293.772
637.984;  -84.516; -635.116; -707.791
638.257;  357.693;  515.877;  488.222
638.529;  548.784; -881.125; -924.776
638.802;  236.124; -508.128; -449.769
639.074; -101.942; -927.122; -952.781
639.346; -126.005; -942.135; -930.757
639.619;    1.706;  -79.142; -319.744
639.891;   -5.799;  -83.122; -168.779
640.163;  -92.897; -689.122; -756.780
640.435;   47.230;  273.878;  103.220
640.708;    3.782;  -72.122; -132.780
640.980;  -26.691; -366.122; -362.781
641.252;  166.586;  -25.121;  -71.781
641.524; 1737.837;  580.879;  573.219
641.796; 1743.139;-1094.121; -907.782
642.068;  299.066; -191.121; -300.782
642.340;  -52.007; -486.121; -566.783
642.613;   23.870;  294.880;  323.217
642.885; -100.404; -787.120; -878.783
643.157;  -53.352; -810.120; -658.784
643.428;   62.825;  170.880;  218.216
643.700;  -84.523; -498.120; -425.784
643.972;  -35.496;  -16.119; -133.785
644.244;  -94.794; -474.119; -559.785
644.516;  -57.443; -250.119; -114.786
644.788;   56.784;  662.881;  548.214
645.060;  -18.089;  -12.119; -124.786
645.332; -111.912; -525.118; -535.787
645.603;   36.865;  479.882;  342.213
645.875;  -77.108; -334.118; -369.787
646.147;  163.618; 1487.882; 1242.212
646.418;  -75.205; -931.117; -918.788
646.690;  112.297; -714.117; -715.789
646.962;   30.999; -413.117; -451.789
647.233;  -18.524;   15.883;   11.211
647.505; -102.398; -595.117; -475.790
647.776;   28.804;  328.884;  229.210
648.048;  -18.669; -248.116; -418.790
648.320;  -77.217; -752.116; -679.791
648.591; -150.065;-1055.116; -958.791
648.862;  -87.888; -505.116; -577.792
649.134;    8.013;  115.885;  198.208
649.405;  -46.060; -661.115; -618.792
649.677;  -66.758; -475.115; -598.793
649.948;    1.694; -181.115; -296.793
650.219;   -7.154;  -37.115; -147.793
650.491;  -76.378; -431.114; -520.794
650.762; -109.551; -705.114; -731.794
651.033;  -90.399; -437.114; -424.795
651.304;  -90.297; -743.114; -728.795
651.576;  -65.820; -680.114; -645.795
651.847;  -39.843; -250.113; -140.796
652.118;  -19.967;  -32.113; -189.796
652.389; -111.890; -639.113; -722.796
652.660;  -23.188; -147.113;  -89.797
652.931; -132.386; -897.112; -871.797
653.202;  -78.309; -382.112; -541.798
653.473;  -62.507; -633.112; -533.798
653.744;  145.469; -595.112; -590.798
654.015;  120.546; -356.112; -303.799
654.286;  -60.302; -642.111; -663.799
654.557;  -68.775; -586.111; -521.799
654.828; -155.848;-1114.111;-1088.800
655.099;  -86.972; -404.111; -291.800
655.370;  -98.920; -427.111; -543.801
655.641; -123.718; -656.110; -714.801
655.911;  -91.241; -618.110; -638.801
656.182;   37.461;  437.890;  387.198
656.453;   90.763;  830.890;  746.198
656.724;  -67.236; -466.110; -426.802
656.994;  -82.959; -553.109; -568.803
657.265; -108.757; -862.109; -873.803
657.536;  -91.580; -500.109; -377.804
657.806;  -98.328; -561.109; -593.804
658.077; -142.326; -866.109; -950.804
658.347;  -81.000; -523.108; -598.805
658.618; -121.748; -646.108; -694.805
658.888;  -24.046;  -41.108;  112.195
659.159;  -78.969; -432.108; -548.806
659.429;  -27.292; -292.108; -349.806
659.700;    8.359; -435.107; -390.807
659.970;  -17.764; -370.107; -359.807
660.241;    2.963; -754.107; -921.807
660.511;  466.540; -147.107; -174.808
660.781;   93.667; -793.106; -748.808
661.052;  -51.031; -222.106; -381.808
661.322;  -23.230;   21.894;   -9.809
661.592;    6.772;  257.894;  148.191
661.862;  -80.651; -369.106; -382.810
662.133;  -93.774; -551.105; -502.810
662.403; -115.747; -770.105; -676.810
662.673;  -55.695; -256.105; -213.811
662.943; -104.194; -612.105; -551.811
663.213;   -2.717;  -85.105;  -81.811
663.483;  -82.065; -593.104; -568.812
663.753;  -45.863; -194.104; -152.812
664.023;    0.014;   68.896;  -32.813
664.293;  -71.410; -319.104; -126.813
664.563; -100.133; -694.104; -648.813
664.833; -121.806; -743.103; -608.814
665.103; -128.829; -730.103; -793.814
665.373; -123.727; -766.103; -806.814
665.643;  -80.150; -863.103; -918.815
665.913;   22.776; -534.103; -714.815
666.182;  130.203; -685.102; -719.816
666.452;  236.505;  -22.102;  -89.816
666.722;  -34.318; -724.102; -784.816
666.992; -138.016; -948.102; -921.817
667.261;  -88.164; -824.102; -808.817
667.531;  196.337;  134.899;   45.183
667.801;  534.139; -440.101; -412.818
668.070;  233.691;  714.899;  697.182
668.340; -101.757; -883.101; -840.819
668.609;   84.745;  588.900;  301.181
668.879;  -69.404; -490.100; -558.819
669.149;  -73.927; -539.100; -516.820
669.418; -108.000; -698.100; -726.820
669.688;  -42.323; -482.100; -666.820
669.957;   61.504; -423.099; -546.821
670.226;  -27.994; -268.099; -331.821
670.496;  -86.343; -431.099; -635.822
670.765;  -85.966; -418.099; -501.822
671.034; -138.839; -872.099; -828.822
671.304;   -7.937;   55.902; -111.823
671.573; -151.610;-1085.098; -957.823
671.842;   66.466; -380.098; -294.823
672.112;   15.618; -692.098; -586.824
672.381;   -7.630; -239.098; -214.824
672.650; -122.903;-1005.097;-1021.825
672.919;  -84.501; -631.097; -507.825
673.188;  -98.074; -681.097; -878.825
673.457; -155.573;-1101.097;-1143.826
673.726;  -85.446; -579.096; -646.826
673.995;  -43.719; -533.096; -479.826
674.265;  -17.442; -263.096; -333.827
674.534;   -6.165; -183.096; -235.827
674.802;    4.762; -618.096; -703.828
675.071;  938.413; -886.095; -801.828
675.340; 3686.915; -464.095; -339.828
675.609; 1234.567;  103.905;   82.171
675.878;   56.794; -949.095; -893.829
676.147;   30.046;  -26.095;   -8.829
676.416;   94.247; -210.094; -294.830
676.685;  692.374; 1000.906; -622.830
676.953;  107.076; -603.094; -452.831
677.222;  -28.497; -193.094; -273.831
677.491;  -28.820;  -24.094; -127.831
677.759;  -25.143;   11.907;  172.168
678.028;  -19.467; -279.093; -222.832
678.297;   -8.365;   71.907;  197.168
678.565; -143.538; -898.093; -944.833
678.834;  -64.661; -311.093; -268.833
679.102;  -79.859; -411.092; -391.834
679.371; -141.357; -898.092; -727.834
679.639; -120.056; -797.092; -786.834
679.908; -115.679; -794.092; -724.835
680.176; -150.627; -895.091; -941.835
680.445;  -75.450; -346.091; -352.835
680.713;  -25.373;  -58.091;  -23.836
680.982; -107.222; -523.091; -525.836
681.250; -115.370; -578.091; -507.837
681.518; -111.318; -534.090; -751.837
681.787;  -18.416; -204.090; -167.837
682.055;  -74.539; -490.090; -422.838
682.323; -148.262; -993.090; -992.838
682.591;   26.814; -216.090; -538.838
682.859;   77.391;    9.911;  -35.839
683.128;   22.793;  232.911;  497.161
683.396; -162.680;-1102.089;-1122.840
683.664;  -36.528; -241.089;   21.160
683.932;   -8.951;  144.911;  -76.840
684.200;  -78.350; -576.088; -320.841
684.468;  -26.023;  -73.088; -124.841
684.736;  -33.496; -214.088; -175.841
685.004; -124.119;-1024.088; -982.842
685.272;  -53.567; -880.088; -774.842
685.540;  -60.566; -499.087; -557.843
685.808;  -92.364; -651.087; -682.843
686.076;  -93.837; -894.087; -969.843
686.343;  -69.685; -601.087; -815.844
686.611;   53.992; -195.087; -224.844
686.879;  424.969; -530.086; -553.844
687.147; 3108.320; -483.086; -480.845
687.414;  886.372;  -12.086; -169.845
687.682;   -8.101; -658.086; -757.846
687.950;  282.351;  259.915;  263.154
688.217;   -0.747; -792.085; -760.846
688.485;  -23.495; -632.085; -636.847
688.753;  490.881;  -11.085; -102.847
689.020;  138.033; -820.085; -851.847
689.288; -103.440; -853.084; -787.848
689.555;  -42.888; -195.084; -148.848
689.823;  -44.936; -241.084; -345.849
690.090;  -82.585; -546.084; -651.849
690.358; -146.083; -877.084; -897.849
690.625;    0.594;  120.917;   45.150
690.892;  -78.404; -403.083; -369.850
691.160;  -13.402;   72.917;  -35.850
691.427;    0.400;  141.917;  130.149
691.694; -125.499; -855.083; -929.851
691.962; -139.147;-1177.082;-1060.852
692.229;   -3.220;  127.918;   56.148
692.496;   69.732;  130.918;  -49.852
692.763;    8.959; -164.082; -201.853
693.031;  -57.165; -739.082; -716.853
693.298;  -29.463; -509.081; -368.853
693.565;  288.564; -155.081; -163.854
693.832; 1200.391;   -5.081;   -9.854
694.099;  143.618; -643.081; -642.855
694.366;  -64.830; -882.081; -896.855
694.633;  -53.279; -920.080; -633.855
694.900;  723.798; 4367.920; -114.856
695.167;  415.350; -214.080; -380.856
695.434;   97.602; -646.080; -623.856
695.701;  200.879;  121.921;  -61.857
695.968;  454.981; -365.079; -361.857
696.234;  971.057; -415.079; -646.858
696.501;10299.359; -776.079; -614.858
696.768; 5267.336; -554.079; -617.858
697.035;  328.913; -632.078; -667.859
697.302;   41.565; -448.078; -552.859
697.568;   19.191; -458.078; -497.859
697.835;  -47.232; -683.078; -624.860
698.102;  -36.880; -498.078; -407.860
698.368;   67.347;  384.923;  396.139
698.635;  -28.701;  -47.077; -424.861
698.901;   -9.324; -240.077; -348.861
699.168;   67.052; -534.077; -456.862
699.435;   54.729;  -72.077;  -13.862
699.701; -104.044; -868.076; -764.862
699.968;    8.308;  144.924; -441.863
700.234; -106.840; -783.076; -822.863
700.500;  -69.638; -448.076; -539.864
700.767;   -8.162;   -1.075;   26.136
701.033; -128.135;-1015.075; -963.864
701.299;  -51.508; -450.075; -483.865
701.566;  112.969;  950.925;  763.135
701.832;   26.796;  -31.075;  -76.865
702.098;  -93.853;-1054.074;-1034.866
702.365;  -93.651;-1098.074;-1030.866
702.631;  -33.899;-1038.074;-1063.867
702.897; 1311.328; -765.074; -676.867
703.163; 2194.655;  348.926;  254.133
703.429;  155.732; -256.073; -273.868
703.695;  -36.242; -796.073; -792.868
703.961;   23.985; -214.073; -210.868
704.227;  -56.988; -630.073; -725.869
704.493;  144.914;  613.927;  510.131
704.759;  -18.334; -565.072; -540.870
705.025;   32.793; -203.072; -194.870
705.291;   -9.656; -666.072; -562.870
705.557;  198.271;  719.928;   34.129
705.823;   32.723; -742.072; -694.871
706.089;  142.725; -307.071; -326.871
706.355;  385.327; -315.071; -244.872
706.620; 5648.128; -776.071; -729.872
706.886; 7872.030; -309.071; -362.873
707.152;  729.282; -818.070; -973.873
707.418;   -5.541;-1153.070;-1186.873
707.683;    7.886; -550.070; -530.874
707.949;  -39.762; -547.070; -578.874
708.215;    7.789; -129.070; -207.874
708.480;   -6.509; -520.069; -420.875
708.746;   98.893;   68.931;   28.125
709.011;  -47.605; -578.069; -612.876
709.277;  -76.253; -538.069; -543.876
709.542;  -53.027; -428.069; -387.876
709.808;    1.000;  -59.068;   89.123
710.073;  -77.723; -577.068; -695.877
710.339;  -22.471; -242.068; -228.877
710.604;   67.581; -780.068; -845.878
710.869;  316.808; -277.068; -366.878
711.135;  -78.516; -715.067; -628.879
711.400;  -82.264; -507.067; -608.879
711.665;  -61.812; -404.067; -479.879
711.931;  -99.585; -661.067; -677.880
712.196; -111.533; -876.067; -954.880
712.461;   99.594; -402.066; -490.880
712.726;  126.520; -727.066; -771.881
712.991;  -76.753; -647.066; -664.881
713.256;  -48.151; -350.066; -332.882
713.521;  -58.549; -417.065; -381.882
713.787;  -60.522; -454.065; -472.882
714.052;  -45.671; -214.065; -400.883
714.317;  -92.319;-1045.065; -981.883
714.581; 1038.108; -374.065; -268.883
714.846; 1446.135; -822.064; -888.884
715.111;  135.362;  261.936;  257.116
715.376;  -22.536;  -86.064; -223.885
715.641;  -14.885; -365.064; -367.885
715.906;  267.567;   15.936; -551.885
716.171;  145.469;  221.937;  209.114
716.436;   24.771;  -78.063; -104.886
716.700; -106.252; -818.063; -692.886
716.965; -114.550; -794.063; -807.887
717.230;  -59.374; -339.063; -392.887
717.494;  -27.472;  -40.062; -134.888
717.759;  -96.695; -784.062; -640.888
718.024;    6.282;  269.938;  250.112
718.288;   75.534;  685.938;  395.111
718.553; -131.840; -803.062; -977.889
718.817; -138.838; -883.061; -899.889
719.082;  -36.636; -115.061; -125.890
719.346; -142.184;-1000.061; -947.890
719.611;  -36.307; -300.061; -255.891
719.875;  -91.930; -568.060; -537.891
720.140;  -63.154; -453.060; -603.891
720.404;   41.473; -136.060; -249.892
720.668;  819.975; -475.060; -411.892
720.933;  303.627;  146.940;  137.108
721.197;  -98.571; -667.059; -600.893
721.461; -127.969; -851.059; -826.893
721.725;  -14.168;  -21.059; -250.894
721.990;  -70.341; -284.059; -204.894
722.254;  -27.664;  -26.059; -108.894
722.518;  -68.812; -286.058; -442.895
722.782;  -83.085; -743.058; -594.895
723.046;  123.866;  614.942;  570.105
723.310;   21.018;  374.942;  210.104
723.574;  -93.280; -654.058; -614.896
723.838; -103.003; -576.057; -642.897
724.102;  -48.876; -226.057; -239.897
724.366; -150.049;-1032.057; -978.897
724.630; -101.698; -749.057; -571.898
724.894;  -62.971; -722.057; -514.898
725.158;   -0.769;   38.944; -295.898
725.422;  -68.617; -394.056; -327.899
725.685;  -52.615; -441.056; -349.899
725.949;  -87.313; -566.056; -519.900
726.213;  -87.237; -732.056; -811.900
726.477;  163.515;-1020.055; -933.900
726.740;  139.917; -274.055; -104.901
727.004;  320.869; -384.055; -510.901
727.268; 3294.046; -442.055; -400.901
727.531;  925.572; -961.055; -775.902
727.795;  -40.676; -713.054; -673.902
728.059;  -59.074; -552.054; -557.903
728.322;  -67.097; -841.054; -669.903
728.586;   24.230; -692.054; -701.903
728.849;  -97.218; -695.053; -756.904
729.112; -121.592; -812.053; -912.904
729.376; -121.590; -959.053; -905.904
729.639;  -75.888; -536.053; -536.905
729.903; -117.886; -733.053; -699.905
730.166;  -45.084; -437.052; -399.906
730.429;  -44.383; -317.052; -468.906
730.693;  -69.456; -355.052; -894.906
730.956;  198.246;  810.948;  651.093
731.219;  684.023; -310.052; -103.907
731.482;  117.325;-1003.051; -894.907
731.745;  103.352; -794.051; -935.908
732.009;   21.103;  -30.051;   50.092
732.272; -107.720; -904.051; -771.909
732.535;  -44.243; -300.051; -310.909
732.798; -146.841;-1083.050;-1166.909
733.061;  -66.539; -430.050; -456.910
733.324;    5.663;   31.950; -180.910
733.587;   71.639;  290.950;  365.090
733.850;  -72.759; -973.049;-1050.911
734.113;   24.018;   33.951;   32.089
734.376;   -9.880; -328.049; -447.912
734.639;  213.697; 1188.951; 1011.088
734.901;   60.473; -180.049; -402.912
735.164;  470.225; -883.048; -837.913
735.427; 1255.252; -166.048; -355.913
735.690;  109.104; -205.048; -234.913
735.952;  -24.069; -923.048; -925.914
736.215;  -35.642;-1113.048;-1009.914
736.478;   53.359; -771.047; -774.915
736.740;  209.986;   33.953;  129.085
737.003;  642.788; -658.047; -672.915
737.266; 3866.190;  -94.047;   46.084
737.528;  443.142; -682.047; -660.916
737.791;  313.794; -316.046; -327.916
738.053;  800.695;  465.954;  649.083
738.316;10755.572; -162.046; -136.917
738.578; 7677.849; -770.046; -736.918
738.841;  442.351; -382.046; -446.918
739.103;  181.403; -875.045; -777.918
739.365;  502.954;   79.955;  -69.919
739.628;   -4.519; -884.045; -805.919
739.890;  -29.917; -758.045; -710.919
740.152;  -38.715; -692.044; -754.920
740.414;  -11.313; -408.044; -359.920
740.677;  -47.286; -785.044; -634.921
740.939;  -48.660; -587.044; -487.921
741.201;  257.767; -432.044; -572.921
741.463;   28.569; -689.043; -745.922
741.725;   12.021;  -21.043; -199.922
741.987;   42.848;  220.957;  116.078
742.249;   -9.675; -751.043; -859.923
742.511;  203.151; -703.043; -794.923
742.773;   19.803; -546.042; -546.924
743.035;  126.880;  796.958;  533.076
743.297;  -34.018; -963.042;-1013.924
743.559;  726.309; -278.042; -262.925
743.821;   55.585; -735.042; -744.925
744.083;    6.637;  -44.041; -149.925
744.345;  -99.911; -869.041; -892.926
744.607;   21.716;   75.959;  122.074
744.868;  -41.932; -490.041; -554.927
745.130; -113.730; -994.041;-1008.927
745.392;   45.021;   -1.040;  -44.927
745.653;  -13.302; -411.040; -378.928
745.915;  147.475;  896.960;  631.072
746.177;   61.477;   35.960;  -43.928
746.438;  -13.521; -428.040; -543.929
746.700;  -55.269; -947.039; -988.929
746.961;    5.232; -659.039; -740.930
747.223;  126.784; -190.039;  -74.930
747.484;   96.336; -391.039; -471.930
747.746;  161.763;  -23.038; -106.931
748.007;  118.215; -647.038; -689.931
748.269;  282.416; -468.038; -440.931
748.530;  457.268; -852.038; -638.932
748.791;  266.495; -354.038; -420.932
749.053;  448.547;  286.963;  163.067
749.314;  447.949; -236.037; -169.933
749.575;  519.576; -945.037; -905.933
749.836;  812.552; -217.037;   86.066
750.098; 2377.854;  -60.037;  -21.934
750.359;35686.531;  414.964;  555.066
750.620; 9167.608; -121.036; -220.935
750.881;  990.635; -585.036; -513.935
751.142; 1345.936; -950.036; -938.936
751.403;16542.788; -789.036; -705.936
751.664; 7349.540;-1034.035; -999.936
751.925;  501.817; -175.035; -262.937
752.186;  277.819; -298.035; -278.937
752.447;  137.471; -590.035; -445.937
752.708;   49.747; -532.035; -648.938
752.969;    8.174; -566.034; -576.938
753.230;    3.051; -777.034; -672.939
753.491;   -1.297; -650.034; -631.939
753.751;   63.130;  109.966;   19.061
754.012;   86.007;  258.967;  181.060
754.273;   48.758; -174.033;  -71.940
754.534;    7.510; -487.033; -580.940
754.794;  -82.613; -926.033; -911.941
755.055;  127.164; 1051.967;  881.059
755.316;  -31.909; -700.032; -566.942
755.576;  -35.358; -606.032; -576.942
755.837;  -38.381; -527.032; -695.942
756.097;  -40.404; -530.032; -564.943
756.358;  -68.827; -725.032; -770.943
756.618;  -53.775; -705.031; -641.943
756.879;   11.477; -254.031; -349.944
757.139; -126.372;-1098.031;-1116.944
757.400;  -55.770; -538.031; -553.945
757.660;  -11.418; -365.031; -401.945
757.920;   10.059; -266.030; -228.945
758.181;  -12.814; -468.030; -351.946
758.441;  -94.337; -870.030; -809.946
758.701;  -33.836; -308.030; -215.946
758.961;  -14.834; -220.030; -278.947
759.222;  -42.482; -574.029; -502.947
759.482;  -83.705; -683.029; -723.948
759.742;  -88.528; -706.029; -547.948
760.002;    9.298;  -83.029; -143.948
760.262;   23.600;   50.972;  182.051
760.522;  -38.723; -498.028; -574.949
760.782;  -55.321; -738.028; -612.949
761.042;  -33.319; -618.028; -573.950
761.302;   43.183;   55.972;  -18.950
761.562;   58.459; -164.027; -154.951
761.822;   61.736; -710.027; -551.951
762.082;  -50.912;-1104.027;-1093.951
762.342;   63.590; -328.027; -403.952
762.601;   81.892; -567.027; -506.952
762.861;  355.994; -281.026; -207.952
763.121;  401.870; -406.026; -411.953
763.381; 7309.797; -499.026; -485.953
763.640; 8175.299; -139.026; -307.954
763.900;  360.551; -242.026; -203.954
764.160;   81.303; -458.025; -491.954
764.419;  -22.646; -726.025; -782.955
764.679;  -75.144; -795.025; -726.955
764.939;  -19.742; -124.025; -210.955
765.198;  -85.890; -608.025; -563.956
765.458;  -74.388; -710.024; -612.956
765.717;  -79.036; -454.024; -590.957
765.976;  -63.435; -428.024; -411.957
766.236;  -70.708; -475.024; -610.957
766.495;   20.144;  260.977;   73.042
766.755;  -98.629;-1090.023; -987.958
767.014;  -10.777; -594.023; -665.958
767.273;  -57.176; -373.023; -397.959
767.533;  -55.124; -228.023; -307.959
767.792;  -34.247; -151.022; -188.960
768.051;  -43.845; -228.022; -276.960
768.310;  -82.543; -546.022; -650.960
768.569;   -6.166; -161.022;    4.039
768.828;  -21.665; -285.022; -363.961
769.088; -128.363;-1050.021; -942.961
769.347;  -89.986; -755.021; -599.962
769.606;  -98.384; -876.021; -857.962
769.865; -108.432;-1016.021;-1033.963
770.124;   -7.505; -411.021; -336.963
770.383;  -51.329; -778.020; -910.963
770.641;    3.498; -398.020; -400.964
770.900;  -67.675; -953.020; -846.964
771.159;  -47.848; -851.020; -951.964
771.418;  -19.571; -917.020; -779.965
771.677;  137.455; -224.019; -293.965
771.936;  143.607; -794.019; -865.966
772.194; 2171.684; -465.019; -437.966
772.453;11208.736; -213.019; -391.966
772.712;  768.388;  416.982;  329.033
772.970;  128.365;   32.982;   63.033
773.229;   81.616;  -22.018;  102.033
773.488;  -75.582; -814.018; -770.968
773.746;   52.795;  296.982;  335.032
774.005;    2.422;  190.983;  -22.969
774.263;    7.349;  243.983;  177.031
774.522;  -42.824; -422.017; -548.969
774.780;  -71.748; -484.017; -417.970
775.039;  -92.671; -551.017; -531.970
775.297;  -41.194; -135.016; -351.970
775.555; -108.117; -489.016; -612.971
775.814; -113.090; -618.016; -570.971
776.072; -114.589; -749.016; -740.971
776.330; -112.087; -630.016; -520.972
776.589; -124.360; -703.015; -721.972
776.847; -125.333; -645.015; -624.973
777.105; -173.206;-1016.015;-1032.973
777.363;  -90.829; -459.015; -454.973
777.621; -142.378; -660.015; -717.974
777.879;  -31.751;  -42.014;   32.026
778.138;  -84.549; -554.014; -717.974
778.396; -111.872; -585.014; -526.975
778.654; -168.345;-1015.014; -970.975
778.912;  -70.518; -269.014; -371.976
779.170; -138.042; -880.013; -803.976
779.427; -151.465; -922.013; -897.976
779.685; -122.663; -880.013; -832.977
779.943;  -86.111; -654.013; -593.977
780.201; -144.134; -964.012; -883.978
780.459; -136.658; -651.012; -610.978
780.717;  -79.681; -440.012; -390.978
780.974;  -93.304; -449.012; -490.979
781.232;  -76.877; -358.012; -338.979
781.490;  -74.100; -551.011; -472.979
781.747;  -98.048; -555.011; -476.980
782.005;   21.203;  462.989;  254.020
782.263; -165.320; -542.011;-1004.981
782.520;  -87.368; -326.011; -501.981
782.778; -175.816;-1013.010;-1051.981
783.035; -163.589; -962.010; -938.982
783.293;  -74.137; -248.010; -206.982
783.550;  -62.011; -134.010; -198.982
783.808; -127.459; -764.010; -776.983
784.065; -162.907; -745.009; -874.983
784.322;  -65.630;   25.991;  -86.984
784.580; -137.378; -915.009; -771.984
784.837;  -86.402; -392.009; -466.984
785.094; -140.725; -783.009; -762.985
785.352;  -68.323; -304.008; -404.985
785.609; -110.271; -934.008; -839.985
785.866;  -84.794; -345.008; -401.986
786.123;  -70.342; -639.008; -583.986
786.380;  -99.541; -665.008; -604.987
786.637;  -43.114; -225.007; -380.987
786.895;  -24.987; -456.007; -543.987
787.152;  -54.060; -135.007; -267.988
787.409;  -50.258; -123.007; -225.988
787.666;  -98.107; -299.006; -378.988
787.923; -108.930; -616.006; -695.989
788.179;  -95.303; -551.006; -584.989
788.436; -104.026; -585.006; -585.990
788.693;  -37.399;  -92.006;  -87.990
788.950;  128.178; -125.005; -112.990
789.207;  194.279; -381.005; -372.991
789.464;  -45.419; -161.005; -301.991
789.720;  -11.692;  150.995;  110.009
789.977; -168.115;-1003.005; -671.992
790.234;  -48.688;   44.996;  -66.992
790.490; -153.236; -884.004;-1031.993
790.747;  -20.810;  -85.004;   22.007
791.004;  -29.383; -426.004; -348.993
791.260;  -67.431; -430.004; -560.994
791.517;  -87.854; -843.003; -788.994
791.773;  -47.477; -379.003; -342.994
792.030; -104.251; -596.003; -660.995
792.286; -100.274; -686.003; -636.995
792.543;  -12.372;  -74.002; -159.995
792.799;  -53.920; -584.002; -382.996
793.055; -161.368;-1179.002;-1210.996
793.312;  -93.516; -827.002; -816.997
793.568;  -61.240; -746.002; -599.997
793.824;    6.712; -226.001; -284.997
794.081;   22.414; -447.001; -508.998
794.337;   48.441; -664.001; -561.998
794.593; 1277.518; -319.001; -271.999
794.849; 6526.170; -746.001; -772.999
795.105;  342.471; -270.000; -261.999
795.361;    9.048; -490.000; -457.000
795.617;  -57.250; -875.000; -945.000
795.873;  -51.350; -360.000; -407.000
796.129;  -40.550; -368.000; -306.000
796.385;  -21.075; -124.000; -156.000
796.641;   69.500;  412.000;  550.000
796.897;  -78.175; -666.000; -635.000
797.153;   70.150;  453.000;  357.000
797.409; -108.725; -785.000; -868.000
797.665;  -73.175; -625.000; -732.000
797.921;  -69.700; -775.000; -762.000
798.176;  -62.500; -744.000; -747.000
798.432;  -60.950; -824.000; -596.000
798.688;  -76.550;-1174.000;-1078.000
798.943;   81.275; -165.000; -147.000
799.199;    0.125;-1005.000; -959.000
799.455;  240.100;  369.000;  316.000
799.710;  132.225; -813.000; -380.000
799.966;  298.850; -162.000; -160.000
800.221;  452.350; -638.000; -721.000
800.477;10374.325; -743.000; -710.000
800.732; 9454.925; -773.000; -800.000
800.988;  645.250;  205.000;  -19.000
801.243; 1817.925; -454.000; -344.000
801.498; 8045.400; -814.000; -739.000
801.754;  463.000; -289.000; -163.000
802.009;  104.900; -257.000; -335.000
802.264;  -43.550; -967.000;-1033.000
802.520;   14.500;  222.000;   -3.000
802.775;  -37.575; -524.000; -359.000
803.030;   45.900;  395.000;  356.000
803.285; -105.250; -840.000; -903.000
803.540;  -59.375; -686.000; -699.000
803.795;  -47.775; -648.000; -583.000
804.051;  -42.950; -279.000; -346.000
804.306;   30.650;  168.000;  128.000
804.561;  126.750;  451.000;  362.000
804.816;  128.825;  714.000;  861.000
805.071;    5.625; -185.000; -280.000
805.325;  206.950; -257.000; -427.000
805.580; -100.300; -841.000; -877.000
805.835;  -35.600; -204.000; -297.000
806.090;  -70.475; -760.000; -676.000
806.345;  -15.575; -344.000; -264.000
806.600;  -35.075; -549.000; -632.000
806.854;  -30.850; -408.000; -538.000
807.109;  -13.550; -493.000; -577.000
807.364;   15.450; -407.000; -328.000
807.618;   -4.800; -415.000; -381.000
807.873;   44.750; -470.000; -494.000
808.128;   83.575; -257.000; -518.000
808.382;   96.525; -224.000; -332.000
808.637;   81.325; -440.000; -511.000
808.891;  182.850; -257.000; -180.000
809.146;  112.975; -902.000; -794.000
809.400;  251.725; -848.000; -923.000
809.654;  324.725; -779.000; -551.000
809.909;  485.375; -841.000; -927.000
810.163; 6309.700; -813.000; -651.000
810.418;16735.625; -940.000; -861.000
810.672; 1048.900; -685.000; -690.000
810.926;  733.200; -993.000; -973.000
811.180; 1399.150; -439.000; -372.000
811.434;31761.475;  240.000;  135.000
811.689;13173.850; -231.000; -365.000
811.943;  642.925; -936.000; -953.000
812.197;  339.350; -893.000; -671.000
812.451;  140.925; -379.000; -514.000
812.705;  -19.150; -809.000; -619.000
812.959;    1.725; -263.000; -388.000
813.213;   -6.575; -283.000; -209.000
813.467;   72.500;  470.000;  253.000
813.721;  -99.250; -764.000; -792.000
813.975; -113.225; -826.000; -877.000
814.229;   47.650;  430.000;  353.000
814.482;  -74.475; -517.000; -566.000
814.736; -120.625; -766.000; -744.000
814.990; -117.600; -779.000; -872.000
815.244;  -46.700; -228.000; -285.000
815.497;  -97.750; -636.000; -601.000
815.751;  -22.000; -141.000;   82.000
816.005;  -84.200; -470.000; -586.000
816.258;  -74.250; -510.000; -363.000
816.512;  -94.600; -693.000; -610.000
816.766;   -0.300;  121.000;  157.000
817.019;   31.075;  148.000;  149.000
817.273; -126.225;-1000.000; -802.000
817.526;  -32.375; -206.000; -173.000
817.779;  -63.950;-1049.000; -960.000
818.033;  -67.275; -693.000; -807.000
818.286; -122.700; -725.000; -792.000
818.540;  -94.625; -403.000; -403.000
818.793;  -76.425; -402.000; -489.000
819.046; -107.500; -582.000; -520.000
819.299;  -38.150; -157.000; -166.000
819.553; -106.350; -552.000; -592.000
819.806; -177.025;-1016.000; -838.000
820.059;  -74.025; -334.000; -354.000
820.312;   -0.275;  152.000;  185.000
820.565;  -27.500;  110.000;  -27.000
820.818;  -57.350;  -59.000; -173.000
821.071; -151.925;-1041.000; -957.000
821.324; -105.325; -536.000; -540.000
821.577;  -96.750; -457.000; -483.000
821.830;  -69.425; -270.000; -172.000
822.083; -129.700; -733.000; -288.000
822.336;  -47.625; -261.000; -167.000
822.589; -137.925; -805.000; -688.000
822.842; -141.350; -875.000; -770.000
823.094; -177.325;-1076.000;-1114.000
823.347; -138.350; -925.000; -729.000
823.600;   11.900;  402.000;  187.000
823.853;  -56.900; -311.000; -267.000
824.105;  -64.225; -331.000; -575.000
824.358;  -95.625; -617.000; -716.000
824.611;   30.950;  234.000;   40.000
824.863;  -55.050; -612.000; -591.000
825.116;   49.375;  -33.000;   27.000
825.368;   69.550; -366.000; -372.000
825.621;  166.875; -186.000; -240.000
825.873;   57.050; -704.000; -737.000
826.126;  546.775; -669.000; -641.000
826.378;11462.750; -389.000; -505.000
826.630; 2863.900; -890.000; -898.000
826.883;   37.400; -754.000; -693.000
827.135;   36.000; -279.000; -270.000
827.387; -104.925; -893.000; -839.000
827.639;  -26.175;  -86.000;   32.000
827.892; -123.350; -742.000; -582.000
828.144; -142.800; -848.000; -804.000
828.396;  -42.425;  104.000;  -80.000
828.648; -107.550; -440.000; -333.000
828.900; -145.850; -702.000; -795.000
829.152; -107.550; -684.000; -683.000
829.404;  -83.300; -215.000; -267.000
829.656;  -43.325;  321.000;  214.000
829.908;  -23.750;  393.000;  229.000
830.160; -169.450;-1064.000;-1047.000
830.412;  -90.800; -481.000; -430.000
830.664; -116.000; -557.000; -665.000
830.916;  -89.725; -268.000; -206.000
831.167; -160.325;-1073.000; -951.000
831.419; -111.800; -623.000; -566.000
831.671; -143.875; -764.000; -809.000
831.923; -112.050; -311.000; -447.000
832.174;  -80.100; -273.000; -331.000
832.426; -126.050; -493.000; -582.000
832.678; -187.650;-1043.000;-1091.000
832.929; -165.700; -947.000; -935.000
833.181;  -70.475; -575.000; -677.000
833.432;  -64.925;  -59.000; -186.000
833.684;  -22.075;  112.000;  -27.000
833.935; -115.025; -610.000; -566.000
834.187; -127.850; -829.000; -823.000
834.438;  -53.125;  -58.000;  -25.000
834.689;  -58.225; -255.000; -123.000
834.941;  -52.675; -343.000; -244.000
835.192;  -96.825; -590.000; -533.000
835.443; -104.475; -419.000; -506.000
835.695;  -21.300;  138.000;  -16.000
835.946;  -93.150; -608.000; -378.000
836.197; -102.000; -599.000; -622.000
836.448;  -99.600; -528.000; -395.000
836.699;  -52.325; -253.000; -341.000
836.950;   -3.425;   72.000;    7.000
837.201; -154.100;-1003.000; -987.000
837.452;  -52.950; -356.000; -170.000
837.703; -115.800; -791.000; -737.000
837.954;  -42.050; -205.000; -365.000
838.205;  -93.150;-1029.000;-1008.000
838.456;  154.025; -196.000; -282.000
838.707;    8.075; -423.000; -519.000
838.958;   -5.750; -634.000; -647.000
839.209;  280.625;   18.000;   40.000
839.460;  112.975; -439.000; -201.000
839.710;  160.675; -135.000; -297.000
839.961;  400.975;  730.000;  612.000
840.212;  327.950; -382.000; -497.000
840.462; 1089.550; -328.000; -277.000
840.713;17718.450; -571.000; -536.000
840.964; 7341.375;  -62.000; -143.000
841.214;  504.875; -384.000; -624.000
841.465;  536.450; -214.000; -141.000
841.715;  500.875; -417.000; -380.000
841.966;  630.575; -746.000; -685.000
842.216; 8485.425; -330.000; -431.000
842.466;33681.350; -169.000; -313.000
842.717; 1918.900; -964.000; -952.000
842.967;  313.850; -635.000; -641.000
843.217;  260.475;   20.000;   28.000
843.468;   56.925; -104.000; -132.000
843.718;  -43.900; -718.000; -726.000
843.968; -105.050; -837.000; -765.000
844.218;   17.075; -315.000; -262.000
844.469;  -54.125; -577.000; -561.000
844.719;  -98.050; -537.000; -682.000
844.969; -103.625; -550.000; -580.000
845.219; -142.125; -814.000; -862.000
845.469;  -82.275; -392.000; -342.000
845.719; -117.875; -792.000; -884.000
845.969;  -25.600;  119.000;  174.000
846.219; -118.675; -738.000; -720.000
846.469;   24.750;  464.000;  432.000
846.718;  -47.025; -115.000;   31.000
846.968; -142.075; -827.000; -827.000
847.218;  -43.750; -224.000; -371.000
847.468;   -3.225; -586.000; -555.000
847.718; -144.275; -827.000; -798.000
847.967; -143.350; -826.000; -915.000
848.217;  -64.025; -449.000; -569.000
848.467;  -63.050; -405.000; -376.000
848.716;  -97.575; -708.000; -725.000
848.966;  -15.950; -372.000; -358.000
849.215;  -53.950; -428.000; -419.000
849.465; -104.850; -785.000; -615.000
849.714; -162.300;-1132.000;-1150.000
849.964;  -65.150; -551.000; -613.000
850.213;  -23.150; -393.000; -355.000
850.463;   82.475;  137.000;  340.000
850.712;   -2.550; -542.000; -567.000
850.961;   13.000; -739.000; -678.000
851.211;  103.400; -513.000; -504.000
851.460;  164.350; -635.000; -650.000
851.709;  547.600;  -25.000;   18.000
851.958;10151.750; -912.000; -750.000
852.208;12888.625; -859.000; -879.000
852.457;  476.475; -181.000;  -13.000
852.706;   74.450; -791.000; -823.000
852.955;   13.175; -507.000; -528.000
853.204;  -68.550; -521.000; -461.000
853.453;  -82.725; -418.000; -458.000
853.702; -142.050; -660.000; -750.000
853.951; -111.350; -532.000; -520.000
854.200; -115.075; -613.000; -562.000
854.449; -131.800; -695.000; -661.000
854.698; -107.400; -340.000; -279.000
854.946;  -74.150; -181.000; -284.000
855.195; -148.300; -843.000; -868.000
855.444; -100.725; -395.000; -420.000
855.693; -130.100; -345.000; -432.000
855.941; -111.100; -387.000; -516.000
856.190;  -65.600; -256.000; -382.000
856.439; -140.675; -652.000; -703.000
856.687;  -68.525;  -99.000;  -72.000
856.936; -107.325; -621.000; -323.000
857.184; -190.300;-1067.000;-1020.000
857.433; -113.375; -423.000; -512.000
857.681; -161.225; -989.000; -953.000
857.930; -104.800; -282.000; -433.000
858.178; -177.700; -856.000; -929.000
858.427; -154.625; -802.000; -781.000
858.675; -115.375; -377.000; -544.000
858.923; -113.700; -527.000; -819.000
859.172; -178.525;-1094.000;-1070.000
859.420;  -94.025; -339.000; -239.000
859.668; -129.200; -624.000; -628.000
859.916;  -28.075;  109.000;  115.000
860.164; -112.350; -699.000; -603.000
860.413;  238.750; -878.000; -696.000
860.661;  211.350; -709.000; -577.000
860.909;  -90.100; -339.000; -325.000
861.157;  -84.150; -277.000; -444.000
861.405; -129.725; -534.000; -670.000
861.653;   11.425;  310.000;  310.000
861.901;  158.900; -543.000; -613.000
862.149;  -11.975; -801.000; -824.000
862.396;  -86.300; -297.000; -187.000
862.644; -101.125; -368.000; -347.000
862.892;  -37.625;   98.000;  138.000
863.140; -111.150; -549.000; -530.000
863.388; -163.575; -815.000; -759.000
863.635; -125.075; -642.000; -601.000
863.883;  -15.225;  231.000;  190.000
864.131;  -91.525; -288.000; -357.000
864.378; -130.575; -675.000; -540.000
864.626; -101.400; -347.000; -415.000
864.873; -113.775; -556.000; -505.000
865.121; -128.400; -714.000; -799.000
865.368;  -49.625; -173.000;   75.000
865.616;  -44.475;  -33.000;  -40.000
865.863;  -88.925; -462.000; -506.000
866.111; -100.925; -795.000; -824.000
866.358;   32.225; -426.000; -420.000
866.605; 2284.150;  -64.000; -804.000
866.853; 2436.450; -621.000; -537.000
867.100;  -43.475; -728.000; -775.000
867.347;  -94.175; -672.000; -611.000
867.594;  -91.300; -740.000; -714.000
867.841;   77.000;   97.000;   17.000
868.089; -149.725; -746.000; -698.000
868.336; -112.775; -477.000; -420.000
868.583; -149.150; -637.000; -741.000
868.830;  -52.425; -131.000; -170.000
869.077; -163.300; -859.000; -787.000
869.324; -138.600; -502.000; -458.000
869.571; -114.000; -398.000; -430.000
869.818; -124.225; -485.000; -439.000
870.065; -104.425; -439.000; -513.000
870.311; -116.325; -456.000; -542.000
870.558; -102.625; -332.000; -311.000
870.805;  -89.400; -320.000; -384.000
871.052; -106.950; -494.000; -369.000
871.298;  -83.550; -204.000; -131.000
871.545;  -70.600; -151.000; -185.000
871.792;  -95.375; -173.000; -222.000
872.038;  -74.175;   43.000; -126.000
872.285; -143.250; -496.000; -387.000
872.532;  -98.700; -357.000; -387.000
872.778;    2.150;  556.000;  403.000
873.025;  -97.300; -384.000; -359.000
873.271;   21.150;  501.000;  578.000
873.517;  -35.900; -133.000; -209.000
873.764;  -41.450; -193.000;  -80.000
874.010;  -81.300; -143.000; -230.000
874.257;  -52.875;  123.000;   90.000
874.503; -136.275; -579.000; -479.000
874.749;  -80.825;   31.000;  275.000
874.995;  -65.625;  -80.000;  -20.000
875.242; -131.550; -540.000; -478.000
875.488; -112.625; -414.000; -439.000
875.734;  -65.450; -106.000; -234.000
875.980;  149.600; -872.000;-1032.000
876.226;  331.200; -157.000; -255.000
876.472;    0.425;  343.000;  237.000
876.718;  -45.000;  184.000;  158.000
876.964;  -45.200;   56.000;   55.000
877.210; -146.600; -547.000; -677.000
877.456; -132.825; -630.000; -557.000
877.702; -186.775; -821.000; -832.000
877.948; -111.325; -377.000; -497.000
878.193;   -5.050;  361.000;  255.000
878.439;  -95.300; -487.000; -472.000
878.685;  -99.875; -272.000; -343.000
878.931; -145.650; -618.000; -676.000
879.176; -104.725; -201.000; -201.000
879.422; -180.400; -933.000; -820.000
879.668;   16.600;   10.000;   79.000
879.913;  136.575;   53.000;  137.000
880.159;  -57.750; -112.000;  -17.000
880.404;  -78.850; -152.000; -162.000
880.650;  -39.250;   91.000;  141.000
880.895; -156.350; -670.000; -710.000
881.141; -125.600; -454.000; -428.000
881.386; -158.350; -503.000; -658.000
881.631;  -98.600; -311.000; -166.000
881.877;  -40.625;  112.000;  -13.000
882.122; -139.375; -684.000; -600.000
882.367;  -83.500; -136.000; -186.000
882.612;  -79.500;  -80.000; -176.000
882.858; -180.125; -877.000; -823.000
883.103; -101.450; -297.000; -267.000
883.348; -152.375; -759.000; -852.000
883.593; -142.100; -677.000; -602.000
883.838;  -61.575; -311.000;  -24.000
884.083;   15.775;  353.000;  288.000
884.328;  -90.450; -564.000; -545.000
884.573;  -57.150; -196.000; -143.000
884.818;  173.325; -694.000; -531.000
885.063;  169.475; -348.000; -315.000
885.308; -115.700; -475.000; -398.000
885.553;  -34.725;  245.000;  325.000
885.797; -132.900; -545.000; -615.000
886.042;  -52.800;    8.000;   58.000
886.287;  -87.850; -253.000; -211.000
886.532;  -60.125;   26.000;  204.000
886.776;  -95.400; -407.000; -525.000
887.021; -138.525; -621.000; -574.000
887.265; -153.975; -685.000; -689.000
887.510; -154.600; -557.000; -496.000
887.755;  -96.000; -194.000; -164.000
887.999; -142.150; -552.000; -575.000
888.244;  -56.850;  -58.000;  161.000
888.488;   -8.425;  371.000;  393.000
888.732; -128.525; -368.000; -520.000
888.977; -138.500; -622.000; -567.000
889.221; -155.775; -683.000; -659.000
889.465; -130.475; -422.000; -566.000
889.710;  -66.250;  -56.000; -299.000
889.954;   -2.600;  579.000;  467.000
890.198; -148.900; -584.000; -707.000
890.442; -154.000; -716.000; -712.000
890.687; -170.500; -800.000; -753.000
890.931;  -94.775; -273.000; -210.000
891.175; -133.875; -502.000; -500.000
891.419;  -73.875; -105.000; -110.000
891.663;  -96.775; -239.000; -112.000
891.907; -179.750; -801.000; -545.000
892.151; -165.500; -920.000; -815.000
892.395; -125.200; -274.000; -387.000
892.638;  -15.400;  408.000;  291.000
892.882; -174.075; -780.000; -867.000
893.126;   13.625;  758.000;  558.000
893.370;  -90.500; -167.000; -168.000
893.614; -127.600; -714.000; -715.000
893.857; -108.450; -183.000; -197.000
894.101; -135.375; -527.000; -631.000
894.345;  -70.325;  300.000;  150.000
894.588;    7.550;  569.000;  380.000
894.832;  -76.525; -178.000;  -84.000
895.075;  -87.200;   15.000;  -92.000
895.319; -126.850; -552.000; -420.000
895.563; -124.225; -413.000; -353.000
895.806; -152.975; -628.000; -741.000
896.049;  -69.000; -576.000; -368.000
896.293;   77.100;  527.000;  405.000
896.536;  -72.325; -465.000; -468.000
896.779;  -68.950; -149.000;   -1.000
897.023; -145.100; -751.000; -714.000
897.266;  -43.900;  325.000;  269.000
897.509; -182.525; -900.000; -901.000
897.752;  -45.100;  149.000;  171.000
897.996; -196.800; -972.000; -864.000
898.239;  -49.550;  168.000;  102.000
898.482; -117.425; -431.000; -453.000
898.725;  -46.825;  101.000;   53.000
898.968; -166.075; -609.000; -744.000
899.211; -110.300; -513.000; -361.000
899.454; -121.425; -633.000; -539.000
899.697;  -58.650;   90.000;  -43.000
899.940; -167.750; -761.000; -757.000
900.182; -108.925; -335.000; -405.000
900.425;  -84.975; -150.000; -298.000
900.668;  -27.025;  491.000;  350.000
900.911; -112.900; -292.000; -345.000
901.154;  -60.550;  141.000;   -3.000
901.396; -127.650; -407.000; -412.000
901.639; -146.800; -430.000; -496.000
901.882; -178.200; -790.000; -809.000
902.124;  -86.075;  -29.000; -143.000
902.367; -121.100; -315.000; -361.000
902.609; -133.500; -476.000; -453.000
902.852;  -87.125; -108.000; -260.000
903.094; -139.775; -458.000; -337.000
903.337;  -65.500;  -26.000;   53.000
903.579; -116.000; -228.000; -441.000
903.821; -164.475; -597.000; -744.000
904.064;  -61.550;   85.000;  127.000
904.306;  -88.575; -126.000; -166.000
904.548; -104.400; -152.000; -366.000
904.790; -110.650; -195.000; -340.000
905.033; -132.400; -625.000; -577.000
905.275; -134.900; -513.000; -524.000
905.517;   30.725;  468.000;  256.000
905.759;  -69.525; -667.000; -761.000
906.001;  -90.600; -322.000; -369.000
906.243;  -57.275; -162.000; -224.000
906.485;  112.550; -265.000; -207.000
906.727;  103.225; -499.000; -542.000
906.969;  -43.775;  -30.000; -135.000
907.211;   81.100; -316.000; -382.000
907.453;  254.200; -188.000; -237.000
907.695;    2.500; -158.000; -385.000
907.936;   32.425;  818.000;  706.000
908.178;  -72.650;   92.000; -135.000
908.420;  -86.050; -111.000; -162.000
908.662; -134.700; -633.000; -682.000
908.903;  -87.250; -208.000; -123.000
909.145;  -59.200; -240.000; -305.000
909.386;    1.875;  315.000;  280.000
909.628;   42.425;  363.000;  397.000
909.870;  -14.500;   29.000;  264.000
910.111; -102.550; -809.000; -949.000
910.353;    3.150; -123.000; -161.000
910.594;   -9.200; -574.000; -606.000
910.835;   87.900; -265.000; -326.000
911.077;  119.325; -503.000; -604.000
911.318;  278.925; -505.000; -471.000
911.559;  430.550; -577.000; -880.000
911.801; 1331.650; -284.000; -280.000
912.042;10212.575;  -50.000; -159.000
912.283;27010.125;  404.000;  371.000
912.524; 4214.500; -396.000; -457.000
912.765;  482.900; -193.000;   79.000
913.006;  229.375; -307.000; -338.000
913.247;   47.800; -270.000; -290.000
913.488;  -11.500;  -43.000;   30.000
913.729;  -83.275; -373.000; -373.000
913.970;  -51.375;  -96.000; -292.000
914.211;  -87.275; -160.000; -198.000
914.452;  -73.050; -118.000;  -11.000
914.693;    2.200;  510.000;  592.000
914.934;   15.375;  510.000;  440.000
915.175;  -77.775;   53.000;  -95.000
915.415;  -75.625; -137.000;   27.000
915.656;  -74.150;  -28.000;  192.000
915.897;  -90.700; -252.000;  -82.000
916.137;  -74.675;   74.000;   -9.000
916.378; -126.325; -573.000; -517.000
916.619; -100.700; -159.000;  -63.000
916.859;  -32.250;  303.000;  330.000
917.100;  129.300; 1655.000; 1070.000
917.340;   50.050;  930.000;  728.000
917.581;   48.950;  965.000;  789.000
917.821;  -31.850; -171.000;  143.000
918.061;    1.050; -199.000;  -72.000
918.302;  -47.700; -152.000; -211.000
918.542;  -58.975;  -22.000;    3.000
918.782;   34.700;  369.000;  377.000
919.023;  129.575;  360.000;  427.000
919.263; 1706.875; 8131.000;  202.000
919.503; 1093.050; -137.000;  -54.000
919.743;  599.025;  390.000;  266.000
919.983;  251.350; -134.000;  -26.000
920.223;  100.050;  135.000;   14.000
920.463;  154.250;  631.000;  554.000
920.703;  130.175;   84.000;   39.000
920.943;  153.750; -110.000;   90.000
921.183;  240.225; -414.000; -405.000
921.423;  512.425;  307.000;  546.000
921.663;  740.075; -174.000; -257.000
921.903; 1556.525;  237.000;  173.000
922.143; 8666.775;  372.000;  389.000
922.383;33984.850;  158.000;  115.000
922.622;11797.100; -120.000;  -15.000
922.862; 1244.475;  796.000;  785.000
923.102;  464.500;  -51.000;   33.000
923.341;  195.025;   59.000;   74.000
923.581;  107.250;  450.000;  360.000
923.821;   13.100;  301.000;  398.000
924.060;   -4.950;  351.000;  193.000
924.300;  -54.700;  -16.000; -128.000
924.539;   -1.350;  584.000;  473.000
924.779;   15.275;  812.000;  597.000
925.018;  -59.500;  247.000;  353.000
925.257;   -5.900;  595.000;  666.000
925.497;  -34.200;  447.000;  412.000
925.736;  -73.450;  -35.000;  102.000
925.975;   -3.325;  687.000;  669.000
926.214;   17.525;  907.000;  850.000
926.454;   20.025;  706.000;  757.000
926.693;  -37.825;  419.000;  543.000
926.932;   23.775; 1021.000;  825.000
927.171;   66.425; 1107.000; 1044.000
927.410;   57.850; 1144.000;  967.000
927.649;   15.700;  924.000;  742.000
927.888;  -23.125;  590.000;  564.000
928.127;   -4.175;  680.000;  678.000
928.366;   40.600;  842.000;  826.000
928.605;   40.250;  831.000;  737.000
928.844;  227.625; 1451.000; 1393.000
929.083;  605.275;  770.000;  613.000
929.321;  322.625; 1335.000; 1359.000
929.560;   77.425; 1158.000; 1122.000
929.799;  -25.000;  574.000;  475.000
930.038;   78.300; 1025.000; 1394.000
930.276;  -51.300;  334.000;  397.000
930.515;  -16.975;  827.000;  681.000
930.753;   -3.525;  614.000;  589.000
930.992;  -30.125;  664.000;  717.000
931.230;   -6.875;  847.000;  847.000
931.469;  158.350; 2162.000;  892.000
931.707;   64.575;  840.000;  751.000
931.946;   73.675; 1278.000; 1344.000
932.184;   84.200; 1437.000; 1175.000
932.423;   54.525; 1265.000;  963.000
932.661;   81.725; 1296.000; 1428.000
932.899;   23.350;  987.000;  821.000
933.137;    7.400;  754.000;  564.000
933.376;  127.550; 1664.000; 1335.000
933.614;  165.450; 1759.000; 1196.000
933.852;   49.250; 1357.000; 1171.000
934.090;  133.500; 1722.000; 1747.000
934.328;  100.450; 1252.000; 1457.000
934.566;  111.875; 1431.000; 1110.000
934.804;  126.875; 1263.000; 1309.000
935.042;  456.825; 1861.000; 1850.000
935.280; 1833.650; 2088.000; 2063.000
935.518; 1803.075; 2113.000; 2007.000
935.756;  393.100; 2481.000; 2316.000
935.994;  168.075; 1808.000; 1751.000
936.231;  343.550; 2890.000; 2950.000
936.469;  199.300; 2367.000; 2378.000
936.707;  158.750; 2220.000; 2167.000
936.945;  231.850; 2825.000; 2882.000
937.182;  189.775; 2679.000; 2741.000
937.420;  278.300; 3602.000; 3031.000
937.657;  411.125; 3365.000; 3478.000
937.895;  357.450; 3331.000; 3488.000
938.133;  313.925; 3540.000; 3528.000
938.370;  354.375; 3896.000; 4191.000
938.607;  391.650; 4488.000; 4205.000
938.845;  572.950; 5587.000; 5549.000
939.082;  483.675; 5387.000; 5177.000
939.320;  527.400; 5799.000; 5728.000
939.557;  629.225; 6549.000; 6491.000
939.794;  733.375; 7285.000; 7097.000
940.031;  892.600; 8421.000; 8368.000
940.269; 1106.875; 9552.000; 9107.000
940.506; 1129.050;10901.000;10507.000

