
Integration time [ms]: 100.000
Averaging Nr. [scans]: 40
Smoothing Nr. [pixels]: 0
Data measured with spectrometer [name]: 2101013U2
Wave   ;Sample   ;Dark     ;Reference
[nm]   ;[counts] ;[counts] ;[counts] 

394.013;   74.268; -450.257; -315.536
394.305;  195.916; -461.258; -419.536
394.596; 1062.063; -676.269; -527.514
394.887; 2624.305; -796.268; -654.518
395.178; 1034.460;  145.736;   11.476
395.470;   87.347; -210.263; -356.526
395.761;  211.720;  305.734;  394.479
396.052;  293.713; -545.284; -306.489
396.343;  309.708; -557.276; -454.503
396.634;  116.877; -200.279; -290.497
396.926;  138.152; -618.268; -565.517
397.217;  128.062;   11.725;  -17.504
397.508;   47.053; -366.273; -154.507
397.799;   67.352; -555.279; -571.497
398.090;    0.046; -973.280; -902.495
398.381;  128.963;   11.708;  -11.473
398.672;    5.439; -585.292; -742.473
398.963;   51.108; -348.279; -373.498
399.254;  110.973;   54.709; -209.475
399.545;  -19.659;-1017.266; -883.520
399.836;   68.222; -407.277; -343.501
400.127;   66.114; -205.295; -209.468
400.418;   80.498; -423.274; -392.506
400.709;   87.358; -359.281; -333.493
401.000;   67.227; -268.291; -309.476
401.290;  114.476;  225.698;  115.545
401.581;   74.071; -166.286; -228.485
401.872;   36.661; -542.298; -486.462
402.163;   61.332; -313.296; -252.467
402.454;   97.924; -123.291; -163.475
402.744;   84.898; -844.297; -813.465
403.035;  488.154; -226.293;  -86.471
403.326;  625.817; -366.292; -384.474
403.617;  401.880;  204.701;  165.539
403.907;  255.369; -593.283; -679.490
404.198; 2323.655; -545.307; -599.446
404.489; 6156.224; -618.283; -588.491
404.779; 2082.679; -618.302; -660.456
405.070;  226.658;  -67.304; -174.451
405.360;  335.531; -259.293; -238.472
405.651;  370.090;  125.699;   98.542
405.942;  196.366;  209.714;  127.516
406.232;  293.530; -432.285; -413.487
406.523;  517.699;  641.706;  758.530
406.813;  109.243; -579.286; -644.484
407.104;  367.562;  261.708;  144.527
407.394;  208.532; -604.299; -591.462
407.685;  170.530;  336.715;  222.513
407.975;   65.447; -400.283; -382.490
408.265;  119.013; -134.289; -190.478
408.556;   62.021; -472.291; -459.475
408.846;  167.125;  474.706;  429.530
409.137;   88.122;   -1.288; -216.480
409.427;   55.305; -193.285; -271.487
409.717;   36.581; -776.273; -692.508
410.007;  145.049;    4.715; -170.486
410.298;  102.667; -360.295; -342.469
410.588;   66.328; -495.285; -510.486
410.878;   19.758; -792.287; -873.482
411.168;  125.564; -481.298; -478.463
411.459;  132.017; -295.283; -242.489
411.749;   70.044; -609.292; -507.474
412.039;   70.645; -755.289; -386.480
412.329;  210.115;   40.722;  132.501
412.619;  202.743;  -62.286; -148.485
412.909;  371.116;  639.711;  594.521
413.199;  358.446; -130.280; -251.495
413.490;  414.256;  521.710;  352.523
413.780;  133.300;-1013.279; -913.496
414.070;  328.009;  -46.276;  235.497
414.360;  391.636; -729.278; -666.498
414.650;  404.729; -726.288; -688.482
414.940;  518.074; -538.280; -441.496
415.230;  952.651;   50.712;   74.519
415.520; 6049.762;  155.730;   66.486
415.809;23591.508; -305.281; -125.493
416.099;18293.574; -388.277; -229.501
416.389; 5058.195;  435.726;  236.494
416.679; 2933.975;   91.738;   85.473
416.969;  516.337; -527.287; -503.483
417.259;  587.702;  341.721;  171.503
417.549;  685.156;  522.718;  318.508
417.838; 1618.354; -205.268; -147.518
418.128; 5324.887;  650.710;  492.522
418.418; 4477.188; -491.272; -579.509
418.708; 3035.896;    9.726;  -48.506
418.997;11304.066; -474.275; -480.505
419.287;11794.027; -733.273; -790.507
419.577;11002.441; -160.283; -123.489
419.866;36593.272; -588.277; -498.501
420.156;37863.658; -242.270;  -55.513
420.446; 6925.368; -112.263;  -26.526
420.735;  909.427; -376.271; -446.512
421.025;  857.160; 1830.722;  315.502
421.314;  739.350; -203.271; -226.512
421.604; 1574.197;   89.732;  233.484
421.893;  914.072; -705.271; -602.511
422.183;  240.143; -487.263; -461.526
422.472;  382.173;  -36.271; -107.511
422.762;  457.197; -416.266; -379.521
423.051;  249.059; -916.276; -916.503
423.341;  333.054; -491.273; -439.507
423.630;  425.003; -121.265;   15.477
423.919;  407.641;   58.725;   49.495
424.209;  381.023;  -31.263;   56.473
424.498;  495.527;   68.732;  161.483
424.787; 1063.883; -535.267; -601.518
425.077; 3341.527;   34.735;   29.478
425.366; 4808.129; -734.262; -744.528
425.655; 9670.805;  639.727;  259.493
425.945;20484.583; -313.247; -268.554
426.234;11451.752;  117.741;  300.467
426.523; 4946.157;  -86.259; -350.534
426.812; 6861.668;  107.734;  159.480
427.101; 9940.518; -127.269; -323.515
427.390;12684.712;  -55.270;  -86.514
427.680; 3014.227; -624.257; -411.538
427.969;  505.412; -330.255; -301.540
428.258;  318.068; -385.257; -477.536
428.547;  545.292;  449.728;  397.490
428.836; 1336.854; -421.253; -398.543
429.125; 1900.259; -199.259;  -72.534
429.414;  847.401; -330.251; -294.548
429.703; 3079.801; -231.251; -213.548
429.992; 9152.380; -938.250; -828.549
430.281; 6018.311; -397.264; -331.524
430.570;  600.192;  -21.252;   32.454
430.859;  592.981;  279.741;  352.466
431.148;  463.929;  636.752;  631.446
431.437;  309.766;  391.748;  367.454
431.725;  151.770; -544.257; -481.536
432.014;  132.561; -845.253; -756.545
432.303;  394.680; -149.239; -105.569
432.592;  651.692; -460.263; -178.525
432.881; 1048.780; -601.248; -437.554
433.169; 5978.413; -343.255;  -61.540
433.458;12180.613;  445.765;  540.424
433.747; 5206.110; -397.261; -289.529
434.036;  946.580; -275.242; -280.564
434.324; 2048.992; -395.249; -379.551
434.613; 3545.999;   40.757;  159.437
434.902; 1210.495;  333.760;  439.433
435.190;  628.303;   75.761;  295.431
435.479;  362.706;  -52.245;   83.441
435.767;  108.964; -411.244; -427.561
436.056;  238.201; -340.242; -294.563
436.345;  381.672; -372.240; -223.568
436.633;  401.438;   60.750;  383.450
436.922;  284.074;  208.760;  414.432
437.210;  677.203; -194.236;    1.426
437.499; 2179.086; -583.235; -432.576
437.787; 2415.503; -339.236;  -10.574
438.075;  604.609;   56.761;  162.430
438.364;  797.537;  -44.238;  250.429
438.652;  474.841; -286.226; -138.592
438.941;  153.205;    3.770;  269.415
439.229;   26.189; -665.252; -466.545
439.517;   45.120; -160.234;  -85.577
439.806;   16.782; -501.225; -290.595
440.094;  201.353;  377.766;  650.421
440.382;  208.831; -653.233; -302.580
440.670;  255.036; -361.235; -285.576
440.959;   38.149; -347.223; -170.599
441.247;   88.592; -151.229; -109.587
441.535;  111.443; -266.235;   31.423
441.823;   36.975; -497.234; -305.578
442.111;  199.171;  173.771;  327.412
442.400;  578.780; -628.245; -335.559
442.688; 1567.002; -111.234; -620.579
442.976; 1153.212; -786.213; -450.617
443.264;  118.314; -324.224; -364.597
443.552;  115.417; -258.226;   51.408
443.840;  189.242;  602.765;  876.423
444.128;  119.105;  265.767;  269.420
444.416;   11.249; -694.228; -312.588
444.704;   38.854; -465.219;  -92.605
444.992;   77.445;   -0.226;  240.407
445.280;   69.506; -517.230;  -94.585
445.568;   52.691; -694.212; -396.618
445.856;  382.313; -174.221;  357.398
446.143;  843.075;  -54.220;   -7.604
446.431;  717.852;  -25.228;  625.411
446.719;  294.623;  489.783;  675.391
447.007;  206.825;  481.769;  705.416
447.295;  184.671;  597.777;  871.402
447.583;   94.514; -464.229;  -34.587
447.870;  164.835; -434.221; -202.601
448.158;  451.755; -104.230;  129.415
448.446;  341.426; -800.219; -338.604
448.733;  178.415;   13.776;  269.403
449.021;  261.990;   60.788;  341.382
449.309;  197.155; -296.210;  208.379
449.596;  219.919;  128.783;   59.392
449.884;  148.553; -571.222; -325.600
450.172;  169.258; -756.227; -406.590
450.459;  428.545;  645.786;  780.387
450.747; 2310.218; -411.218; -147.608
451.034; 7311.528;  493.772;  889.411
451.322; 6040.473; -413.214; -170.614
451.609;  526.167;  292.777;  508.403
451.897;  568.568; -550.203; -183.634
452.184; 1734.972; -622.223; -400.598
452.472; 1666.827;   97.792;  269.375
452.759;  362.427;  512.781;  864.395
453.047;  113.538; -407.212; -125.617
453.334;   75.635; -732.219; -216.606
453.621;   88.426; -438.214; -161.615
453.909;  125.260;   13.796;  384.368
454.196;  126.705; -299.199; -123.641
454.483;  220.431;  317.798;  540.364
454.771;  130.030; -215.208;  196.374
455.058;   35.233; -316.207;  102.374
455.345;  110.511;   71.807;  344.347
455.632;   81.136; -128.207;  235.373
455.919;   48.253;  -82.196;  182.354
456.207;  -64.290; -774.198; -450.642
456.494;  -17.482; -475.200;  -66.639
456.781;    8.077; -399.202; -198.635
457.068;   68.843; -253.206;  -29.628
457.355;   -0.481; -698.206; -401.629
457.642;   -3.051; -552.205; -290.630
457.929;  -14.148; -778.194; -417.651
458.216;   60.638; -575.212; -354.617
458.503;  233.181; -173.193;  -19.652
458.790;  223.777; -864.208; -630.625
459.077;  283.032;  -77.202;  110.364
459.364;  794.695; -350.195; -210.649
459.651; 1652.141;  -46.206;  220.372
459.938;  783.793; -864.209; -665.623
460.225;  158.235;  132.799;  276.363
460.512;  -36.150; -836.197; -688.645
460.799;  107.192;  -32.218;  320.392
461.086;   82.273; -370.200; -251.640
461.372;   57.510; -509.198; -279.642
461.659;  124.604; -165.196;  108.354
461.946;   66.005; -445.193;  -54.651
462.233;  248.145;  842.800;  888.361
462.519;  368.042; -814.201; -464.639
462.806;  966.076; -768.197; -497.645
463.093;  855.151; -445.191;  -66.656
463.380;  -27.358; -920.186; -824.664
463.666;   65.227; -259.197;  -18.646
463.953;   91.015; -406.195; -243.648
464.239;  192.139; -173.195;  -77.648
464.526;  403.750;  413.806;  743.350
464.813;  357.562; -565.190; -304.658
465.099;  358.581;  606.807;  607.348
465.386;  346.110;  903.807;  921.348
465.672;   33.276; -694.197; -522.645
465.959;   18.505; -598.188; -520.662
466.245;   23.160; -468.193; -359.652
466.532;   95.887; -109.195;   63.352
466.818;   75.267; -357.186; -216.664
467.104;   -4.618; -488.182; -415.672
467.391;   -8.561; -628.189; -459.658
467.677;   22.295; -289.186;    9.335
467.964;    5.996; -682.189; -471.660
468.250;   76.498; -331.186; -160.665
468.536;   82.965;   90.811;  180.341
468.822;  -22.390; -821.184; -574.668
469.109;  141.912;  351.827;  471.311
469.395;  194.295;  729.808;  787.346
469.681;  198.293;   46.811;  156.341
469.967; 1204.148; -699.188; -382.660
470.254; 2615.431; -494.188; -306.662
470.540; 1686.303; -601.196; -476.646
470.826;  221.193; -488.181; -397.675
471.112;  301.838;  288.816;  113.331
471.398;   90.293; -253.183;  -58.670
471.684;   48.596; -626.177; -447.680
471.970;    6.172; -918.180; -981.675
472.256;   21.094; -521.192; -441.654
472.542;   27.873; -499.171; -434.691
472.828;   25.903; -743.182; -607.672
473.114;   28.317; -380.166; -283.700
473.400;   25.488; -504.175; -293.684
473.686;   35.273; -452.166; -400.701
473.972;   45.702; -230.174; -131.687
474.258;  -46.463; -925.173; -843.689
474.544;  191.263; -183.178;   -2.679
474.830;  298.439;  -65.175;   45.316
475.116;  441.564; -123.190; -196.658
475.401;  614.249; -558.180; -467.676
475.687;  195.323; -725.180; -718.676
475.973;   24.711; -673.181; -770.673
476.259;  259.791;  736.825;  764.315
476.544;  351.529; -539.176; -437.682
476.830;  755.219; -398.172; -322.690
477.116;  670.903; -430.177; -336.682
477.401;  139.648;  346.820;  358.324
477.687;  -11.637; -289.175; -405.684
477.973;   23.189;   21.819;   28.326
478.258;   -7.057; -448.163; -348.706
478.544;   55.553;   21.815;   61.334
478.829;  -59.946; -818.171; -738.692
479.115;  -25.956; -749.172; -651.690
479.401;  -12.952; -444.174; -449.686
479.686;   33.322; -253.180;  -74.676
479.972;  -27.507; -886.178; -776.680
480.257;   37.093; -258.166;  -65.700
480.542;    5.758; -614.170; -469.693
480.828;  236.961; 1288.824; 1392.317
481.113;  -30.816; -464.176; -426.683
481.399;   -4.783; -236.161; -202.711
481.684;  -55.482; -620.166; -462.700
481.969;   42.531; -158.159;  -73.713
482.255;   -5.282; -439.169; -285.695
482.540;   11.193; -569.178; -441.680
482.825;   12.362; -395.187; -404.663
483.110;   90.747;  -85.169; -105.696
483.396;  177.377; -840.157; -652.718
483.681;  476.427;  543.826;  730.313
483.966;  146.550; -696.160; -700.712
484.251;   -3.799; -404.174; -310.687
484.536;    1.728; -356.165; -378.703
484.822;    8.704; -205.173; -218.687
485.107;  -20.585; -599.152; -502.726
485.392;  124.984;  662.836;  541.296
485.677;   84.056;  354.832;  163.302
485.962;  103.725;  160.843;  270.283
486.247;  103.101;  -14.162;   -8.707
486.532;   42.019; -178.166; -325.701
486.817;  153.512;  381.839;  431.291
487.102;  120.748; -453.154; -514.722
487.387;  628.429; -637.156; -652.718
487.672; 1118.439; -154.164;  -38.705
487.957;  675.244; -394.160; -286.711
488.241;  196.632; -290.150; -314.729
488.526;  701.067; -280.152; -148.726
488.811; 1107.470; -881.177; -818.680
489.096;  845.751; -666.154; -702.723
489.381;  464.738;    3.847;  162.275
489.666;  348.367; -428.161; -510.710
489.950;  173.554;  558.846;  627.277
490.235;  -29.423; -480.151; -458.728
490.520;  -39.684; -756.161; -723.710
490.804;  -45.569; -827.156; -736.719
491.089;   -4.827; -469.149; -299.732
491.374;   42.863; -132.164;  -75.704
491.658;    6.409; -817.147; -717.735
491.943;  177.846; -657.152; -609.727
492.227;  259.494; -178.155;  -38.721
492.512;   54.849; -294.157; -341.717
492.797;  -65.108; -713.149; -716.731
493.081;  -55.038; -588.147; -598.735
493.366;  -36.782; -751.161; -635.711
493.650;  205.865;  831.859;  917.254
493.935;   31.209; -648.147; -447.734
494.219;  -36.123; -778.142; -687.743
494.503;  -48.813; -585.150; -487.730
494.788;   47.316;   46.842;   74.285
495.072;   98.708;  184.850;  434.271
495.356;  170.126; -463.148; -343.733
495.641;  453.543; -812.146; -736.736
495.925;  423.711; -976.156; -903.719
496.209;   36.997; -599.149; -451.732
496.494;  -42.297; -763.142; -544.744
496.778;   12.948; -364.154; -360.722
497.062;  -53.539; -819.156; -627.719
497.346;  -49.579; -869.160; -640.711
497.631;  144.054;  580.852;  560.266
497.915;   84.979;  -64.145;  175.261
498.199;   34.402; -341.157; -277.718
498.483;   29.615; -562.152; -508.725
498.767;  193.584;  301.850;  300.271
499.051;  169.070; -126.149; -100.732
499.335;   17.068; -693.149; -739.731
499.619;  -35.784; -381.129; -423.767
499.903;   36.618; -272.155;  -65.721
500.187;   15.606; -588.153; -316.724
500.471;   22.345; -796.152; -595.727
500.755;  112.041;   62.839;  -96.710
501.039;   26.768; -270.155; -357.721
501.323;   87.567;  -21.141;  264.254
501.607;   37.069; -447.163; -503.706
501.891;   -0.096; -607.156; -512.718
502.174;  -31.185; -726.144; -585.741
502.458;   87.949;   89.849;  370.273
502.742;   42.741; -180.138; -191.751
503.026;  109.333; -412.147; -254.734
503.310;  166.705; -437.159; -375.713
503.593;  105.685; -464.147; -325.735
503.877;  123.006; -232.133; -156.760
504.161;  178.633;    2.847;  -50.724
504.444;  137.693; -841.158; -710.716
504.728;  434.062; -487.164; -522.704
505.012;  697.506; -257.150;  -76.729
505.295;  520.592; -417.161; -212.711
505.579;  491.335; -256.156; -496.719
505.862;  705.725; -555.145; -333.738
506.146;  707.182; -681.159; -758.714
506.429;  382.682;  568.841;  461.286
506.713;   49.128; -732.151; -667.728
506.996;  303.223;   90.846;  295.278
507.280;  324.657; -633.165; -474.703
507.563;  226.266; -469.155; -261.721
507.847;   97.431; -423.153; -112.724
508.130;   93.043; -665.161; -456.711
508.413;  118.589; -758.167; -577.700
508.697;  239.914; -151.167;   12.300
508.980;  147.508; -422.153; -312.724
509.263;   -8.312; -466.155; -450.720
509.547;   34.581; -124.150;   82.271
509.830;   59.820; -172.160;  140.289
510.113;   90.910;  128.844;  298.281
510.396;   44.988; -530.152; -300.725
510.680;  188.502; -818.145; -812.738
510.963;  718.127;  184.846;  180.277
511.246;  629.614; -493.150; -357.730
511.529;  269.557; -482.145;  -83.739
511.812;  367.952; -250.134;   10.241
512.095;  247.301; -740.151; -396.728
512.378;   59.114; -317.147; -245.736
512.661;   17.423; -703.137; -623.753
512.944;   25.779; -750.142; -637.744
513.227;   66.195; -170.137; -171.752
513.510;   32.090; -479.144; -671.741
513.793;   24.396; -485.140; -435.747
514.076;  140.612;  -43.127;  -39.771
514.359;  112.048; -294.149; -135.732
514.642;   72.107; -442.142; -567.744
514.925;  716.319;  581.860;  561.253
515.208;  932.549; -498.134; -443.758
515.491;  633.638; -276.133; -182.761
515.773;  383.994; -410.143; -337.742
516.056; 1991.130;  249.864;  409.246
516.339; 2705.058; -754.136; -652.755
516.622; 1967.061; -518.150; -488.730
516.904; 1390.626;  882.857;  975.257
517.187;  637.794; -730.138; -523.752
517.470;  417.925; -568.143; -510.743
517.752;  403.711; -624.136; -470.756
518.035;  318.157; -708.139; -725.749
518.318;  331.709; -799.136; -744.755
518.600; 2243.491; -300.132; -325.762
518.883; 3140.857;  310.858;   88.256
519.165; 1502.362; -585.138; -426.751
519.448;  398.841;  -61.132;  -19.762
519.730;  209.344; -573.126; -415.773
520.013;  319.834;  588.867;  664.240
520.295;  934.829;  -94.134;  -15.759
520.578; 2063.754; -335.131; -305.764
520.860; 2320.641; -254.132;   56.238
521.143; 1198.538; -763.135; -584.756
521.425;  490.807; -251.125; -279.775
521.707;  659.487; -622.127; -380.771
521.990; 1682.063; -199.127;  167.229
522.272; 1942.623; -116.140;   -4.748
522.554;  905.270; -237.143; -157.742
522.836;  369.602;  -24.134;   99.241
523.119;  250.732; -496.148; -189.734
523.401;  150.711; -448.130; -314.766
523.683;   77.024; -865.137; -693.753
523.965;  265.617;  408.862;  260.248
524.247;  270.728;   54.878;  170.220
524.529;  194.904; -451.134; -367.759
524.812;  332.637;   -3.130;  191.234
525.094;  794.316; -773.138; -631.751
525.376; 1297.566; -143.124;   78.223
525.658;  786.356; -441.136; -339.754
525.940;    9.175; -805.131; -671.764
526.222;   40.434; -188.136;  -88.755
526.504;  123.973; -190.131;   32.237
526.786;  190.031; -960.133; -647.760
527.068;  345.397; -124.123;  -67.778
527.349;  160.127; -865.137; -774.754
527.631;  141.566; -137.132;   22.238
527.913;  119.486; -664.127; -450.771
528.195;  161.925; -761.125; -639.774
528.477;  233.624;  -93.134;  -30.758
528.759;  119.212; -648.130; -522.766
529.040;   51.820; -569.123; -293.778
529.322;   63.303; -235.125;  -10.774
529.604;  171.540;  -47.130;   93.233
529.886;  151.719; -546.126; -302.773
530.167;  124.406;  232.870;  192.235
530.449;   54.038;    1.853;   63.265
530.731;   28.127; -572.122; -459.779
531.012;   69.023; -513.120; -216.784
531.294;   74.062; -118.116;  -43.792
531.575;  147.857;  290.875;  538.225
531.857;   43.994; -548.135; -266.757
532.138;   98.490; -113.141;   40.254
532.420;  191.240;  294.865;  403.244
532.701;  244.984; -722.133; -751.760
532.983;  379.612;  232.867;  182.239
533.264;  143.817; -243.126;  175.228
533.546;  -48.841; -491.136; -508.755
533.827;   49.380;  173.867;   -1.759
534.109;   48.194; -352.135;  -80.757
534.390;   99.020; -725.132; -582.762
534.671;  255.840; -270.135;  -82.756
534.953;  143.048; -751.123; -611.779
535.234;   18.797; -426.117; -255.789
535.515;  -74.569; -891.119; -735.785
535.796;  -25.793; -431.128; -193.770
536.078; -125.234;-1050.124; -904.777
536.359;   10.574;  -22.123;    3.221
536.640;   -0.623; -480.125; -197.774
536.921;  156.745;  225.871;  143.232
537.202;  369.388;  -87.138;  -16.751
537.483;  437.803;  251.869;  377.236
537.764;  160.581;   17.870;   98.235
538.045;  -28.577; -543.134; -371.758
538.326;  -27.953; -596.129; -447.768
538.607;   18.113; -686.127; -476.771
538.888;  157.039;   98.879;    5.218
539.169;  199.134; -704.122; -535.781
539.450;  320.944;  236.871;   16.233
539.731;  223.193; -361.121; -182.783
540.012;  136.798;  199.880;  412.216
540.293;   93.110;   82.876;  158.224
540.574;   18.708; -895.113; -717.796
540.855;  475.867;  435.879;  377.218
541.136;  521.856;   47.878;  139.220
541.416;  279.513; -161.130; -220.766
541.697;  192.924; -274.131; -170.763
541.978; 1012.017; -270.135; -315.757
542.259; 1255.538; -211.127; -236.771
542.539;  615.706; -191.116; -186.790
542.820;  185.982;  461.875;  480.225
543.101;  131.203;  -52.145;  -77.738
543.381;   39.612; -638.127; -591.771
543.662;  258.510;  159.873; -254.771
543.942;  543.608; -751.127; -830.770
544.223; 1013.983;  193.878;  161.219
544.504;  634.416; -275.124; -182.777
544.784;  567.744; -592.126; -408.773
545.065; 1618.260;  104.884; -254.791
545.345; 1888.532;  227.881;   14.215
545.626; 1237.282;  -14.113; -108.796
545.906;  832.006;   77.869;   98.235
546.186;  333.823;   92.874;  -95.773
546.467;  184.743;   99.877;  -95.778
546.747;  299.456;  264.884;  327.210
547.027;  358.239;   91.876;  111.223
547.308;  318.433; -376.127; -530.770
547.588;  377.172;  299.871;  371.232
547.868;  191.182;  458.870;  588.235
548.149;  189.217;  609.885;  593.207
548.429;  113.261; -347.127; -299.771
548.709;  175.598; -645.120; -461.784
548.989;  451.816;   84.882;   88.213
549.269; 2008.214;   10.868;  139.239
549.550; 4538.397;  215.877;  117.222
549.830; 4062.075; -758.111; -556.799
550.110;  790.807; -468.110; -320.801
550.390;  809.803; -128.122;  -56.779
550.670; 1059.153; -868.114; -783.795
550.950;  758.966; -509.121; -471.782
551.230;  187.787;  549.879;  460.218
551.510;   -8.285; -381.121; -326.782
551.790;   31.890; -173.109; -127.803
552.070;  250.193;  940.877; 1181.223
552.350;  384.036; -492.119; -377.786
552.630;  557.935;   -2.121;   77.219
552.909;  336.035;  181.884;   73.209
553.189;  226.496;  -49.132;   33.237
553.469;  166.760; -703.119; -514.786
553.749;  181.814; -469.127; -357.772
554.029;  154.201;   33.883;  -24.790
554.308;  129.121; -154.115;  -37.794
554.588;   55.031; -196.128; -204.770
554.868;   46.767; -366.121;  -47.782
555.147;  152.243; -114.115;  -46.793
555.427;  565.988; -260.116; -250.792
555.707; 3684.891; -284.115; -200.793
555.986; 4437.928; -719.111; -538.800
556.266; 2318.155;   23.884;   72.210
556.546;  119.090; -888.121; -675.782
556.825;  248.026; -657.114; -556.794
557.105; 1655.279; -125.128;   17.230
557.384; 1977.884;  122.884;  187.209
557.664;  754.512; -717.116; -508.792
557.943;  109.741; -557.121; -411.782
558.222;  154.894; -345.118; -344.788
558.502;  259.270; -116.115;  -76.793
558.781;  480.690;  194.885;  499.208
559.061;  382.169; -232.118; -227.788
559.340;  278.499;  302.883;  353.211
559.619;  653.854;   93.884;  148.210
559.899;  949.101; -239.117; -266.789
560.178;  887.944; -778.115; -593.793
560.457; 2981.602; -623.117; -562.790
560.736; 4178.579; -472.111; -482.800
561.015; 2762.627; -500.128; -502.769
561.295;  379.060;  180.893;  215.193
561.574;  339.042;  119.885;  116.207
561.853;  495.044;  274.891;  303.197
562.132;  488.697;  -45.114;  182.206
562.411;  399.186;  396.879;  553.219
562.690;  124.940; -592.115; -458.792
562.969;  148.964;  472.888;  630.203
563.248;  508.008; 2966.878; 2487.219
563.527;  248.954; -290.111; -408.800
563.806;  344.536; -650.127; -521.771
564.085;  391.550; -297.105; -206.810
564.364;  226.254; -594.117; -405.790
564.643;  483.461; -276.121; -223.781
564.922; 1740.138;  221.890;  397.198
565.201; 1757.642; -640.109; -700.803
565.479;  756.839; -297.115; -219.792
565.758;  300.629; -810.128; -712.770
566.037;  468.968; -155.109; -100.803
566.316;  221.934; -286.116;  -28.791
566.595;   51.892;  -17.115;  -12.793
566.873;  102.431; -166.111;  -79.801
567.152;  -54.436; -490.113; -590.797
567.431;    9.230; -113.116;    6.210
567.709;    6.260; -344.107; -212.807
567.988;  253.775; -810.114; -769.794
568.266;  485.691; -160.115;  -68.793
568.545;  371.447; -644.100; -514.819
568.824;  545.538;  160.885;  356.208
569.102;  508.025; -351.114; -235.794
569.381;  204.812; -492.116; -407.792
569.659;  -30.840; -553.113; -553.796
569.938;   24.282; -743.122; -465.780
570.216;  107.371; -225.109; -225.804
570.494;  -34.047; -632.114; -572.795
570.773;   30.990;  202.879;  114.218
571.051;    2.596; -373.123; -357.778
571.330;   59.858; -221.113; -174.796
571.608;   31.715; -181.098; -173.823
571.886;  -71.452; -671.111; -581.799
572.164;  -67.333; -739.121; -621.782
572.443;  -40.846; -562.105; -512.811
572.721;  -41.722; -399.117; -289.790
572.999;  -24.229; -280.117; -168.788
573.277;   98.222;  379.894;  620.191
573.555;  270.649;   94.894;   37.190
573.834; 1241.871;  -86.117; -114.788
574.112; 1455.963;  880.893;  811.193
574.390;  445.230; -143.111;  -96.801
574.668;   10.065;  -91.112;  -61.797
574.946;  -13.150; -165.106; -187.810
575.224;   12.942;   71.891;  -16.803
575.502;  -28.918; -200.116; -204.791
575.780;  -83.659; -767.112; -829.798
576.058;   94.204; 1589.889; 1004.200
576.336;  -25.090; -210.110; -129.801
576.614;  -64.284; -511.112; -340.798
576.891;   42.971; -711.115; -823.794
577.169;  461.754; -158.108; -285.805
577.447;  537.137;  169.893;  202.193
577.725;  261.295;  629.888;  854.201
578.003;   20.093;  -71.112; -371.798
578.280;   78.613; -208.104; -242.812
578.558;   65.720; -450.115; -422.793
578.836;  129.778; -210.114; -145.795
579.114;   41.164; -630.112; -670.797
579.391;   70.948;   -6.117;  -18.789
579.669;  -73.603; -595.114; -704.794
579.947;  161.059; -326.107; -127.806
580.224;  307.034; -692.107; -524.806
580.502;  307.038;  127.893;   76.193
580.779;   34.453;  -42.117;   75.210
581.057;  -64.329; -584.109; -470.804
581.334;  -96.172; -726.102; -695.815
581.612;   40.275;   54.895;  511.190
581.889;  -21.759;  -83.101; -129.818
582.167;  -44.345; -298.099; -190.821
582.444; -111.040; -845.102; -814.817
582.721;  102.086;  657.899;  715.183
582.999;   37.452; -326.100; -167.821
583.276;  469.350; -812.123; -713.779
583.553;  652.756; -364.102; -294.816
583.831;  205.834; -607.104; -631.812
584.108;   58.202;  349.892;  174.195
584.385;    3.202; -122.102;  -98.815
584.662;  -76.094; -651.111; -828.801
584.940;   39.880;  204.889;  204.199
585.217;  -18.140;  -73.113; -303.796
585.494;   29.489;   71.890;  118.198
585.771;  194.547; -250.109; -354.804
586.048;  466.009; -196.113;  -76.796
586.325;  304.259; -721.110; -773.801
586.602;   95.713;  230.896;  213.188
586.879;  -22.026; -499.100; -580.820
587.156;   38.926; -156.105; -331.810
587.433;  -43.117; -701.102; -667.817
587.710;   82.392;  152.888;  234.202
587.987;  287.806; -264.105; -236.811
588.264;  747.518;  315.888;  387.202
588.541; 1303.066;  -61.104;   26.187
588.818; 2541.199;   72.892;  171.196
589.095; 2211.511; -163.104; -174.812
589.371;  366.320; -459.109; -414.804
589.648;   15.163; -581.107; -437.807
589.925;   12.279; -517.114; -621.795
590.202;   10.166; -741.112; -607.798
590.478;   95.683; -166.105;  -73.811
590.755;  243.805; -241.108; -132.806
591.032; 2340.736; -741.110; -699.802
591.308; 3204.805; -732.094; -790.831
591.585; 1676.210; -573.110; -560.802
591.862;  113.285;-1056.102; -950.817
592.138;   53.053; -475.108; -474.805
592.415;  130.189; -486.104; -495.813
592.691; 1379.362;  460.896;  518.188
592.968; 1789.867; -208.098; -123.824
593.244;  865.756; -695.116; -595.790
593.521;   58.035; -105.102;  -42.817
593.797;  -16.096; -810.122; -720.780
594.074;  311.104; -611.096; -588.826
594.350;  654.690;  828.905;  729.172
594.626;  286.206; -303.111; -283.801
594.903;  111.486; -643.101; -645.817
595.179;  177.943;  243.896;  418.187
595.455;    5.364; -136.107; -150.807
595.731;   -1.331;  -19.103;  -38.814
596.008;  -29.724; -464.111; -434.800
596.284;   35.076; -187.100; -242.820
596.560;   56.086; -501.093; -493.833
596.836;  192.278; -173.105;  -70.810
597.112;  313.603; -582.108; -437.805
597.388;  270.102;  -49.097;  -48.826
597.665;  119.837;  437.887;  530.203
597.941;  -71.635; -572.089; -658.839
598.217;    6.064; -323.110; -293.802
598.493;  247.448;   61.891; -204.804
598.769;  484.621; -175.100;  -50.819
599.045;  287.156; -490.108; -562.806
599.321;   41.000; -193.100; -261.820
599.597;  127.073; -355.109; -476.804
599.872;  459.491;  409.896;  429.187
600.148;  346.154;  -61.097; -172.826
600.424;  264.011;   91.893;  202.193
600.700;  217.588; -170.107; -280.807
600.976;  103.973; -442.097; -464.825
601.252;  220.194; -226.109; -272.803
601.527;  182.516; -833.104; -840.813
601.803;  138.359; -453.105; -404.812
602.079;  162.321; -124.100; -118.819
602.354;  527.171; -620.092; -531.835
602.630;  763.735; -140.113; -482.796
602.906; 2199.491; -910.101; -863.818
603.181; 6290.910; -627.119; -534.786
603.457; 5327.126;   98.903; -278.826
603.733;  784.669; -605.120; -626.783
604.008;  914.400; -245.106; -164.810
604.284; 2895.887; -636.101; -580.817
604.559; 2532.220;   -3.112;  -42.799
604.835;  458.978; -163.105; -225.810
605.110;  363.680; -732.099; -892.821
605.385;  662.864;  224.907;  267.167
605.661;  607.168; -625.095; -729.829
605.936; 1076.007; -664.108; -737.806
606.211;  958.101;  -17.103; -170.815
606.487;  185.524; -329.114; -376.794
606.762;    4.961; -791.119; -745.786
607.037;  -29.847; -501.105; -433.810
607.313;  -51.914; -589.096; -574.828
607.588;   -5.425; -375.106; -137.810
607.863;   33.540;  -28.101; -143.818
608.138;  171.238;  513.890;  516.198
608.413;   24.859; -576.099; -592.822
608.688;   46.703; -203.108; -267.805
608.964;  171.769; -509.106; -218.809
609.239;  235.951; -107.105; -212.810
609.514;  242.858;  281.895;  240.188
609.789;  623.638; -187.104; -716.812
610.064;  824.710; -435.096; -609.827
610.339;  814.945; -855.109; -799.804
610.614; 1084.826; -131.100; -315.820
610.889;  613.409;  215.895;  107.188
611.163;   31.184; -407.104; -591.812
611.438;   64.525;   81.886; -167.794
611.713;   10.487; -467.101; -499.817
611.988;   37.014; -144.101; -328.818
612.263;  -31.597; -771.102; -717.815
612.538;  209.384;  385.887;  251.204
612.812;  152.352; -832.100; -911.820
613.087;  124.065; -358.098; -338.823
613.362;  -59.161; -497.107; -557.807
613.637;   39.697;  261.897;  138.186
613.911;  -13.928; -256.092; -345.835
614.186;   93.137; -249.107; -292.807
614.460;  604.290; -842.081; -758.854
614.735;  743.564;  -55.087;  -17.843
615.010;  143.204;   43.912;  -82.841
615.284;  235.402;  360.892;  246.195
615.559;  361.645; -792.092; -955.835
615.833;  259.532;  -76.099;  -87.822
616.108;   -1.993; -225.090; -390.837
616.382;  142.465;  274.913;  402.156
616.656;  133.633; -241.090; -232.837
616.931;  478.058; -785.099; -700.822
617.205;  982.517; -973.104; -979.813
617.480;  868.780;  -91.125;    6.225
617.754;  147.177; -396.125; -128.774
618.028;   19.723; -369.129; -382.768
618.302;   53.051;   73.892;  -25.805
618.577;  -55.052; -371.103; -518.815
618.851;  -57.009; -399.109; -600.803
619.125;  -40.296; -335.134; -378.759
619.399;  -29.083; -244.104; -374.813
619.673;  -57.537; -330.115; -515.792
619.947;  -52.572; -333.114; -448.795
620.222;  -18.468; -198.110; -204.801
620.496;    6.617;  -47.121;  -96.782
620.770;    9.483; -187.122;  -93.781
621.044;  207.651;  323.895;  346.190
621.318;  690.045; -653.120; -614.783
621.592;  628.292; -430.121; -409.783
621.866;  310.146; -476.112; -572.799
622.140;   22.057; -207.116; -356.791
622.413;   34.300;  138.889;  112.200
622.687;  -39.388; -746.101; -492.817
622.961;   13.426; -130.108; -143.805
623.235;  -67.249; -633.111; -661.800
623.509; -100.667; -816.105; -848.811
623.783;    7.235;  -12.107;   48.193
624.056;  -26.779; -254.120; -280.783
624.330;   55.715;   63.888;   -3.797
624.604;   41.304; -271.116; -355.790
624.877;   63.662;  180.890;   26.198
625.151;   33.423; -249.114; -238.794
625.425;  -30.806; -150.103; -283.814
625.698;  -70.070; -367.119; -374.785
625.972;  -92.636; -799.110; -765.802
626.245;   75.456;  685.884;  484.210
626.519;  -64.575; -426.120; -340.784
626.792;  -48.962; -192.107; -380.807
627.066;  -92.224; -485.122; -662.779
627.339; -109.440; -736.110; -663.802
627.613;   44.423;  351.880;  148.216
627.886;   45.641;  187.891; -612.803
628.160;  -19.606;  312.880; -161.783
628.433; -100.317; -695.125; -703.775
628.706;  -90.000; -517.120; -615.784
628.979;   23.114;  296.876;  117.223
629.253;  -98.565; -785.119; -833.786
629.526;  354.042; -334.126; -253.772
629.799;  317.796; -641.123; -479.778
630.072;  145.725; -497.128; -516.769
630.346;  -68.694;-1115.116;-1080.790
630.619;  402.614; -467.107; -545.808
630.892;  587.902;  709.889;  593.200
631.165;  321.367;  790.896;  679.187
631.438;  -90.332;-1092.112;-1055.798
631.711;   44.724;  453.877;  257.221
631.984;  -53.599; -523.117; -624.789
632.257;  -79.002; -636.117; -681.789
632.530;  -51.470; -412.119; -433.785
632.803;   10.496; -109.115;    7.207
633.076;  -65.332; -360.123; -422.777
633.349;   -0.471;  173.872;  121.231
633.622;  -34.221; -187.119; -240.785
633.895; -129.405; -903.120; -823.783
634.167;  -74.256; -496.126; -525.773
634.440;  -10.913;  -19.116; -137.792
634.713;    4.034;  -22.119; -120.786
634.986;   86.868;  593.871;  453.233
635.258;  -85.781; -507.115; -597.793
635.531;   99.569;  742.882; -343.788
635.804;  -20.225; -303.117; -318.789
636.077;  -94.892; -830.116; -852.791
636.349;  -15.158; -586.115; -474.793
636.622;  381.867; 1695.874; 1392.228
636.894;  229.800; -474.120; -909.784
637.167;  119.436; -836.127; -789.771
637.439;   30.057; -278.128; -213.770
637.712;  -50.032; -312.126; -293.772
637.984;  -87.091; -635.116; -707.791
638.257;  380.443;  515.877;  488.222
638.529;  530.009; -881.125; -924.776
638.802;  223.399; -508.128; -449.769
639.074; -116.817; -927.122; -952.781
639.346; -124.755; -942.135; -930.757
639.619;   15.656;  -79.142; -319.744
639.891;   -5.124;  -83.122; -168.779
640.163;  -83.547; -689.122; -756.780
640.435;   43.505;  273.878;  103.220
640.708;    7.232;  -72.122; -132.780
640.980;  -20.716; -366.122; -362.781
641.252;  190.636;  -25.121;  -71.781
641.524; 1724.812;  580.879;  573.219
641.796; 1749.614;-1094.121; -907.782
642.068;  317.291; -191.121; -300.782
642.340;  -63.382; -486.121; -566.783
642.613;   34.570;  294.880;  323.217
642.885;  -99.354; -787.120; -878.783
643.157;  -57.802; -810.120; -658.784
643.428;   56.225;  170.880;  218.216
643.700;  -68.173; -498.120; -425.784
643.972;  -37.796;  -16.119; -133.785
644.244;  -94.294; -474.119; -559.785
644.516;  -52.293; -250.119; -114.786
644.788;   51.759;  662.881;  548.214
645.060;  -11.589;  -12.119; -124.786
645.332; -104.112; -525.118; -535.787
645.603;   31.265;  479.882;  342.213
645.875;  -75.083; -334.118; -369.787
646.147;  170.843; 1487.882; 1242.212
646.418;  -71.305; -931.117; -918.788
646.690;  113.847; -714.117; -715.789
646.962;   24.899; -413.117; -451.789
647.233;   -4.924;   15.883;   11.211
647.505; -105.498; -595.117; -475.790
647.776;   19.229;  328.884;  229.210
648.048;   -4.069; -248.116; -418.790
648.320;  -85.342; -752.116; -679.791
648.591; -158.515;-1055.116; -958.791
648.862;  -84.838; -505.116; -577.792
649.134;   -1.837;  115.885;  198.208
649.405;  -49.885; -661.115; -618.792
649.677;  -44.183; -475.115; -598.793
649.948;   -2.281; -181.115; -296.793
650.219;   -6.779;  -37.115; -147.793
650.491;  -85.003; -431.114; -520.794
650.762; -122.401; -705.114; -731.794
651.033;  -93.574; -437.114; -424.795
651.304;  -95.722; -743.114; -728.795
651.576;  -76.820; -680.114; -645.795
651.847;  -41.893; -250.113; -140.796
652.118;  -31.967;  -32.113; -189.796
652.389; -115.365; -639.113; -722.796
652.660;  -30.588; -147.113;  -89.797
652.931; -139.936; -897.112; -871.797
653.202;  -82.584; -382.112; -541.798
653.473;  -81.132; -633.112; -533.798
653.744;  136.869; -595.112; -590.798
654.015;  134.671; -356.112; -303.799
654.286;  -70.052; -642.111; -663.799
654.557;  -68.075; -586.111; -521.799
654.828; -159.323;-1114.111;-1088.800
655.099;  -89.072; -404.111; -291.800
655.370;  -94.120; -427.111; -543.801
655.641; -132.418; -656.110; -714.801
655.911; -110.691; -618.110; -638.801
656.182;   41.686;  437.890;  387.198
656.453;   93.388;  830.890;  746.198
656.724;  -70.086; -466.110; -426.802
656.994;  -97.884; -553.109; -568.803
657.265; -101.082; -862.109; -873.803
657.536;  -93.255; -500.109; -377.804
657.806; -108.528; -561.109; -593.804
658.077; -137.776; -866.109; -950.804
658.347;  -84.850; -523.108; -598.805
658.618; -120.673; -646.108; -694.805
658.888;  -22.321;  -41.108;  112.195
659.159;  -87.144; -432.108; -548.806
659.429;  -19.592; -292.108; -349.806
659.700;    4.984; -435.107; -390.807
659.970;   -9.539; -370.107; -359.807
660.241;   11.613; -754.107; -921.807
660.511;  472.165; -147.107; -174.808
660.781;   82.742; -793.106; -748.808
661.052;  -52.606; -222.106; -381.808
661.322;  -25.905;   21.894;   -9.809
661.592;    9.822;  257.894;  148.191
661.862;  -82.576; -369.106; -382.810
662.133;  -87.774; -551.105; -502.810
662.403; -121.947; -770.105; -676.810
662.673;  -62.920; -256.105; -213.811
662.943;  -94.269; -612.105; -551.811
663.213;   -6.142;  -85.105;  -81.811
663.483;  -80.165; -593.104; -568.812
663.753;  -48.813; -194.104; -152.812
664.023;   -2.986;   68.896;  -32.813
664.293;  -57.260; -319.104; -126.813
664.563; -112.283; -694.104; -648.813
664.833; -116.306; -743.103; -608.814
665.103; -136.479; -730.103; -793.814
665.373; -117.777; -766.103; -806.814
665.643;  -96.025; -863.103; -918.815
665.913;   33.801; -534.103; -714.815
666.182;  117.078; -685.102; -719.816
666.452;  248.680;  -22.102;  -89.816
666.722;  -41.343; -724.102; -784.816
666.992; -129.066; -948.102; -921.817
667.261; -101.489; -824.102; -808.817
667.531;  188.387;  134.899;   45.183
667.801;  538.664; -440.101; -412.818
668.070;  245.041;  714.899;  697.182
668.340; -112.832; -883.101; -840.819
668.609;  113.520;  588.900;  301.181
668.879;  -76.754; -490.100; -558.819
669.149;  -81.927; -539.100; -516.820
669.418; -100.600; -698.100; -726.820
669.688;  -36.873; -482.100; -666.820
669.957;   66.054; -423.099; -546.821
670.226;  -40.669; -268.099; -331.821
670.496; -106.068; -431.099; -635.822
670.765;  -89.541; -418.099; -501.822
671.034; -139.914; -872.099; -828.822
671.304;  -22.062;   55.902; -111.823
671.573; -157.360;-1085.098; -957.823
671.842;   61.616; -380.098; -294.823
672.112;   30.668; -692.098; -586.824
672.381;    1.945; -239.098; -214.824
672.650; -127.128;-1005.097;-1021.825
672.919;  -84.651; -631.097; -507.825
673.188; -107.999; -681.097; -878.825
673.457; -159.773;-1101.097;-1143.826
673.726;  -91.346; -579.096; -646.826
673.995;  -50.319; -533.096; -479.826
674.265;  -31.492; -263.096; -333.827
674.534;    3.560; -183.096; -235.827
674.802;  -15.963; -618.096; -703.828
675.071;  943.813; -886.095; -801.828
675.340; 3695.165; -464.095; -339.828
675.609; 1243.092;  103.905;   82.171
675.878;   42.469; -949.095; -893.829
676.147;   23.996;  -26.095;   -8.829
676.416;   75.797; -210.094; -294.830
676.685;  688.674; 1000.906; -622.830
676.953;   87.851; -603.094; -452.831
677.222;  -45.522; -193.094; -273.831
677.491;  -18.870;  -24.094; -127.831
677.759;  -16.293;   11.907;  172.168
678.028;  -21.267; -279.093; -222.832
678.297;  -11.365;   71.907;  197.168
678.565; -144.088; -898.093; -944.833
678.834;  -72.636; -311.093; -268.833
679.102;  -70.684; -411.092; -391.834
679.371; -145.057; -898.092; -727.834
679.639; -127.431; -797.092; -786.834
679.908; -119.079; -794.092; -724.835
680.176; -154.402; -895.091; -941.835
680.445;  -79.150; -346.091; -352.835
680.713;  -16.923;  -58.091;  -23.836
680.982;  -88.647; -523.091; -525.836
681.250; -105.420; -578.091; -507.837
681.518; -102.343; -534.090; -751.837
681.787;  -33.366; -204.090; -167.837
682.055;  -71.864; -490.090; -422.838
682.323; -149.612; -993.090; -992.838
682.591;   28.464; -216.090; -538.838
682.859;   94.491;    9.911;  -35.839
683.128;   17.593;  232.911;  497.161
683.396; -170.705;-1102.089;-1122.840
683.664;  -47.128; -241.089;   21.160
683.932;    2.299;  144.911;  -76.840
684.200;  -76.025; -576.088; -320.841
684.468;  -21.048;  -73.088; -124.841
684.736;  -38.896; -214.088; -175.841
685.004; -138.469;-1024.088; -982.842
685.272;  -54.592; -880.088; -774.842
685.540;  -69.991; -499.087; -557.843
685.808;  -83.314; -651.087; -682.843
686.076; -115.387; -894.087; -969.843
686.343;  -61.385; -601.087; -815.844
686.611;   33.317; -195.087; -224.844
686.879;  449.894; -530.086; -553.844
687.147; 3145.195; -483.086; -480.845
687.414;  877.122;  -12.086; -169.845
687.682;   -8.301; -658.086; -757.846
687.950;  284.451;  259.915;  263.154
688.217;    4.403; -792.085; -760.846
688.485;   -3.220; -632.085; -636.847
688.753;  483.731;  -11.085; -102.847
689.020;  141.308; -820.085; -851.847
689.288; -103.790; -853.084; -787.848
689.555;  -30.563; -195.084; -148.848
689.823;  -46.661; -241.084; -345.849
690.090;  -87.010; -546.084; -651.849
690.358; -145.083; -877.084; -897.849
690.625;    9.519;  120.917;   45.150
690.892;  -73.854; -403.083; -369.850
691.160;  -29.327;   72.917;  -35.850
691.427;   -5.700;  141.917;  130.149
691.694; -151.724; -855.083; -929.851
691.962; -141.897;-1177.082;-1060.852
692.229;   -0.620;  127.918;   56.148
692.496;   92.432;  130.918;  -49.852
692.763;    4.959; -164.082; -201.853
693.031;  -73.015; -739.082; -716.853
693.298;  -35.463; -509.081; -368.853
693.565;  279.564; -155.081; -163.854
693.832; 1172.041;   -5.081;   -9.854
694.099;  130.543; -643.081; -642.855
694.366;  -73.330; -882.081; -896.855
694.633;  -51.604; -920.080; -633.855
694.900;  755.198; 4367.920; -114.856
695.167;  399.150; -214.080; -380.856
695.434;  103.152; -646.080; -623.856
695.701;  194.304;  121.921;  -61.857
695.968;  448.581; -365.079; -361.857
696.234; 1009.057; -415.079; -646.858
696.501;10490.584; -776.079; -614.858
696.768; 5242.236; -554.079; -617.858
697.035;  321.113; -632.078; -667.859
697.302;   19.115; -448.078; -552.859
697.568;    6.891; -458.078; -497.859
697.835;  -30.632; -683.078; -624.860
698.102;  -27.955; -498.078; -407.860
698.368;   71.147;  384.923;  396.139
698.635;  -54.426;  -47.077; -424.861
698.901;  -14.099; -240.077; -348.861
699.168;   73.777; -534.077; -456.862
699.435;   67.304;  -72.077;  -13.862
699.701; -111.969; -868.076; -764.862
699.968;   -2.042;  144.924; -441.863
700.234; -104.665; -783.076; -822.863
700.500;  -36.238; -448.076; -539.864
700.767;    1.738;   -1.075;   26.136
701.033; -127.260;-1015.075; -963.864
701.299;  -46.208; -450.075; -483.865
701.566;  117.719;  950.925;  763.135
701.832;   20.371;  -31.075;  -76.865
702.098; -109.578;-1054.074;-1034.866
702.365; -101.976;-1098.074;-1030.866
702.631;  -28.424;-1038.074;-1063.867
702.897; 1326.703; -765.074; -676.867
703.163; 2189.655;  348.926;  254.133
703.429;  155.607; -256.073; -273.868
703.695;  -40.517; -796.073; -792.868
703.961;   14.935; -214.073; -210.868
704.227;  -61.713; -630.073; -725.869
704.493;  126.464;  613.927;  510.131
704.759;  -25.509; -565.072; -540.870
705.025;   19.643; -203.072; -194.870
705.291;   -5.881; -666.072; -562.870
705.557;  197.946;  719.928;   34.129
705.823;   23.773; -742.072; -694.871
706.089;  138.400; -307.071; -326.871
706.355;  370.377; -315.071; -244.872
706.620; 5804.803; -776.071; -729.872
706.886; 7912.755; -309.071; -362.873
707.152;  709.207; -818.070; -973.873
707.418;  -26.766;-1153.070;-1186.873
707.683;  -19.539; -550.070; -530.874
707.949;  -37.462; -547.070; -578.874
708.215;  -12.211; -129.070; -207.874
708.480;  -18.284; -520.069; -420.875
708.746;   73.518;   68.931;   28.125
709.011;  -60.105; -578.069; -612.876
709.277;  -83.828; -538.069; -543.876
709.542;  -52.602; -428.069; -387.876
709.808;   -4.375;  -59.068;   89.123
710.073;  -78.898; -577.068; -695.877
710.339;  -42.671; -242.068; -228.877
710.604;   69.331; -780.068; -845.878
710.869;  322.108; -277.068; -366.878
711.135;  -74.866; -715.067; -628.879
711.400;  -88.039; -507.067; -608.879
711.665;  -63.837; -404.067; -479.879
711.931; -100.210; -661.067; -677.880
712.196; -109.833; -876.067; -954.880
712.461;  107.194; -402.066; -490.880
712.726;  134.245; -727.066; -771.881
712.991;  -92.553; -647.066; -664.881
713.256;  -48.776; -350.066; -332.882
713.521;  -55.474; -417.065; -381.882
713.787;  -64.772; -454.065; -472.882
714.052;  -36.121; -214.065; -400.883
714.317;  -84.544;-1045.065; -981.883
714.581; 1071.608; -374.065; -268.883
714.846; 1443.760; -822.064; -888.884
715.111;  139.187;  261.936;  257.116
715.376;  -28.711;  -86.064; -223.885
715.641;  -14.635; -365.064; -367.885
715.906;  295.242;   15.936; -551.885
716.171;  129.419;  221.937;  209.114
716.436;   48.771;  -78.063; -104.886
716.700;  -98.952; -818.063; -692.886
716.965; -128.325; -794.063; -807.887
717.230;  -71.824; -339.063; -392.887
717.494;  -35.672;  -40.062; -134.888
717.759;  -89.195; -784.062; -640.888
718.024;    3.782;  269.938;  250.112
718.288;   56.834;  685.938;  395.111
718.553; -164.665; -803.062; -977.889
718.817; -139.563; -883.061; -899.889
719.082;  -37.886; -115.061; -125.890
719.346; -147.159;-1000.061; -947.890
719.611;  -51.582; -300.061; -255.891
719.875;  -96.430; -568.060; -537.891
720.140;  -68.229; -453.060; -603.891
720.404;   39.348; -136.060; -249.892
720.668;  786.725; -475.060; -411.892
720.933;  307.952;  146.940;  137.108
721.197;  -93.121; -667.059; -600.893
721.461; -144.869; -851.059; -826.893
721.725;    3.257;  -21.059; -250.894
721.990;  -69.191; -284.059; -204.894
722.254;  -36.189;  -26.059; -108.894
722.518;  -70.712; -286.058; -442.895
722.782; -102.085; -743.058; -594.895
723.046;  114.641;  614.942;  570.105
723.310;   29.543;  374.942;  210.104
723.574; -104.080; -654.058; -614.896
723.838; -102.578; -576.057; -642.897
724.102;  -44.551; -226.057; -239.897
724.366; -146.549;-1032.057; -978.897
724.630; -104.648; -749.057; -571.898
724.894;  -84.346; -722.057; -514.898
725.158;   -9.894;   38.944; -295.898
725.422;  -53.492; -394.056; -327.899
725.685;  -68.240; -441.056; -349.899
725.949;  -90.138; -566.056; -519.900
726.213;  -79.712; -732.056; -811.900
726.477;  155.590;-1020.055; -933.900
726.740;  129.092; -274.055; -104.901
727.004;  355.269; -384.055; -510.901
727.268; 3400.971; -442.055; -400.901
727.531;  932.747; -961.055; -775.902
727.795;  -58.001; -713.054; -673.902
728.059;  -57.974; -552.054; -557.903
728.322;  -72.197; -841.054; -669.903
728.586;    4.505; -692.054; -701.903
728.849;  -88.193; -695.053; -756.904
729.112; -123.792; -812.053; -912.904
729.376; -119.665; -959.053; -905.904
729.639;  -77.813; -536.053; -536.905
729.903; -108.411; -733.053; -699.905
730.166;  -61.559; -437.052; -399.906
730.429;  -27.383; -317.052; -468.906
730.693;  -71.831; -355.052; -894.906
730.956;  201.046;  810.948;  651.093
731.219;  681.873; -310.052; -103.907
731.482;  106.550;-1003.051; -894.907
731.745;   77.327; -794.051; -935.908
732.009;   14.428;  -30.051;   50.092
732.272; -117.495; -904.051; -771.909
732.535;  -46.768; -300.051; -310.909
732.798; -155.191;-1083.050;-1166.909
733.061;  -60.664; -430.050; -456.910
733.324;   -6.362;   31.950; -180.910
733.587;   49.739;  290.950;  365.090
733.850;  -73.109; -973.049;-1050.911
734.113;   27.368;   33.951;   32.089
734.376;   -5.455; -328.049; -447.912
734.639;  208.997; 1188.951; 1011.088
734.901;   65.848; -180.049; -402.912
735.164;  487.850; -883.048; -837.913
735.427; 1238.427; -166.048; -355.913
735.690;  118.154; -205.048; -234.913
735.952;  -43.394; -923.048; -925.914
736.215;  -30.842;-1113.048;-1009.914
736.478;   35.134; -771.047; -774.915
736.740;  207.486;   33.953;  129.085
737.003;  676.363; -658.047; -672.915
737.266; 3829.815;  -94.047;   46.084
737.528;  431.942; -682.047; -660.916
737.791;  304.294; -316.046; -327.916
738.053;  812.020;  465.954;  649.083
738.316;11078.047; -162.046; -136.917
738.578; 7535.649; -770.046; -736.918
738.841;  444.476; -382.046; -446.918
739.103;  182.628; -875.045; -777.918
739.365;  486.129;   79.955;  -69.919
739.628;    0.331; -884.045; -805.919
739.890;  -33.367; -758.045; -710.919
740.152;  -39.315; -692.044; -754.920
740.414;  -19.538; -408.044; -359.920
740.677;  -51.636; -785.044; -634.921
740.939;  -43.935; -587.044; -487.921
741.201;  249.317; -432.044; -572.921
741.463;   19.569; -689.043; -745.922
741.725;    0.946;  -21.043; -199.922
741.987;   60.148;  220.957;  116.078
742.249;   -7.925; -751.043; -859.923
742.511;  208.951; -703.043; -794.923
742.773;   13.653; -546.042; -546.924
743.035;  133.255;  796.958;  533.076
743.297;  -35.793; -963.042;-1013.924
743.559;  723.059; -278.042; -262.925
743.821;   50.610; -735.042; -744.925
744.083;  -11.513;  -44.041; -149.925
744.345;  -86.886; -869.041; -892.926
744.607;   40.341;   75.959;  122.074
744.868;  -67.457; -490.041; -554.927
745.130; -106.530; -994.041;-1008.927
745.392;   52.571;   -1.040;  -44.927
745.653;  -18.202; -411.040; -378.928
745.915;  148.625;  896.960;  631.072
746.177;   63.027;   35.960;  -43.928
746.438;   -3.046; -428.040; -543.929
746.700;  -50.469; -947.039; -988.929
746.961;    5.832; -659.039; -740.930
747.223;  135.809; -190.039;  -74.930
747.484;   92.861; -391.039; -471.930
747.746;  147.038;  -23.038; -106.931
748.007;  107.290; -647.038; -689.931
748.269;  267.316; -468.038; -440.931
748.530;  450.493; -852.038; -638.932
748.791;  240.495; -354.038; -420.932
749.053;  427.597;  286.963;  163.067
749.314;  433.574; -236.037; -169.933
749.575;  494.001; -945.037; -905.933
749.836;  842.752; -217.037;   86.066
750.098; 2471.704;  -60.037;  -21.934
750.359;36095.406;  414.964;  555.066
750.620; 8879.208; -121.036; -220.935
750.881;  994.435; -585.036; -513.935
751.142; 1330.886; -950.036; -938.936
751.403;16838.238; -789.036; -705.936
751.664; 7220.915;-1034.035; -999.936
751.925;  491.392; -175.035; -262.937
752.186;  262.919; -298.035; -278.937
752.447;  130.296; -590.035; -445.937
752.708;   48.672; -532.035; -648.938
752.969;    0.799; -566.034; -576.938
753.230;  -18.749; -777.034; -672.939
753.491;   -3.297; -650.034; -631.939
753.751;   67.055;  109.966;   19.061
754.012;   95.957;  258.967;  181.060
754.273;   52.433; -174.033;  -71.940
754.534;    8.110; -487.033; -580.940
754.794;  -97.388; -926.033; -911.941
755.055;  123.889; 1051.967;  881.059
755.316;  -52.309; -700.032; -566.942
755.576;  -35.083; -606.032; -576.942
755.837;  -46.131; -527.032; -695.942
756.097;  -28.729; -530.032; -564.943
756.358;  -71.302; -725.032; -770.943
756.618;  -58.250; -705.031; -641.943
756.879;   -9.373; -254.031; -349.944
757.139; -132.347;-1098.031;-1116.944
757.400;  -60.170; -538.031; -553.945
757.660;  -18.568; -365.031; -401.945
757.920;   15.584; -266.030; -228.945
758.181;  -20.389; -468.030; -351.946
758.441;  -89.312; -870.030; -809.946
758.701;  -32.636; -308.030; -215.946
758.961;  -11.284; -220.030; -278.947
759.222;  -55.982; -574.029; -502.947
759.482;  -78.330; -683.029; -723.948
759.742;  -85.053; -706.029; -547.948
760.002;    8.098;  -83.029; -143.948
760.262;   26.450;   50.972;  182.051
760.522;  -37.173; -498.028; -574.949
760.782;  -63.846; -738.028; -612.949
761.042;  -34.744; -618.028; -573.950
761.302;   33.908;   55.972;  -18.950
761.562;   46.959; -164.027; -154.951
761.822;   67.936; -710.027; -551.951
762.082;  -47.487;-1104.027;-1093.951
762.342;   71.590; -328.027; -403.952
762.601;   82.692; -567.027; -506.952
762.861;  350.569; -281.026; -207.952
763.121;  409.370; -406.026; -411.953
763.381; 7546.622; -499.026; -485.953
763.640; 8023.974; -139.026; -307.954
763.900;  359.701; -242.026; -203.954
764.160;   83.953; -458.025; -491.954
764.419;  -13.046; -726.025; -782.955
764.679;  -75.444; -795.025; -726.955
764.939;  -16.392; -124.025; -210.955
765.198;  -71.840; -608.025; -563.956
765.458;  -86.038; -710.024; -612.956
765.717;  -89.461; -454.024; -590.957
765.976;  -51.785; -428.024; -411.957
766.236;  -74.808; -475.024; -610.957
766.495;   14.494;  260.977;   73.042
766.755; -113.879;-1090.023; -987.958
767.014;   -0.427; -594.023; -665.958
767.273;  -50.676; -373.023; -397.959
767.533;  -64.174; -228.023; -307.959
767.792;  -31.772; -151.022; -188.960
768.051;  -45.020; -228.022; -276.960
768.310;  -83.968; -546.022; -650.960
768.569;   -9.391; -161.022;    4.039
768.828;  -34.540; -285.022; -363.961
769.088; -125.313;-1050.021; -942.961
769.347;  -83.461; -755.021; -599.962
769.606; -112.109; -876.021; -857.962
769.865; -121.532;-1016.021;-1033.963
770.124;    9.495; -411.021; -336.963
770.383;  -63.304; -778.020; -910.963
770.641;    8.223; -398.020; -400.964
770.900;  -68.850; -953.020; -846.964
771.159;  -47.623; -851.020; -951.964
771.418;  -21.621; -917.020; -779.965
771.677;  121.530; -224.019; -293.965
771.936;  165.282; -794.019; -865.966
772.194; 2336.234; -465.019; -437.966
772.453;11178.561; -213.019; -391.966
772.712;  756.863;  416.982;  329.033
772.970;  121.740;   32.982;   63.033
773.229;   80.841;  -22.018;  102.033
773.488;  -91.782; -814.018; -770.968
773.746;   39.845;  296.982;  335.032
774.005;    4.772;  190.983;  -22.969
774.263;   27.124;  243.983;  177.031
774.522;  -56.949; -422.017; -548.969
774.780;  -92.998; -484.017; -417.970
775.039;  -85.946; -551.017; -531.970
775.297;  -39.469; -135.016; -351.970
775.555; -103.942; -489.016; -612.971
775.814; -110.840; -618.016; -570.971
776.072; -118.314; -749.016; -740.971
776.330; -105.337; -630.016; -520.972
776.589; -130.560; -703.015; -721.972
776.847; -129.158; -645.015; -624.973
777.105; -169.806;-1016.015;-1032.973
777.363;  -87.654; -459.015; -454.973
777.621; -145.903; -660.015; -717.974
777.879;  -10.776;  -42.014;   32.026
778.138; -103.674; -554.014; -717.974
778.396; -110.997; -585.014; -526.975
778.654; -175.745;-1015.014; -970.975
778.912;  -64.893; -269.014; -371.976
779.170; -119.092; -880.013; -803.976
779.427; -157.615; -922.013; -897.976
779.685; -154.613; -880.013; -832.977
779.943;  -88.361; -654.013; -593.977
780.201; -158.934; -964.012; -883.978
780.459; -130.833; -651.012; -610.978
780.717; -103.256; -440.012; -390.978
780.974; -103.779; -449.012; -490.979
781.232;  -73.127; -358.012; -338.979
781.490;  -80.850; -551.011; -472.979
781.747;  -92.323; -555.011; -476.980
782.005;   26.703;  462.989;  254.020
782.263; -168.945; -542.011;-1004.981
782.520;  -89.893; -326.011; -501.981
782.778; -165.391;-1013.010;-1051.981
783.035; -167.039; -962.010; -938.982
783.293;  -60.312; -248.010; -206.982
783.550;  -51.911; -134.010; -198.982
783.808; -153.434; -764.010; -776.983
784.065; -162.932; -745.009; -874.983
784.322;  -48.930;   25.991;  -86.984
784.580; -145.303; -915.009; -771.984
784.837;  -97.702; -392.009; -466.984
785.094; -146.600; -783.009; -762.985
785.352;  -83.523; -304.008; -404.985
785.609; -102.896; -934.008; -839.985
785.866;  -81.869; -345.008; -401.986
786.123;  -74.792; -639.008; -583.986
786.380; -106.841; -665.008; -604.987
786.637;  -51.364; -225.007; -380.987
786.895;  -29.437; -456.007; -543.987
787.152;  -38.260; -135.007; -267.988
787.409;  -49.533; -123.007; -225.988
787.666;  -85.082; -299.006; -378.988
787.923; -117.530; -616.006; -695.989
788.179; -109.578; -551.006; -584.989
788.436; -115.176; -585.006; -585.990
788.693;  -41.499;  -92.006;  -87.990
788.950;  152.853; -125.005; -112.990
789.207;  200.629; -381.005; -372.991
789.464;  -63.219; -161.005; -301.991
789.720;   -2.467;  150.995;  110.009
789.977; -177.990;-1003.005; -671.992
790.234;  -36.263;   44.996;  -66.992
790.490; -153.086; -884.004;-1031.993
790.747;  -35.360;  -85.004;   22.007
791.004;  -28.033; -426.004; -348.993
791.260;  -76.231; -430.004; -560.994
791.517; -103.929; -843.003; -788.994
791.773;  -58.202; -379.003; -342.994
792.030; -123.401; -596.003; -660.995
792.286;  -96.324; -686.003; -636.995
792.543;  -31.147;  -74.002; -159.995
792.799;  -59.845; -584.002; -382.996
793.055; -148.018;-1179.002;-1210.996
793.312; -105.466; -827.002; -816.997
793.568;  -67.565; -746.002; -599.997
793.824;   -0.363; -226.001; -284.997
794.081;   13.764; -447.001; -508.998
794.337;   54.316; -664.001; -561.998
794.593; 1372.443; -319.001; -271.999
794.849; 6488.695; -746.001; -772.999
795.105;  309.746; -270.000; -261.999
795.361;    7.173; -490.000; -457.000
795.617;  -62.850; -875.000; -945.000
795.873;  -46.150; -360.000; -407.000
796.129;  -32.000; -368.000; -306.000
796.385;  -20.125; -124.000; -156.000
796.641;   65.550;  412.000;  550.000
796.897;  -90.200; -666.000; -635.000
797.153;   74.900;  453.000;  357.000
797.409; -120.625; -785.000; -868.000
797.665;  -72.200; -625.000; -732.000
797.921;  -71.400; -775.000; -762.000
798.176;  -56.325; -744.000; -747.000
798.432;  -54.600; -824.000; -596.000
798.688;  -76.825;-1174.000;-1078.000
798.943;   78.775; -165.000; -147.000
799.199;  -21.000;-1005.000; -959.000
799.455;  234.850;  369.000;  316.000
799.710;  138.100; -813.000; -380.000
799.966;  308.125; -162.000; -160.000
800.221;  491.975; -638.000; -721.000
800.477;10787.325; -743.000; -710.000
800.732; 9194.000; -773.000; -800.000
800.988;  635.825;  205.000;  -19.000
801.243; 1944.425; -454.000; -344.000
801.498; 8096.200; -814.000; -739.000
801.754;  434.400; -289.000; -163.000
802.009;   80.825; -257.000; -335.000
802.264;  -47.575; -967.000;-1033.000
802.520;   19.250;  222.000;   -3.000
802.775;  -52.300; -524.000; -359.000
803.030;   30.875;  395.000;  356.000
803.285; -116.025; -840.000; -903.000
803.540;  -65.400; -686.000; -699.000
803.795;  -49.125; -648.000; -583.000
804.051;  -44.300; -279.000; -346.000
804.306;   35.000;  168.000;  128.000
804.561;  129.050;  451.000;  362.000
804.816;  139.575;  714.000;  861.000
805.071;    7.075; -185.000; -280.000
805.325;  188.300; -257.000; -427.000
805.580; -107.875; -841.000; -877.000
805.835;  -22.200; -204.000; -297.000
806.090;  -73.175; -760.000; -676.000
806.345;  -21.650; -344.000; -264.000
806.600;  -41.850; -549.000; -632.000
806.854;  -28.925; -408.000; -538.000
807.109;  -29.250; -493.000; -577.000
807.364;  -11.850; -407.000; -328.000
807.618;   -9.650; -415.000; -381.000
807.873;   46.900; -470.000; -494.000
808.128;   81.050; -257.000; -518.000
808.382;  101.750; -224.000; -332.000
808.637;   90.250; -440.000; -511.000
808.891;  160.150; -257.000; -180.000
809.146;  105.450; -902.000; -794.000
809.400;  259.075; -848.000; -923.000
809.654;  320.425; -779.000; -551.000
809.909;  483.525; -841.000; -927.000
810.163; 6635.675; -813.000; -651.000
810.418;16528.900; -940.000; -861.000
810.672; 1003.525; -685.000; -690.000
810.926;  730.325; -993.000; -973.000
811.180; 1428.800; -439.000; -372.000
811.434;32594.200;  240.000;  135.000
811.689;12635.325; -231.000; -365.000
811.943;  630.350; -936.000; -953.000
812.197;  333.900; -893.000; -671.000
812.451;  134.725; -379.000; -514.000
812.705;  -30.450; -809.000; -619.000
812.959;   13.875; -263.000; -388.000
813.213;   -5.075; -283.000; -209.000
813.467;   78.925;  470.000;  253.000
813.721; -111.550; -764.000; -792.000
813.975; -112.725; -826.000; -877.000
814.229;   47.800;  430.000;  353.000
814.482;  -87.875; -517.000; -566.000
814.736; -121.700; -766.000; -744.000
814.990; -131.950; -779.000; -872.000
815.244;  -62.225; -228.000; -285.000
815.497;  -95.750; -636.000; -601.000
815.751;  -36.200; -141.000;   82.000
816.005;  -96.900; -470.000; -586.000
816.258;  -66.100; -510.000; -363.000
816.512; -108.725; -693.000; -610.000
816.766;   -3.700;  121.000;  157.000
817.019;    3.900;  148.000;  149.000
817.273; -132.800;-1000.000; -802.000
817.526;  -43.975; -206.000; -173.000
817.779;  -53.400;-1049.000; -960.000
818.033;  -75.825; -693.000; -807.000
818.286; -128.650; -725.000; -792.000
818.540;  -93.450; -403.000; -403.000
818.793;  -78.550; -402.000; -489.000
819.046; -113.050; -582.000; -520.000
819.299;  -55.675; -157.000; -166.000
819.553; -112.925; -552.000; -592.000
819.806; -165.325;-1016.000; -838.000
820.059;  -74.350; -334.000; -354.000
820.312;    9.125;  152.000;  185.000
820.565;  -12.825;  110.000;  -27.000
820.818;  -53.200;  -59.000; -173.000
821.071; -175.825;-1041.000; -957.000
821.324; -107.150; -536.000; -540.000
821.577; -106.900; -457.000; -483.000
821.830;  -74.300; -270.000; -172.000
822.083; -143.900; -733.000; -288.000
822.336;  -57.500; -261.000; -167.000
822.589; -140.275; -805.000; -688.000
822.842; -154.175; -875.000; -770.000
823.094; -177.550;-1076.000;-1114.000
823.347; -131.350; -925.000; -729.000
823.600;    8.000;  402.000;  187.000
823.853;  -59.425; -311.000; -267.000
824.105;  -63.725; -331.000; -575.000
824.358; -103.225; -617.000; -716.000
824.611;   16.025;  234.000;   40.000
824.863;  -51.325; -612.000; -591.000
825.116;   50.400;  -33.000;   27.000
825.368;   67.675; -366.000; -372.000
825.621;  153.850; -186.000; -240.000
825.873;   82.500; -704.000; -737.000
826.126;  611.725; -669.000; -641.000
826.378;11748.750; -389.000; -505.000
826.630; 2728.225; -890.000; -898.000
826.883;   30.775; -754.000; -693.000
827.135;   39.375; -279.000; -270.000
827.387; -109.975; -893.000; -839.000
827.639;  -41.125;  -86.000;   32.000
827.892; -124.900; -742.000; -582.000
828.144; -139.850; -848.000; -804.000
828.396;  -44.275;  104.000;  -80.000
828.648; -108.625; -440.000; -333.000
828.900; -153.475; -702.000; -795.000
829.152; -122.650; -684.000; -683.000
829.404;  -65.875; -215.000; -267.000
829.656;  -59.900;  321.000;  214.000
829.908;  -15.575;  393.000;  229.000
830.160; -164.125;-1064.000;-1047.000
830.412;  -91.550; -481.000; -430.000
830.664; -125.200; -557.000; -665.000
830.916;  -89.650; -268.000; -206.000
831.167; -182.800;-1073.000; -951.000
831.419; -104.200; -623.000; -566.000
831.671; -144.025; -764.000; -809.000
831.923;  -72.250; -311.000; -447.000
832.174;  -73.450; -273.000; -331.000
832.426; -114.900; -493.000; -582.000
832.678; -192.600;-1043.000;-1091.000
832.929; -155.900; -947.000; -935.000
833.181;  -69.975; -575.000; -677.000
833.432;  -57.825;  -59.000; -186.000
833.684;  -20.350;  112.000;  -27.000
833.935; -115.750; -610.000; -566.000
834.187; -135.200; -829.000; -823.000
834.438;  -55.775;  -58.000;  -25.000
834.689;  -47.000; -255.000; -123.000
834.941;  -68.800; -343.000; -244.000
835.192; -111.800; -590.000; -533.000
835.443;  -98.175; -419.000; -506.000
835.695;   -8.125;  138.000;  -16.000
835.946;  -94.650; -608.000; -378.000
836.197; -107.000; -599.000; -622.000
836.448;  -96.225; -528.000; -395.000
836.699;  -60.925; -253.000; -341.000
836.950;    0.350;   72.000;    7.000
837.201; -145.750;-1003.000; -987.000
837.452;  -52.950; -356.000; -170.000
837.703; -125.375; -791.000; -737.000
837.954;  -26.275; -205.000; -365.000
838.205;  -92.875;-1029.000;-1008.000
838.456;  164.550; -196.000; -282.000
838.707;    2.100; -423.000; -519.000
838.958;    0.475; -634.000; -647.000
839.209;  264.825;   18.000;   40.000
839.460;  124.175; -439.000; -201.000
839.710;  156.350; -135.000; -297.000
839.961;  399.975;  730.000;  612.000
840.212;  335.225; -382.000; -497.000
840.462; 1157.600; -328.000; -277.000
840.713;18207.550; -571.000; -536.000
840.964; 7030.975;  -62.000; -143.000
841.214;  482.800; -384.000; -624.000
841.465;  542.400; -214.000; -141.000
841.715;  495.450; -417.000; -380.000
841.966;  630.350; -746.000; -685.000
842.216; 8996.300; -330.000; -431.000
842.466;33136.500; -169.000; -313.000
842.717; 1732.500; -964.000; -952.000
842.967;  301.975; -635.000; -641.000
843.217;  265.050;   20.000;   28.000
843.468;   56.375; -104.000; -132.000
843.718;  -43.050; -718.000; -726.000
843.968;  -94.425; -837.000; -765.000
844.218;    7.900; -315.000; -262.000
844.469;  -74.600; -577.000; -561.000
844.719; -106.900; -537.000; -682.000
844.969;  -89.675; -550.000; -580.000
845.219; -146.950; -814.000; -862.000
845.469;  -87.400; -392.000; -342.000
845.719; -146.925; -792.000; -884.000
845.969;  -23.650;  119.000;  174.000
846.219; -116.700; -738.000; -720.000
846.469;   29.150;  464.000;  432.000
846.718;  -49.475; -115.000;   31.000
846.968; -141.050; -827.000; -827.000
847.218;  -57.600; -224.000; -371.000
847.468;   -2.050; -586.000; -555.000
847.718; -149.525; -827.000; -798.000
847.967; -139.600; -826.000; -915.000
848.217;  -79.825; -449.000; -569.000
848.467;  -68.025; -405.000; -376.000
848.716; -124.925; -708.000; -725.000
848.966;   -4.175; -372.000; -358.000
849.215;  -78.750; -428.000; -419.000
849.465;  -96.025; -785.000; -615.000
849.714; -160.900;-1132.000;-1150.000
849.964;  -67.350; -551.000; -613.000
850.213;  -19.550; -393.000; -355.000
850.463;   76.475;  137.000;  340.000
850.712;  -14.375; -542.000; -567.000
850.961;    4.900; -739.000; -678.000
851.211;   91.625; -513.000; -504.000
851.460;  167.800; -635.000; -650.000
851.709;  562.275;  -25.000;   18.000
851.958;10651.625; -912.000; -750.000
852.208;12529.600; -859.000; -879.000
852.457;  445.850; -181.000;  -13.000
852.706;   51.825; -791.000; -823.000
852.955;    5.125; -507.000; -528.000
853.204;  -71.150; -521.000; -461.000
853.453;  -96.000; -418.000; -458.000
853.702; -142.950; -660.000; -750.000
853.951; -109.200; -532.000; -520.000
854.200; -116.700; -613.000; -562.000
854.449; -127.100; -695.000; -661.000
854.698; -106.800; -340.000; -279.000
854.946;  -82.250; -181.000; -284.000
855.195; -148.500; -843.000; -868.000
855.444; -105.000; -395.000; -420.000
855.693; -126.550; -345.000; -432.000
855.941; -122.825; -387.000; -516.000
856.190;  -59.350; -256.000; -382.000
856.439; -135.900; -652.000; -703.000
856.687;  -56.225;  -99.000;  -72.000
856.936; -120.625; -621.000; -323.000
857.184; -179.250;-1067.000;-1020.000
857.433; -105.300; -423.000; -512.000
857.681; -178.225; -989.000; -953.000
857.930;  -81.475; -282.000; -433.000
858.178; -164.925; -856.000; -929.000
858.427; -161.625; -802.000; -781.000
858.675; -124.925; -377.000; -544.000
858.923; -111.575; -527.000; -819.000
859.172; -186.750;-1094.000;-1070.000
859.420;  -85.000; -339.000; -239.000
859.668; -144.575; -624.000; -628.000
859.916;  -32.000;  109.000;  115.000
860.164; -140.875; -699.000; -603.000
860.413;  267.500; -878.000; -696.000
860.661;  189.025; -709.000; -577.000
860.909;  -84.200; -339.000; -325.000
861.157;  -97.225; -277.000; -444.000
861.405; -133.975; -534.000; -670.000
861.653;   15.425;  310.000;  310.000
861.901;  160.400; -543.000; -613.000
862.149;  -30.725; -801.000; -824.000
862.396;  -89.075; -297.000; -187.000
862.644; -100.425; -368.000; -347.000
862.892;  -33.075;   98.000;  138.000
863.140; -124.925; -549.000; -530.000
863.388; -160.725; -815.000; -759.000
863.635; -133.950; -642.000; -601.000
863.883;  -14.650;  231.000;  190.000
864.131; -101.025; -288.000; -357.000
864.378; -138.550; -675.000; -540.000
864.626; -115.350; -347.000; -415.000
864.873; -112.925; -556.000; -505.000
865.121; -153.325; -714.000; -799.000
865.368;  -46.050; -173.000;   75.000
865.616;  -56.650;  -33.000;  -40.000
865.863;  -74.775; -462.000; -506.000
866.111; -117.400; -795.000; -824.000
866.358;   46.925; -426.000; -420.000
866.605; 2442.750;  -64.000; -804.000
866.853; 2381.450; -621.000; -537.000
867.100;  -43.650; -728.000; -775.000
867.347;  -91.775; -672.000; -611.000
867.594;  -88.925; -740.000; -714.000
867.841;   74.400;   97.000;   17.000
868.089; -157.550; -746.000; -698.000
868.336; -107.950; -477.000; -420.000
868.583; -148.925; -637.000; -741.000
868.830;  -57.650; -131.000; -170.000
869.077; -169.300; -859.000; -787.000
869.324; -144.875; -502.000; -458.000
869.571; -139.125; -398.000; -430.000
869.818; -119.400; -485.000; -439.000
870.065; -110.125; -439.000; -513.000
870.311; -115.150; -456.000; -542.000
870.558; -106.100; -332.000; -311.000
870.805;  -85.600; -320.000; -384.000
871.052; -104.050; -494.000; -369.000
871.298;  -59.400; -204.000; -131.000
871.545;  -76.475; -151.000; -185.000
871.792;  -85.575; -173.000; -222.000
872.038;  -71.250;   43.000; -126.000
872.285; -134.650; -496.000; -387.000
872.532; -101.700; -357.000; -387.000
872.778;   15.275;  556.000;  403.000
873.025;  -99.600; -384.000; -359.000
873.271;   20.450;  501.000;  578.000
873.517;  -37.900; -133.000; -209.000
873.764;  -25.625; -193.000;  -80.000
874.010;  -68.250; -143.000; -230.000
874.257;  -45.900;  123.000;   90.000
874.503; -143.375; -579.000; -479.000
874.749;  -78.200;   31.000;  275.000
874.995;  -55.050;  -80.000;  -20.000
875.242; -130.300; -540.000; -478.000
875.488; -117.525; -414.000; -439.000
875.734;  -57.375; -106.000; -234.000
875.980;  162.675; -872.000;-1032.000
876.226;  317.375; -157.000; -255.000
876.472;   -9.375;  343.000;  237.000
876.718;  -44.750;  184.000;  158.000
876.964;  -61.200;   56.000;   55.000
877.210; -172.675; -547.000; -677.000
877.456; -142.875; -630.000; -557.000
877.702; -190.225; -821.000; -832.000
877.948; -108.250; -377.000; -497.000
878.193;   -4.025;  361.000;  255.000
878.439;  -98.275; -487.000; -472.000
878.685; -109.300; -272.000; -343.000
878.931; -136.200; -618.000; -676.000
879.176;  -91.525; -201.000; -201.000
879.422; -183.125; -933.000; -820.000
879.668;   75.100;   10.000;   79.000
879.913;  126.775;   53.000;  137.000
880.159;  -57.550; -112.000;  -17.000
880.404;  -69.425; -152.000; -162.000
880.650;  -39.625;   91.000;  141.000
880.895; -153.800; -670.000; -710.000
881.141; -120.575; -454.000; -428.000
881.386; -154.900; -503.000; -658.000
881.631;  -92.650; -311.000; -166.000
881.877;  -38.525;  112.000;  -13.000
882.122; -146.175; -684.000; -600.000
882.367;  -87.500; -136.000; -186.000
882.612;  -70.800;  -80.000; -176.000
882.858; -161.200; -877.000; -823.000
883.103; -110.275; -297.000; -267.000
883.348; -164.550; -759.000; -852.000
883.593; -161.000; -677.000; -602.000
883.838;  -63.175; -311.000;  -24.000
884.083;   11.500;  353.000;  288.000
884.328; -100.250; -564.000; -545.000
884.573;  -67.300; -196.000; -143.000
884.818;  174.300; -694.000; -531.000
885.063;  159.350; -348.000; -315.000
885.308; -110.275; -475.000; -398.000
885.553;  -18.475;  245.000;  325.000
885.797; -121.600; -545.000; -615.000
886.042;  -70.300;    8.000;   58.000
886.287;  -80.275; -253.000; -211.000
886.532;  -58.650;   26.000;  204.000
886.776; -107.500; -407.000; -525.000
887.021; -148.600; -621.000; -574.000
887.265; -155.375; -685.000; -689.000
887.510; -145.325; -557.000; -496.000
887.755;  -93.225; -194.000; -164.000
887.999; -148.625; -552.000; -575.000
888.244;  -55.050;  -58.000;  161.000
888.488;    7.625;  371.000;  393.000
888.732; -126.575; -368.000; -520.000
888.977; -141.350; -622.000; -567.000
889.221; -168.025; -683.000; -659.000
889.465; -133.550; -422.000; -566.000
889.710;  -73.275;  -56.000; -299.000
889.954;   -7.575;  579.000;  467.000
890.198; -162.725; -584.000; -707.000
890.442; -163.800; -716.000; -712.000
890.687; -167.350; -800.000; -753.000
890.931; -110.475; -273.000; -210.000
891.175; -141.625; -502.000; -500.000
891.419;  -79.975; -105.000; -110.000
891.663; -104.475; -239.000; -112.000
891.907; -170.600; -801.000; -545.000
892.151; -203.575; -920.000; -815.000
892.395; -113.175; -274.000; -387.000
892.638;  -29.450;  408.000;  291.000
892.882; -186.225; -780.000; -867.000
893.126;    1.700;  758.000;  558.000
893.370; -101.850; -167.000; -168.000
893.614; -151.000; -714.000; -715.000
893.857; -111.050; -183.000; -197.000
894.101; -141.125; -527.000; -631.000
894.345;  -62.150;  300.000;  150.000
894.588;   12.825;  569.000;  380.000
894.832;  -83.275; -178.000;  -84.000
895.075;  -84.850;   15.000;  -92.000
895.319; -138.600; -552.000; -420.000
895.563; -121.400; -413.000; -353.000
895.806; -146.975; -628.000; -741.000
896.049;  -60.500; -576.000; -368.000
896.293;   75.900;  527.000;  405.000
896.536;  -90.600; -465.000; -468.000
896.779;  -70.575; -149.000;   -1.000
897.023; -153.975; -751.000; -714.000
897.266;  -31.475;  325.000;  269.000
897.509; -196.775; -900.000; -901.000
897.752;  -55.800;  149.000;  171.000
897.996; -187.675; -972.000; -864.000
898.239;  -58.800;  168.000;  102.000
898.482; -135.550; -431.000; -453.000
898.725;  -34.200;  101.000;   53.000
898.968; -155.700; -609.000; -744.000
899.211; -114.600; -513.000; -361.000
899.454; -134.750; -633.000; -539.000
899.697;  -65.750;   90.000;  -43.000
899.940; -163.700; -761.000; -757.000
900.182; -118.950; -335.000; -405.000
900.425;  -93.875; -150.000; -298.000
900.668;  -40.075;  491.000;  350.000
900.911; -122.000; -292.000; -345.000
901.154;  -54.775;  141.000;   -3.000
901.396; -140.725; -407.000; -412.000
901.639; -142.400; -430.000; -496.000
901.882; -183.900; -790.000; -809.000
902.124;  -85.875;  -29.000; -143.000
902.367; -113.650; -315.000; -361.000
902.609; -146.125; -476.000; -453.000
902.852;  -98.525; -108.000; -260.000
903.094; -131.275; -458.000; -337.000
903.337;  -65.025;  -26.000;   53.000
903.579; -108.875; -228.000; -441.000
903.821; -161.925; -597.000; -744.000
904.064;  -56.775;   85.000;  127.000
904.306;  -96.075; -126.000; -166.000
904.548; -113.300; -152.000; -366.000
904.790; -104.125; -195.000; -340.000
905.033; -142.700; -625.000; -577.000
905.275; -150.525; -513.000; -524.000
905.517;   23.300;  468.000;  256.000
905.759;  -75.800; -667.000; -761.000
906.001; -109.475; -322.000; -369.000
906.243;  -71.025; -162.000; -224.000
906.485;  118.000; -265.000; -207.000
906.727;   75.525; -499.000; -542.000
906.969;  -32.250;  -30.000; -135.000
907.211;  100.000; -316.000; -382.000
907.453;  251.600; -188.000; -237.000
907.695;  -16.925; -158.000; -385.000
907.936;   41.675;  818.000;  706.000
908.178;  -68.975;   92.000; -135.000
908.420;  -77.275; -111.000; -162.000
908.662; -142.625; -633.000; -682.000
908.903;  -89.150; -208.000; -123.000
909.145;  -65.725; -240.000; -305.000
909.386;    4.600;  315.000;  280.000
909.628;   30.625;  363.000;  397.000
909.870;    0.625;   29.000;  264.000
910.111;  -99.675; -809.000; -949.000
910.353;   11.625; -123.000; -161.000
910.594;    2.300; -574.000; -606.000
910.835;   67.675; -265.000; -326.000
911.077;  125.475; -503.000; -604.000
911.318;  267.300; -505.000; -471.000
911.559;  482.650; -577.000; -880.000
911.801; 1376.400; -284.000; -280.000
912.042;10709.525;  -50.000; -159.000
912.283;26799.925;  404.000;  371.000
912.524; 3924.675; -396.000; -457.000
912.765;  467.475; -193.000;   79.000
913.006;  217.900; -307.000; -338.000
913.247;   52.125; -270.000; -290.000
913.488;   -7.600;  -43.000;   30.000
913.729;  -88.800; -373.000; -373.000
913.970;  -82.925;  -96.000; -292.000
914.211;  -88.125; -160.000; -198.000
914.452;  -72.675; -118.000;  -11.000
914.693;    8.875;  510.000;  592.000
914.934;    4.750;  510.000;  440.000
915.175;  -69.400;   53.000;  -95.000
915.415;  -95.650; -137.000;   27.000
915.656;  -66.550;  -28.000;  192.000
915.897;  -98.200; -252.000;  -82.000
916.137;  -69.600;   74.000;   -9.000
916.378; -127.225; -573.000; -517.000
916.619;  -99.350; -159.000;  -63.000
916.859;  -32.750;  303.000;  330.000
917.100;  139.725; 1655.000; 1070.000
917.340;   51.950;  930.000;  728.000
917.581;   68.275;  965.000;  789.000
917.821;  -26.950; -171.000;  143.000
918.061;   -7.150; -199.000;  -72.000
918.302;  -65.600; -152.000; -211.000
918.542;  -36.300;  -22.000;    3.000
918.782;   25.250;  369.000;  377.000
919.023;  119.600;  360.000;  427.000
919.263; 1368.375; 8131.000;  202.000
919.503; 1054.725; -137.000;  -54.000
919.743;  586.700;  390.000;  266.000
919.983;  239.950; -134.000;  -26.000
920.223;   78.200;  135.000;   14.000
920.463;  141.725;  631.000;  554.000
920.703;  121.200;   84.000;   39.000
920.943;  150.900; -110.000;   90.000
921.183;  225.775; -414.000; -405.000
921.423;  523.000;  307.000;  546.000
921.663;  728.750; -174.000; -257.000
921.903; 1581.600;  237.000;  173.000
922.143; 9113.325;  372.000;  389.000
922.383;34425.800;  158.000;  115.000
922.622;11106.925; -120.000;  -15.000
922.862; 1198.675;  796.000;  785.000
923.102;  464.050;  -51.000;   33.000
923.341;  195.800;   59.000;   74.000
923.581;   94.950;  450.000;  360.000
923.821;   21.400;  301.000;  398.000
924.060;    3.625;  351.000;  193.000
924.300;  -66.950;  -16.000; -128.000
924.539;  -14.200;  584.000;  473.000
924.779;   13.225;  812.000;  597.000
925.018;  -56.225;  247.000;  353.000
925.257;    1.625;  595.000;  666.000
925.497;  -35.700;  447.000;  412.000
925.736;  -71.675;  -35.000;  102.000
925.975;   -1.425;  687.000;  669.000
926.214;   19.100;  907.000;  850.000
926.454;   23.875;  706.000;  757.000
926.693;  -34.150;  419.000;  543.000
926.932;   32.025; 1021.000;  825.000
927.171;   61.475; 1107.000; 1044.000
927.410;   50.150; 1144.000;  967.000
927.649;   13.150;  924.000;  742.000
927.888;  -20.550;  590.000;  564.000
928.127;  -18.800;  680.000;  678.000
928.366;   28.875;  842.000;  826.000
928.605;   27.275;  831.000;  737.000
928.844;  231.700; 1451.000; 1393.000
929.083;  586.500;  770.000;  613.000
929.321;  299.500; 1335.000; 1359.000
929.560;   85.450; 1158.000; 1122.000
929.799;  -27.725;  574.000;  475.000
930.038;   72.400; 1025.000; 1394.000
930.276;  -70.250;  334.000;  397.000
930.515;   -0.325;  827.000;  681.000
930.753;  -13.400;  614.000;  589.000
930.992;  -31.400;  664.000;  717.000
931.230;  -16.225;  847.000;  847.000
931.469;  185.250; 2162.000;  892.000
931.707;   49.575;  840.000;  751.000
931.946;   62.575; 1278.000; 1344.000
932.184;   61.950; 1437.000; 1175.000
932.423;   41.350; 1265.000;  963.000
932.661;   87.475; 1296.000; 1428.000
932.899;   28.275;  987.000;  821.000
933.137;   15.850;  754.000;  564.000
933.376;  127.950; 1664.000; 1335.000
933.614;  162.800; 1759.000; 1196.000
933.852;   47.075; 1357.000; 1171.000
934.090;  122.975; 1722.000; 1747.000
934.328;  105.475; 1252.000; 1457.000
934.566;   74.300; 1431.000; 1110.000
934.804;  138.850; 1263.000; 1309.000
935.042;  481.200; 1861.000; 1850.000
935.280; 1916.550; 2088.000; 2063.000
935.518; 1776.875; 2113.000; 2007.000
935.756;  365.000; 2481.000; 2316.000
935.994;  179.175; 1808.000; 1751.000
936.231;  333.300; 2890.000; 2950.000
936.469;  174.275; 2367.000; 2378.000
936.707;  170.700; 2220.000; 2167.000
936.945;  223.650; 2825.000; 2882.000
937.182;  215.700; 2679.000; 2741.000
937.420;  296.275; 3602.000; 3031.000
937.657;  400.125; 3365.000; 3478.000
937.895;  352.725; 3331.000; 3488.000
938.133;  310.875; 3540.000; 3528.000
938.370;  338.575; 3896.000; 4191.000
938.607;  416.125; 4488.000; 4205.000
938.845;  550.750; 5587.000; 5549.000
939.082;  475.375; 5387.000; 5177.000
939.320;  548.900; 5799.000; 5728.000
939.557;  659.575; 6549.000; 6491.000
939.794;  719.500; 7285.000; 7097.000
940.031;  903.025; 8421.000; 8368.000
940.269; 1112.700; 9552.000; 9107.000
940.506; 1139.150;10901.000;10507.000

