
Integration time [ms]: 100.000
Averaging Nr. [scans]: 40
Smoothing Nr. [pixels]: 0
Data measured with spectrometer [name]: 2101013U2
Wave   ;Sample   ;Dark     ;Reference
[nm]   ;[counts] ;[counts] ;[counts] 

394.013;   30.159; -450.257; -315.536
394.305;  196.632; -461.258; -419.536
394.596; 1113.853; -676.269; -527.514
394.887; 2711.995; -796.268; -654.518
395.178; 1045.426;  145.736;   11.476
395.470;   86.062; -210.263; -356.526
395.761;  188.660;  305.734;  394.479
396.052;  281.752; -545.284; -306.489
396.343;  292.323; -557.276; -454.503
396.634;  105.091; -200.279; -290.497
396.926;  115.142; -618.268; -565.517
397.217;   97.452;   11.725;  -17.504
397.508;   42.093; -366.273; -154.507
397.799;   62.066; -555.279; -571.497
398.090;   -3.365; -973.280; -902.495
398.381;  127.752;   11.708;  -11.473
398.672;    7.678; -585.292; -742.473
398.963;   59.072; -348.279; -373.498
399.254;   96.712;   54.709; -209.475
399.545;  -14.118;-1017.266; -883.520
399.836;   65.462; -407.277; -343.501
400.127;   50.628; -205.295; -209.468
400.418;   49.538; -423.274; -392.506
400.709;   54.198; -359.281; -333.493
401.000;   64.366; -268.291; -309.476
401.290;  122.214;  225.698;  115.545
401.581;   73.910; -166.286; -228.485
401.872;   31.675; -542.298; -486.462
402.163;   47.871; -313.296; -252.467
402.454;   89.888; -123.291; -163.475
402.744;   70.037; -844.297; -813.465
403.035;  428.018; -226.293;  -86.471
403.326;  548.906; -366.292; -384.474
403.617;  382.794;  204.701;  165.539
403.907;  252.533; -593.283; -679.490
404.198; 2415.918; -545.307; -599.446
404.489; 6244.713; -618.283; -588.491
404.779; 2091.018; -618.302; -660.456
405.070;  237.471;  -67.304; -174.451
405.360;  334.645; -259.293; -238.472
405.651;  369.929;  125.699;   98.542
405.942;  187.905;  209.714;  127.516
406.232;  244.745; -432.285; -413.487
406.523;  457.063;  641.706;  758.530
406.813;  106.182; -579.286; -644.484
407.104;  321.151;  261.708;  144.527
407.394;  184.196; -604.299; -591.462
407.685;  154.819;  336.715;  222.513
407.975;   72.637; -400.283; -382.490
408.265;  121.027; -134.289; -190.478
408.556;   71.560; -472.291; -459.475
408.846;  178.339;  474.706;  429.530
409.137;  102.736;   -1.288; -216.480
409.427;   43.970; -193.285; -271.487
409.717;   33.496; -776.273; -692.508
410.007;  143.013;    4.715; -170.486
410.298;  101.756; -360.295; -342.469
410.588;   62.892; -495.285; -510.486
410.878;   45.272; -792.287; -873.482
411.168;  112.727; -481.298; -478.463
411.459;  124.056; -295.283; -242.489
411.749;   70.808; -609.292; -507.474
412.039;   62.984; -755.289; -386.480
412.329;  204.079;   40.722;  132.501
412.619;  212.933;  -62.286; -148.485
412.909;  362.130;  639.711;  594.521
413.199;  326.136; -130.280; -251.495
413.490;  396.021;  521.710;  352.523
413.780;  146.440;-1013.279; -913.496
414.070;  330.349;  -46.276;  235.497
414.360;  360.976; -729.278; -666.498
414.650;  406.918; -726.288; -688.482
414.940;  534.464; -538.280; -441.496
415.230;  930.165;   50.712;   74.519
415.520; 6159.952;  155.730;   66.486
415.809;23977.622; -305.281; -125.493
416.099;18611.314; -388.277; -229.501
416.389; 5225.785;  435.726;  236.494
416.679; 3079.141;   91.738;   85.473
416.969;  543.727; -527.287; -503.483
417.259;  469.892;  341.721;  171.503
417.549;  692.971;  522.718;  318.508
417.838; 1653.969; -205.268; -147.518
418.128; 5493.176;  650.710;  492.522
418.418; 4599.603; -491.272; -579.509
418.708; 3123.210;    9.726;  -48.506
418.997;11634.381; -474.275; -480.505
419.287;12168.492; -733.273; -790.507
419.577;11557.306; -160.283; -123.489
419.866;37959.887; -588.277; -498.501
420.156;38806.273; -242.270;  -55.513
420.446; 7033.908; -112.263;  -26.526
420.735;  874.592; -376.271; -446.512
421.025;  851.600; 1830.722;  315.502
421.314;  671.090; -203.271; -226.512
421.604; 1374.262;   89.732;  233.484
421.893;  796.662; -705.271; -602.511
422.183;  230.608; -487.263; -461.526
422.472;  372.538;  -36.271; -107.511
422.762;  428.037; -416.266; -379.521
423.051;  249.899; -916.276; -916.503
423.341;  307.894; -491.273; -439.507
423.630;  420.343; -121.265;   15.477
423.919;  381.081;   58.725;   49.495
424.209;  365.289;  -31.263;   56.473
424.498;  500.017;   68.732;  161.483
424.787; 1081.473; -535.267; -601.518
425.077; 3357.617;   34.735;   29.478
425.366; 4707.794; -734.262; -744.528
425.655; 9877.895;  639.727;  259.493
425.945;21618.474; -313.247; -268.554
426.234;12054.792;  117.741;  300.467
426.523; 5060.947;  -86.259; -350.534
426.812; 6986.083;  107.734;  159.480
427.101;10264.159; -127.269; -323.515
427.390;12944.077;  -55.270;  -86.514
427.680; 2890.017; -624.257; -411.538
427.969;  478.303; -330.255; -301.540
428.258;  334.609; -385.257; -477.536
428.547;  515.057;  449.728;  397.490
428.836; 1224.394; -421.253; -398.543
429.125; 1779.299; -199.259;  -72.534
429.414;  802.717; -330.251; -294.548
429.703; 3136.667; -231.251; -213.548
429.992; 9360.721; -938.250; -828.549
430.281; 6113.751; -397.264; -331.524
430.570;  580.657;  -21.252;   32.454
430.859;  554.022;  279.741;  352.466
431.148;  445.220;  636.752;  631.446
431.437;  310.332;  391.748;  367.454
431.725;  147.885; -544.257; -481.536
432.014;  140.252; -845.253; -756.545
432.303;  409.921; -149.239; -105.569
432.592;  593.608; -460.263; -178.525
432.881; 1049.921; -601.248; -437.554
433.169; 6204.179; -343.255;  -61.540
433.458;12555.455;  445.765;  540.424
433.747; 5294.275; -397.261; -289.529
434.036;  888.647; -275.242; -280.564
434.324; 2088.333; -395.249; -379.551
434.613; 3623.565;   40.757;  159.437
434.902; 1198.411;  333.760;  439.433
435.190;  557.445;   75.761;  295.431
435.479;  296.747;  -52.245;   83.441
435.767;  102.705; -411.244; -427.561
436.056;  210.017; -340.242; -294.563
436.345;  366.113; -372.240; -223.568
436.633;  386.953;   60.750;  383.450
436.922;  265.565;  208.760;  414.432
437.210;  560.745; -194.236;    1.426
437.499; 1854.978; -583.235; -432.576
437.787; 2040.594; -339.236;  -10.574
438.075;  510.425;   56.761;  162.430
438.364;  699.628;  -44.238;  250.429
438.652;  425.358; -286.226; -138.592
438.941;  138.747;    3.770;  269.415
439.229;   16.830; -665.252; -466.545
439.517;   33.086; -160.234;  -85.577
439.806;   -2.401; -501.225; -290.595
440.094;  187.719;  377.766;  650.421
440.382;  183.623; -653.233; -302.580
440.670;  190.277; -361.235; -285.576
440.959;   34.541; -347.223; -170.599
441.247;   74.033; -151.229; -109.587
441.535;  104.785; -266.235;   31.423
441.823;   30.141; -497.234; -305.578
442.111;  188.087;  173.771;  327.412
442.400;  513.596; -628.245; -335.559
442.688; 1336.943; -111.234; -620.579
442.976;  942.929; -786.213; -450.617
443.264;   83.880; -324.224; -364.597
443.552;  112.459; -258.226;   51.408
443.840;  160.808;  602.765;  876.423
444.128;  108.897;  265.767;  269.420
444.416;    5.465; -694.228; -312.588
444.704;   28.996; -465.219;  -92.605
444.992;   80.312;   -0.226;  240.407
445.280;   55.272; -517.230;  -94.585
445.568;   63.983; -694.212; -396.618
445.856;  336.205; -174.221;  357.398
446.143;  718.192;  -54.220;   -7.604
446.431;  634.919;  -25.228;  625.411
446.719;  245.540;  489.783;  675.391
447.007;  179.992;  481.769;  705.416
447.295;  191.638;  597.777;  871.402
447.583;   91.456; -464.229;  -34.587
447.870;  144.177; -434.221; -202.601
448.158;  399.921; -104.230;  129.415
448.446;  308.243; -800.219; -338.604
448.733;  178.932;   13.776;  269.403
449.021;  257.157;   60.788;  341.382
449.309;  182.347; -296.210;  208.379
449.596;  216.011;  128.783;   59.392
449.884;  151.595; -571.222; -325.600
450.172;  172.249; -756.227; -406.590
450.459;  446.612;  645.786;  780.387
450.747; 2408.135; -411.218; -147.608
451.034; 7640.795;  493.772;  889.411
451.322; 6330.240; -413.214; -170.614
451.609;  537.408;  292.777;  508.403
451.897;  581.661; -550.203; -183.634
452.184; 1804.188; -622.223; -400.598
452.472; 1685.919;   97.792;  269.375
452.759;  339.594;  512.781;  864.395
453.047;  103.855; -407.212; -125.617
453.334;   73.077; -732.219; -216.606
453.621;   78.468; -438.214; -161.615
453.909;  116.828;   13.796;  384.368
454.196;  111.573; -299.199; -123.641
454.483;  193.024;  317.798;  540.364
454.771;  129.147; -215.208;  196.374
455.058;   39.150; -316.207;  102.374
455.345;  117.353;   71.807;  344.347
455.632;   91.053; -128.207;  235.373
455.919;   51.521;  -82.196;  182.354
456.207;  -58.672; -774.198; -450.642
456.494;  -10.389; -475.200;  -66.639
456.781;   -1.756; -399.202; -198.635
457.068;   46.160; -253.206;  -29.628
457.355;  -22.314; -698.206; -401.629
457.642;   -4.808; -552.205; -290.630
457.929;   -1.030; -778.194; -417.651
458.216;   66.855; -575.212; -354.617
458.503;  237.274; -173.193;  -19.652
458.790;  240.370; -864.208; -630.625
459.077;  263.499;  -77.202;  110.364
459.364;  813.587; -350.195; -210.649
459.651; 1668.283;  -46.206;  220.372
459.938;  786.210; -864.209; -665.623
460.225;  145.677;  132.799;  276.363
460.512;  -56.482; -836.197; -688.645
460.799;  106.334;  -32.218;  320.392
461.086;   79.715; -370.200; -251.640
461.372;   29.653; -509.198; -279.642
461.659;  106.697; -165.196;  108.354
461.946;   59.698; -445.193;  -54.651
462.233;  238.038;  842.800;  888.361
462.519;  341.860; -814.201; -464.639
462.806; 1022.743; -768.197; -497.645
463.093;  870.344; -445.191;  -66.656
463.380;  -24.115; -920.186; -824.664
463.666;   42.495; -259.197;  -18.646
463.953;  107.082; -406.195; -243.648
464.239;  210.782; -173.195;  -77.648
464.526;  375.143;  413.806;  743.350
464.813;  321.105; -565.190; -304.658
465.099;  348.299;  606.807;  607.348
465.386;  335.753;  903.807;  921.348
465.672;   16.369; -694.197; -522.645
465.959;   22.198; -598.188; -520.662
466.245;   21.003; -468.193; -359.652
466.532;   88.780; -109.195;   63.352
466.818;   58.385; -357.186; -216.664
467.104;   -9.700; -488.182; -415.672
467.391;  -27.268; -628.189; -459.658
467.677;   37.613; -289.186;    9.335
467.964;   15.289; -682.189; -471.660
468.250;   49.541; -331.186; -160.665
468.536;   85.758;   90.811;  180.341
468.822;  -18.472; -821.184; -574.668
469.109;  144.581;  351.827;  471.311
469.395;  192.938;  729.808;  787.346
469.681;  212.861;   46.811;  156.341
469.967; 1253.991; -699.188; -382.660
470.254; 2698.549; -494.188; -306.662
470.540; 1716.846; -601.196; -476.646
470.826;  266.411; -488.181; -397.675
471.112;  288.356;  288.816;  113.331
471.398;   98.111; -253.183;  -58.670
471.684;   42.989; -626.177; -447.680
471.970;   -3.535; -918.180; -981.675
472.256;   35.262; -521.192; -441.654
472.542;    9.267; -499.171; -434.691
472.828;   17.896; -743.182; -607.672
473.114;   30.986; -380.166; -283.700
473.400;   20.656; -504.175; -293.684
473.686;   30.767; -452.166; -400.701
473.972;   62.946; -230.174; -131.687
474.258;  -44.094; -925.173; -843.689
474.544;  182.606; -183.178;   -2.679
474.830;  326.358;  -65.175;   45.316
475.116;  490.732; -123.190; -196.658
475.401;  659.267; -558.180; -467.676
475.687;  189.966; -725.180; -718.676
475.973;    1.954; -673.181; -770.673
476.259;  241.760;  736.825;  764.315
476.544;  356.698; -539.176; -437.682
476.830;  800.038; -398.172; -322.690
477.116;  724.071; -430.177; -336.682
477.401;  153.342;  346.820;  358.324
477.687;  -13.119; -289.175; -405.684
477.973;   43.657;   21.819;   28.326
478.258;   -7.088; -448.163; -348.706
478.544;   47.646;   21.815;   61.334
478.829;  -56.703; -818.171; -738.692
479.115;  -44.712; -749.172; -651.690
479.401;  -10.109; -444.174; -449.686
479.686;   32.991; -253.180;  -74.676
479.972;  -42.814; -886.178; -776.680
480.257;   42.762; -258.166;  -65.700
480.542;    2.151; -614.170; -469.693
480.828;  231.454; 1288.824; 1392.317
481.113;  -22.748; -464.176; -426.683
481.399;  -11.389; -236.161; -202.711
481.684;  -51.614; -620.166; -462.700
481.969;   21.050; -158.159;  -73.713
482.255;   -1.663; -439.169; -285.695
482.540;    2.137; -569.178; -441.680
482.825;    3.530; -395.187; -404.663
483.110;  101.315;  -85.169; -105.696
483.396;  196.821; -840.157; -652.718
483.681;  483.596;  543.826;  730.313
483.966;  157.894; -696.160; -700.712
484.251;   -1.305; -404.174; -310.687
484.536;    1.697; -356.165; -378.703
484.822;   11.523; -205.173; -218.687
485.107;  -34.615; -599.152; -502.726
485.392;  123.653;  662.836;  541.296
485.677;   87.900;  354.832;  163.302
485.962;  111.644;  160.843;  270.283
486.247;   87.995;  -14.162;   -8.707
486.532;   36.588; -178.166; -325.701
486.817;  157.281;  381.839;  431.291
487.102;   97.093; -453.154; -514.722
487.387;  681.823; -637.156; -652.718
487.672; 1160.933; -154.164;  -38.705
487.957;  740.163; -394.160; -286.711
488.241;  216.326; -290.150; -314.729
488.526;  734.686; -280.152; -148.726
488.811; 1194.489; -881.177; -818.680
489.096;  896.445; -666.154; -702.723
489.381;  494.482;    3.847;  162.275
489.666;  391.361; -428.161; -510.710
489.950;  179.698;  558.846;  627.277
490.235;  -31.104; -480.151; -458.728
490.520;  -51.890; -756.161; -723.710
490.804;  -59.275; -827.156; -736.719
491.089;   11.192; -469.149; -299.732
491.374;   27.532; -132.164;  -75.704
491.658;   -6.796; -817.147; -717.735
491.943;  165.165; -657.152; -609.727
492.227;  255.638; -178.155;  -38.721
492.512;   51.118; -294.157; -341.717
492.797;  -72.489; -713.149; -716.731
493.081;  -44.844; -588.147; -598.735
493.366;  -35.488; -751.161; -635.711
493.650;  211.435;  831.859;  917.254
493.935;   30.728; -648.147; -447.734
494.219;  -20.903; -778.142; -687.743
494.503;  -45.919; -585.150; -487.730
494.788;   49.285;   46.842;   74.285
495.072;  102.953;  184.850;  434.271
495.356;  160.720; -463.148; -343.733
495.641;  454.613; -812.146; -736.736
495.925;  433.430; -976.156; -903.719
496.209;   43.192; -599.149; -451.732
496.494;  -36.777; -763.142; -544.744
496.778;    0.593; -364.154; -360.722
497.062;  -44.795; -819.156; -627.719
497.346;  -31.885; -869.160; -640.711
497.631;  151.524;  580.852;  560.266
497.915;   83.774;  -64.145;  175.261
498.199;   54.896; -341.157; -277.718
498.483;   45.134; -562.152; -508.725
498.767;  196.354;  301.850;  300.271
499.051;  182.464; -126.149; -100.732
499.335;   32.112; -693.149; -739.731
499.619;  -43.614; -381.129; -423.767
499.903;   26.062; -272.155;  -65.721
500.187;   25.975; -588.153; -316.724
500.471;   21.465; -796.152; -595.727
500.755;  102.710;   62.839;  -96.710
501.039;   30.063; -270.155; -357.721
501.323;   85.987;  -21.141;  264.254
501.607;   32.863; -447.163; -503.706
501.891;    4.848; -607.156; -512.718
502.174;  -32.365; -726.144; -585.741
502.458;   66.394;   89.849;  370.273
502.742;   41.735; -180.138; -191.751
503.026;  111.053; -412.147; -254.734
503.310;  186.099; -437.159; -375.713
503.593;  122.954; -464.147; -325.735
503.877;  124.776; -232.133; -156.760
504.161;  181.227;    2.847;  -50.724
504.444;  140.337; -841.158; -710.716
504.728;  467.306; -487.164; -522.704
505.012;  707.926; -257.150;  -76.729
505.295;  538.586; -417.161; -212.711
505.579;  526.355; -256.156; -496.719
505.862;  731.420; -555.145; -333.738
506.146;  735.826; -681.159; -758.714
506.429;  414.352;  568.841;  461.286
506.713;   72.273; -732.151; -667.728
506.996;  337.992;   90.846;  295.278
507.280;  347.976; -633.165; -474.703
507.563;  243.011; -469.155; -261.721
507.847;  107.251; -423.153; -112.724
508.130;   94.037; -665.161; -456.711
508.413;  138.433; -758.167; -577.700
508.697;  246.858; -151.167;   12.300
508.980;  165.602; -422.153; -312.724
509.263;    9.182; -466.155; -450.720
509.547;   56.525; -124.150;   82.271
509.830;   51.289; -172.160;  140.289
510.113;   84.354;  128.844;  298.281
510.396;   32.833; -530.152; -300.725
510.680;  146.121; -818.145; -812.738
510.963;  615.947;  184.846;  180.277
511.246;  512.433; -493.150; -357.730
511.529;  247.801; -482.145;  -83.739
511.812;  380.372; -250.134;   10.241
512.095;  263.320; -740.151; -396.728
512.378;   64.358; -317.147; -245.736
512.661;   16.468; -703.137; -623.753
512.944;   21.424; -750.142; -637.744
513.227;   61.065; -170.137; -171.752
513.510;   17.885; -479.144; -671.741
513.793;   38.841; -485.140; -435.747
514.076;  126.057;  -43.127;  -39.771
514.359;  104.318; -294.149; -135.732
514.642;   88.402; -442.142; -567.744
514.925;  760.539;  581.860;  561.253
515.208; 1000.494; -498.134; -443.758
515.491;  662.083; -276.133; -182.761
515.773;  370.938; -410.143; -337.742
516.056; 2071.349;  249.864;  409.246
516.339; 2830.103; -754.136; -652.755
516.622; 1890.106; -518.150; -488.730
516.904; 1214.220;  882.857;  975.257
517.187;  568.364; -730.138; -523.752
517.470;  401.544; -568.143; -510.743
517.752;  421.931; -624.136; -470.756
518.035;  379.651; -708.139; -725.749
518.318;  373.054; -799.136; -744.755
518.600; 2431.836; -300.132; -325.762
518.883; 3356.476;  310.858;   88.256
519.165; 1619.382; -585.138; -426.751
519.448;  387.711;  -61.132;  -19.762
519.730;  191.390; -573.126; -415.773
520.013;  304.729;  588.867;  664.240
520.295;  827.899;  -94.134;  -15.759
520.578; 1817.824; -335.131; -305.764
520.860; 2074.336; -254.132;   56.238
521.143; 1089.708; -763.135; -584.756
521.425;  463.177; -251.125; -279.775
521.707;  684.432; -622.127; -380.771
521.990; 1779.233; -199.127;  167.229
522.272; 2019.543; -116.140;   -4.748
522.554;  931.164; -237.143; -157.742
522.836;  361.197;  -24.134;   99.241
523.119;  224.351; -496.148; -189.734
523.401;  142.881; -448.130; -314.766
523.683;   93.244; -865.137; -693.753
523.965;  295.137;  408.862;  260.248
524.247;  276.099;   54.878;  170.220
524.529;  202.774; -451.134; -367.759
524.812;  351.358;   -3.130;  191.234
525.094;  851.236; -773.138; -631.751
525.376; 1359.237; -143.124;   78.223
525.658;  823.626; -441.136; -339.754
525.940;   52.196; -805.131; -671.764
526.222;   31.104; -188.136;  -88.755
526.504;  107.368; -190.131;   32.237
526.786;  160.601; -960.133; -647.760
527.068;  307.092; -124.123;  -67.778
527.349;  121.472; -865.137; -774.754
527.631;  144.011; -137.132;   22.238
527.913;  145.482; -664.127; -450.771
528.195;  167.720; -761.125; -639.774
528.477;  262.169;  -93.134;  -30.758
528.759;  143.508; -648.130; -522.766
529.040;   56.291; -569.123; -293.778
529.322;   63.548; -235.125;  -10.774
529.604;  147.010;  -47.130;   93.233
529.886;  141.489; -546.126; -302.773
530.167;  127.301;  232.870;  192.235
530.449;   48.883;    1.853;   63.265
530.731;   39.423; -572.122; -459.779
531.012;   61.019; -513.120; -216.784
531.294;   77.658; -118.116;  -43.792
531.575;  147.552;  290.875;  538.225
531.857;   65.839; -548.135; -266.757
532.138;   91.985; -113.141;   40.254
532.420;  164.785;  294.865;  403.244
532.701;  212.754; -722.133; -751.760
532.983;  352.807;  232.867;  182.239
533.264;  109.337; -243.126;  175.228
533.546;  -27.996; -491.136; -508.755
533.827;   55.100;  173.867;   -1.759
534.109;   33.439; -352.135;  -80.757
534.390;   96.965; -725.132; -582.762
534.671;  240.485; -270.135;  -82.756
534.953;  127.294; -751.123; -611.779
535.234;   21.168; -426.117; -255.789
535.515;  -56.873; -891.119; -735.785
535.796;  -32.972; -431.128; -193.770
536.078; -126.889;-1050.124; -904.777
536.359;    2.669;  -22.123;    3.221
536.640;   -0.503; -480.125; -197.774
536.921;  165.815;  225.871;  143.232
537.202;  382.133;  -87.138;  -16.751
537.483;  457.198;  251.869;  377.236
537.764;  177.277;   17.870;   98.235
538.045;  -36.482; -543.134; -371.758
538.326;  -34.258; -596.129; -447.768
538.607;    5.458; -686.127; -476.771
538.888;  183.510;   98.879;    5.218
539.169;  185.779; -704.122; -535.781
539.450;  340.314;  236.871;   16.233
539.731;  224.864; -361.121; -182.783
540.012;  135.019;  199.880;  412.216
540.293;   87.331;   82.876;  158.224
540.574;    9.904; -895.113; -717.796
540.855;  450.487;  435.879;  377.218
541.136;  521.602;   47.878;  139.220
541.416;  271.633; -161.130; -220.766
541.697;  207.069; -274.131; -170.763
541.978; 1053.187; -270.135; -315.757
542.259; 1348.858; -211.127; -236.771
542.539;  631.802; -191.116; -186.790
542.820;  184.477;  461.875;  480.225
543.101;  129.723;  -52.145;  -77.738
543.381;   36.908; -638.127; -591.771
543.662;  276.230;  159.873; -254.771
543.942;  589.029; -751.127; -830.770
544.223; 1078.528;  193.878;  161.219
544.504;  681.061; -275.124; -182.777
544.784;  581.239; -592.126; -408.773
545.065; 1645.980;  104.884; -254.791
545.345; 1953.927;  227.881;   14.215
545.626; 1290.703;  -14.113; -108.796
545.906;  892.151;   77.869;   98.235
546.186;  350.544;   92.874;  -95.773
546.467;  208.739;   99.877;  -95.778
546.747;  343.326;  264.884;  327.210
547.027;  371.435;   91.876;  111.223
547.308;  325.203; -376.127; -530.770
547.588;  388.343;  299.871;  371.232
547.868;  210.902;  458.870;  588.235
548.149;  187.388;  609.885;  593.207
548.429;  143.706; -347.127; -299.771
548.709;  185.993; -645.120; -461.784
548.989;  482.737;   84.882;   88.213
549.269; 2120.459;   10.868;  139.239
549.550; 4833.793;  215.877;  117.222
549.830; 4338.946; -758.111; -556.799
550.110;  874.703; -468.110; -320.801
550.390;  825.998; -128.122;  -56.779
550.670; 1137.574; -868.114; -783.795
550.950;  785.987; -509.121; -471.782
551.230;  190.708;  549.879;  460.218
551.510;   -9.439; -381.121; -326.782
551.790;   44.361; -173.109; -127.803
552.070;  259.563;  940.877; 1181.223
552.350;  389.506; -492.119; -377.786
552.630;  575.156;   -2.121;   77.219
552.909;  308.806;  181.884;   73.209
553.189;  238.416;  -49.132;   33.237
553.469;  193.731; -703.119; -514.786
553.749;  193.259; -469.127; -357.772
554.029;  171.222;   33.883;  -24.790
554.308;  149.767; -154.115;  -37.794
554.588;   76.602; -196.128; -204.770
554.868;   59.088; -366.121;  -47.782
555.147;  150.439; -114.115;  -46.793
555.427;  607.883; -260.116; -250.792
555.707; 3873.587; -284.115; -200.793
555.986; 4718.124; -719.111; -538.800
556.266; 2503.550;   23.884;   72.210
556.546;  116.036; -888.121; -675.782
556.825;  257.521; -657.114; -556.794
557.105; 1781.649; -125.128;   17.230
557.384; 2105.705;  122.884;  187.209
557.664;  821.833; -717.116; -508.792
557.943;  137.687; -557.121; -411.782
558.222;  172.090; -345.118; -344.788
558.502;  274.691; -116.115;  -76.793
558.781;  491.536;  194.885;  499.208
559.061;  406.215; -232.118; -227.788
559.340;  294.145;  302.883;  353.211
559.619;  694.650;   93.884;  148.210
559.899; 1037.071; -239.117; -266.789
560.178;  936.640; -778.115; -593.793
560.457; 3171.973; -623.117; -562.790
560.736; 4382.450; -472.111; -482.800
561.015; 2925.022; -500.128; -502.769
561.295;  399.906;  180.893;  215.193
561.574;  354.563;  119.885;  116.207
561.853;  520.015;  274.891;  303.197
562.132;  481.893;  -45.114;  182.206
562.411;  448.481;  396.879;  553.219
562.690;  140.186; -592.115; -458.792
562.969;  151.110;  472.888;  630.203
563.248;  487.629; 2966.878; 2487.219
563.527;  264.875; -290.111; -408.800
563.806;  369.456; -650.127; -521.771
564.085;  428.271; -297.105; -206.810
564.364;  239.875; -594.117; -405.790
564.643;  517.357; -276.121; -223.781
564.922; 1843.834;  221.890;  397.198
565.201; 1904.288; -640.109; -700.803
565.479;  824.010; -297.115; -219.792
565.758;  337.075; -810.128; -712.770
566.037;  479.539; -155.109; -100.803
566.316;  246.230; -286.116;  -28.791
566.595;   40.962;  -17.115;  -12.793
566.873;   80.577; -166.111;  -79.801
567.152;  -57.541; -490.113; -590.797
567.431;   10.051; -113.116;    6.210
567.709;   17.256; -344.107; -212.807
567.988;  267.896; -810.114; -769.794
568.266;  543.637; -160.115;  -68.793
568.545;  376.868; -644.100; -514.819
568.824;  574.959;  160.885;  356.208
569.102;  543.521; -351.114; -235.794
569.381;  232.233; -492.116; -407.792
569.659;  -44.169; -553.113; -553.796
569.938;   36.352; -743.122; -465.780
570.216;  115.217; -225.109; -225.804
570.494;  -21.851; -632.114; -572.795
570.773;   26.010;  202.879;  114.218
571.051;   10.816; -373.123; -357.778
571.330;   72.078; -221.113; -174.796
571.608;   50.736; -181.098; -173.823
571.886;  -62.956; -671.111; -581.799
572.164;  -55.662; -739.121; -621.782
572.443;  -41.025; -562.105; -512.811
572.721;  -28.002; -399.117; -289.790
572.999;  -13.808; -280.117; -168.788
573.277;   90.368;  379.894;  620.191
573.555;  307.746;   94.894;   37.190
573.834; 1354.716;  -86.117; -114.788
574.112; 1575.084;  880.893;  811.193
574.390;  481.601; -143.111;  -96.801
574.668;    2.736;  -91.112;  -61.797
574.946;   -6.854; -165.106; -187.810
575.224;   20.888;   71.891;  -16.803
575.502;  -25.872; -200.116; -204.791
575.780;  -76.313; -767.112; -829.798
576.058;  195.975; 1589.889; 1004.200
576.336;  -13.070; -210.110; -129.801
576.614;  -45.863; -511.112; -340.798
576.891;   53.867; -711.115; -823.794
577.169;  481.525; -158.108; -285.805
577.447;  583.308;  169.893;  202.193
577.725;  269.441;  629.888;  854.201
578.003;   19.314;  -71.112; -371.798
578.280;   98.359; -208.104; -242.812
578.558;   64.016; -450.115; -422.793
578.836;  120.249; -210.114; -145.795
579.114;   46.460; -630.112; -670.797
579.391;   58.268;   -6.117;  -18.789
579.669;  -80.332; -595.114; -704.794
579.947;  186.530; -326.107; -127.806
580.224;  322.705; -692.107; -524.806
580.502;  309.709;  127.893;   76.193
580.779;   32.574;  -42.117;   75.210
581.057;  -72.558; -584.109; -470.804
581.334;  -89.801; -726.102; -695.815
581.612;   38.197;   54.895;  511.190
581.889;  -20.463;  -83.101; -129.818
582.167;  -29.974; -298.099; -190.821
582.444;  -93.618; -845.102; -814.817
582.721;  107.957;  657.899;  715.183
582.999;   61.574; -326.100; -167.821
583.276;  529.096; -812.123; -713.779
583.553;  728.302; -364.102; -294.816
583.831;  240.431; -607.104; -631.812
584.108;   57.348;  349.892;  174.195
584.385;    7.873; -122.102;  -98.815
584.662;  -62.648; -651.111; -828.801
584.940;   29.276;  204.889;  204.199
585.217;  -22.395;  -73.113; -303.796
585.494;   38.360;   71.890;  118.198
585.771;  213.193; -250.109; -354.804
586.048;  503.580; -196.113;  -76.796
586.325;  312.055; -721.110; -773.801
586.602;   76.609;  230.896;  213.188
586.879;  -17.780; -499.100; -580.820
587.156;   57.922; -156.105; -331.810
587.433;  -36.370; -701.102; -667.817
587.710;   71.137;  152.888;  234.202
587.987;  299.478; -264.105; -236.811
588.264;  802.514;  315.888;  387.202
588.541; 1351.962;  -61.104;   26.187
588.818; 2649.270;   72.892;  171.196
589.095; 2298.557; -163.104; -174.812
589.371;  371.141; -459.109; -414.804
589.648;    5.484; -581.107; -437.807
589.925;   42.100; -517.114; -621.795
590.202;   17.512; -741.112; -607.798
590.478;   82.654; -166.105;  -73.811
590.755;  258.601; -241.108; -132.806
591.032; 2490.232; -741.110; -699.802
591.308; 3424.276; -732.094; -790.831
591.585; 1761.131; -573.110; -560.802
591.862;  140.381;-1056.102; -950.817
592.138;   61.524; -475.108; -474.805
592.415;  140.360; -486.104; -495.813
592.691; 1466.908;  460.896;  518.188
592.968; 1856.488; -208.098; -123.824
593.244;  915.651; -695.116; -595.790
593.521;   59.531; -105.102;  -42.817
593.797;  -17.651; -810.122; -720.780
594.074;  329.026; -611.096; -588.826
594.350;  636.337;  828.905;  729.172
594.626;  307.902; -303.111; -283.801
594.903;  108.332; -643.101; -645.817
595.179;  192.589;  243.896;  418.187
595.455;   21.135; -136.107; -150.807
595.731;   -8.635;  -19.103;  -38.814
596.008;  -33.154; -464.111; -434.800
596.284;   31.848; -187.100; -242.820
596.560;   51.533; -501.093; -493.833
596.836;  190.299; -173.105;  -70.810
597.112;  348.199; -582.108; -437.805
597.388;  301.449;  -49.097;  -48.826
597.665;  114.208;  437.887;  530.203
597.941;  -53.488; -572.089; -658.839
598.217;   -6.490; -323.110; -293.802
598.493;  279.944;   61.891; -204.804
598.769;  511.567; -175.100;  -50.819
599.045;  299.002; -490.108; -562.806
599.321;   58.472; -193.100; -261.820
599.597;  151.119; -355.109; -476.804
599.872;  500.612;  409.896;  429.187
600.148;  375.175;  -61.097; -172.826
600.424;  286.507;   91.893;  202.193
600.700;  256.584; -170.107; -280.807
600.976;  123.444; -442.097; -464.825
601.252;  244.840; -226.109; -272.803
601.527;  220.938; -833.104; -840.813
601.803;  149.555; -453.105; -404.812
602.079;  182.892; -124.100; -118.819
602.354;  567.118; -620.092; -531.835
602.630;  826.480; -140.113; -482.796
602.906; 2287.937; -910.101; -863.818
603.181; 6702.281; -627.119; -534.786
603.457; 5650.523;   98.903; -278.826
603.733;  849.564; -605.120; -626.783
604.008;  973.146; -245.106; -164.810
604.284; 3057.633; -636.101; -580.817
604.559; 2628.891;   -3.112;  -42.799
604.835;  480.274; -163.105; -225.810
605.110;  420.127; -732.099; -892.821
605.385;  697.735;  224.907;  267.167
605.661;  642.265; -625.095; -729.829
605.936; 1160.528; -664.108; -737.806
606.211;  992.197;  -17.103; -170.815
606.487;  205.970; -329.114; -376.794
606.762;   38.131; -791.119; -745.786
607.037;  -34.601; -501.105; -433.810
607.313;  -45.567; -589.096; -574.828
607.588;  -13.504; -375.106; -137.810
607.863;   28.862;  -28.101; -143.818
608.138;  171.109;  513.890;  516.198
608.413;   21.381; -576.099; -592.822
608.688;   41.899; -203.108; -267.805
608.964;  212.290; -509.106; -218.809
609.239;  232.072; -107.105; -212.810
609.514;  240.655;  281.895;  240.188
609.789;  647.134; -187.104; -716.812
610.064;  871.882; -435.096; -609.827
610.339;  879.441; -855.109; -799.804
610.614; 1173.547; -131.100; -315.820
610.889;  670.305;  215.895;  107.188
611.163;   33.031; -407.104; -591.812
611.438;   91.921;   81.886; -167.794
611.713;    8.233; -467.101; -499.817
611.988;   50.886; -144.101; -328.818
612.263;  -10.976; -771.102; -717.815
612.538;  206.130;  385.887;  251.204
612.812;  171.798; -832.100; -911.820
613.087;  133.561; -358.098; -338.823
613.362;  -52.215; -497.107; -557.807
613.637;   29.343;  261.897;  138.186
613.911;  -15.607; -256.092; -345.835
614.186;  132.408; -249.107; -292.807
614.460;  680.087; -842.081; -758.854
614.735;  782.085;  -55.087;  -17.843
615.010;  161.650;   43.912;  -82.841
615.284;  263.548;  360.892;  246.195
615.559;  364.242; -792.092; -955.835
615.833;  289.054;  -76.099;  -87.822
616.108;   -2.346; -225.090; -390.837
616.382;  139.062;  274.913;  402.156
616.656;  158.904; -241.090; -232.837
616.931;  497.379; -785.099; -700.822
617.205; 1086.913; -973.104; -979.813
617.480;  943.750;  -91.125;    6.225
617.754;  173.223; -396.125; -128.774
618.028;   11.293; -369.129; -382.768
618.302;   71.172;   73.892;  -25.805
618.577;  -57.106; -371.103; -518.815
618.851;  -57.338; -399.109; -600.803
619.125;  -42.976; -335.134; -378.759
619.399;  -44.087; -244.104; -374.813
619.673;  -50.191; -330.115; -515.792
619.947;  -34.451; -333.114; -448.795
620.222;  -16.897; -198.110; -204.801
620.496;    0.912;  -47.121;  -96.782
620.770;   13.229; -187.122;  -93.781
621.044;  198.022;  323.895;  346.190
621.318;  717.440; -653.120; -614.783
621.592;  656.313; -430.121; -409.783
621.866;  345.817; -476.112; -572.799
622.140;   24.703; -207.116; -356.791
622.413;   47.246;  138.889;  112.200
622.687;  -41.641; -746.101; -492.817
622.961;    2.047; -130.108; -143.805
623.235;  -56.503; -633.111; -661.800
623.509; -101.521; -816.105; -848.811
623.783;   -3.094;  -12.107;   48.193
624.056;  -24.509; -254.120; -280.783
624.330;   45.661;   63.888;   -3.797
624.604;   49.950; -271.116; -355.790
624.877;   64.008;  180.890;   26.198
625.151;   28.218; -249.114; -238.794
625.425;  -40.710; -150.103; -283.814
625.698;  -48.599; -367.119; -374.785
625.972;  -88.490; -799.110; -765.802
626.245;   77.526;  685.884;  484.210
626.519;  -57.630; -426.120; -340.784
626.792;  -27.341; -192.107; -380.807
627.066;  -93.178; -485.122; -662.779
627.339; -108.194; -736.110; -663.802
627.613;   39.494;  351.880;  148.216
627.886;   58.187;  187.891; -612.803
628.160;    0.440;  312.880; -161.783
628.433;  -91.297; -695.125; -703.775
628.706;  -81.080; -517.120; -615.784
628.979;   29.485;  296.876;  117.223
629.253;  -94.220; -785.119; -833.786
629.526;  360.288; -334.126; -253.772
629.799;  327.392; -641.123; -479.778
630.072;  161.245; -497.128; -516.769
630.346;  -56.699;-1115.116;-1080.790
630.619;  436.185; -467.107; -545.808
630.892;  601.223;  709.889;  593.200
631.165;  341.013;  790.896;  679.187
631.438;  -79.936;-1092.112;-1055.798
631.711;   53.495;  453.877;  257.221
631.984;  -50.653; -523.117; -624.789
632.257;  -72.382; -636.117; -681.789
632.530;  -51.849; -412.119; -433.785
632.803;   22.066; -109.115;    7.207
633.076;  -60.562; -360.123; -422.777
633.349;    7.374;  173.872;  121.231
633.622;  -25.475; -187.119; -240.785
633.895; -138.209; -903.120; -823.783
634.167;  -78.960; -496.126; -525.773
634.440;  -13.417;  -19.116; -137.792
634.713;   -9.896;  -22.119; -120.786
634.986;   81.839;  593.871;  453.233
635.258;  -81.560; -507.115; -597.793
635.531;   87.339;  742.882; -343.788
635.804;  -31.255; -303.117; -318.789
636.077; -102.621; -830.116; -852.791
636.349;   -2.862; -586.115; -474.793
636.622;  390.887; 1695.874; 1392.228
636.894;  239.346; -474.120; -909.784
637.167;  154.981; -836.127; -789.771
637.439;   26.527; -278.128; -213.770
637.712;  -50.686; -312.126; -293.772
637.984;  -79.595; -635.116; -707.791
638.257;  385.064;  515.877;  488.222
638.529;  557.954; -881.125; -924.776
638.802;  269.470; -508.128; -449.769
639.074; -117.822; -927.122; -952.781
639.346; -117.885; -942.135; -930.757
639.619;    3.675;  -79.142; -319.744
639.891;   -1.303;  -83.122; -168.779
640.163;  -82.401; -689.122; -756.780
640.435;   38.851;  273.878;  103.220
640.708;   -2.698;  -72.122; -132.780
640.980;  -20.046; -366.122; -362.781
641.252;  180.356;  -25.121;  -71.781
641.524; 1789.608;  580.879;  573.219
641.796; 1801.860;-1094.121; -907.782
642.068;  314.437; -191.121; -300.782
642.340;  -53.762; -486.121; -566.783
642.613;   42.615;  294.880;  323.217
642.885;  -96.033; -787.120; -878.783
643.157;  -45.806; -810.120; -658.784
643.428;   52.921;  170.880;  218.216
643.700;  -65.528; -498.120; -425.784
643.972;  -26.701;  -16.119; -133.785
644.244;  -96.899; -474.119; -559.785
644.516;  -46.947; -250.119; -114.786
644.788;   56.830;  662.881;  548.214
645.060;  -18.768;  -12.119; -124.786
645.332;  -97.542; -525.118; -535.787
645.603;   29.360;  479.882;  342.213
645.875;  -73.813; -334.118; -369.787
646.147;  156.414; 1487.882; 1242.212
646.418;  -59.084; -931.117; -918.788
646.690;  127.943; -714.117; -715.789
646.962;   15.269; -413.117; -451.789
647.233;   -9.404;   15.883;   11.211
647.505; -110.277; -595.117; -475.790
647.776;   26.150;  328.884;  229.210
648.048;  -10.548; -248.116; -418.790
648.320;  -63.221; -752.116; -679.791
648.591; -159.420;-1055.116; -958.791
648.862;  -79.718; -505.116; -577.792
649.134;    7.934;  115.885;  198.208
649.405;  -41.839; -661.115; -618.792
649.677;  -52.412; -475.115; -598.793
649.948;   -0.585; -181.115; -296.793
650.219;   -6.634;  -37.115; -147.793
650.491;  -78.107; -431.114; -520.794
650.762; -128.480; -705.114; -731.794
651.033;  -73.703; -437.114; -424.795
651.304;  -95.751; -743.114; -728.795
651.576;  -67.599; -680.114; -645.795
651.847;  -33.548; -250.113; -140.796
652.118;  -18.921;  -32.113; -189.796
652.389; -107.644; -639.113; -722.796
652.660;  -36.167; -147.113;  -89.797
652.931; -141.640; -897.112; -871.797
653.202;  -90.588; -382.112; -541.798
653.473;  -71.562; -633.112; -533.798
653.744;  135.965; -595.112; -590.798
654.015;  138.967; -356.112; -303.799
654.286;  -53.456; -642.111; -663.799
654.557;  -54.404; -586.111; -521.799
654.828; -153.277;-1114.111;-1088.800
655.099;  -73.576; -404.111; -291.800
655.370;  -88.524; -427.111; -543.801
655.641; -121.772; -656.110; -714.801
655.911; -112.070; -618.110; -638.801
656.182;   55.932;  437.890;  387.198
656.453;  103.009;  830.890;  746.198
656.724;  -79.915; -466.110; -426.802
656.994;  -94.463; -553.109; -568.803
657.265; -100.711; -862.109; -873.803
657.536;  -86.109; -500.109; -377.804
657.806; -110.257; -561.109; -593.804
658.077; -135.155; -866.109; -950.804
658.347;  -97.054; -523.108; -598.805
658.618; -107.702; -646.108; -694.805
658.888;  -26.725;  -41.108;  112.195
659.159;  -73.273; -432.108; -548.806
659.429;  -10.146; -292.108; -349.806
659.700;   12.380; -435.107; -390.807
659.970;   -8.743; -370.107; -359.807
660.241;   27.634; -754.107; -921.807
660.511;  479.336; -147.107; -174.808
660.781;   98.138; -793.106; -748.808
661.052;  -53.460; -222.106; -381.808
661.322;  -22.534;   21.894;   -9.809
661.592;   23.718;  257.894;  148.191
661.862;  -72.155; -369.106; -382.810
662.133; -115.778; -551.105; -502.810
662.403; -118.876; -770.105; -676.810
662.673;  -53.524; -256.105; -213.811
662.943;  -93.098; -612.105; -551.811
663.213;  -10.296;  -85.105;  -81.811
663.483;  -84.244; -593.104; -568.812
663.753;  -61.017; -194.104; -152.812
664.023;  -15.940;   68.896;  -32.813
664.293;  -67.863; -319.104; -126.813
664.563; -117.637; -694.104; -648.813
664.833; -132.435; -743.103; -608.814
665.103; -132.058; -730.103; -793.814
665.373; -122.606; -766.103; -806.814
665.643;  -81.129; -863.103; -918.815
665.913;   33.423; -534.103; -714.815
666.182;  139.949; -685.102; -719.816
666.452;  260.701;  -22.102;  -89.816
666.722;  -21.447; -724.102; -784.816
666.992; -141.395; -948.102; -921.817
667.261;  -96.993; -824.102; -808.817
667.531;  187.184;  134.899;   45.183
667.801;  531.485; -440.101; -412.818
668.070;  242.762;  714.899;  697.182
668.340;  -87.461; -883.101; -840.819
668.609;   87.991;  588.900;  301.181
668.879;  -66.632; -490.100; -558.819
669.149;  -76.305; -539.100; -516.820
669.418;  -87.929; -698.100; -726.820
669.688;  -36.852; -482.100; -666.820
669.957;   64.050; -423.099; -546.821
670.226;  -29.598; -268.099; -331.821
670.496;  -85.871; -431.099; -635.822
670.765;  -76.019; -418.099; -501.822
671.034; -132.943; -872.099; -828.822
671.304;  -16.641;   55.902; -111.823
671.573; -143.839;-1085.098; -957.823
671.842;   84.913; -380.098; -294.823
672.112;   30.065; -692.098; -586.824
672.381;   -5.833; -239.098; -214.824
672.650; -134.407;-1005.097;-1021.825
672.919;  -84.105; -631.097; -507.825
673.188; -103.628; -681.097; -878.825
673.457; -155.426;-1101.097;-1143.826
673.726;  -77.749; -579.096; -646.826
673.995;  -57.997; -533.096; -479.826
674.265;  -29.621; -263.096; -333.827
674.534;   14.806; -183.096; -235.827
674.802;   11.433; -618.096; -703.828
675.071; 1003.310; -886.095; -801.828
675.340; 3892.312; -464.095; -339.828
675.609; 1294.588;  103.905;   82.171
675.878;   61.140; -949.095; -893.829
676.147;   25.292;  -26.095;   -8.829
676.416;  101.169; -210.094; -294.830
676.685;  726.896; 1000.906; -622.830
676.953;  106.698; -603.094; -452.831
677.222;  -31.151; -193.094; -273.831
677.491;  -21.724;  -24.094; -127.831
677.759;   -5.472;   11.907;  172.168
678.028;   -9.895; -279.093; -222.832
678.297;    2.132;   71.907;  197.168
678.565; -144.866; -898.093; -944.833
678.834;  -67.890; -311.093; -268.833
679.102;  -68.238; -411.092; -391.834
679.371; -138.586; -898.092; -727.834
679.639; -125.784; -797.092; -786.834
679.908; -128.082; -794.092; -724.835
680.176; -152.330; -895.091; -941.835
680.445;  -77.554; -346.091; -352.835
680.713;   -7.952;  -58.091;  -23.836
680.982;  -87.775; -523.091; -525.836
681.250;  -98.023; -578.091; -507.837
681.518;  -93.446; -534.090; -751.837
681.787;  -16.794; -204.090; -167.837
682.055;  -66.668; -490.090; -422.838
682.323; -144.291; -993.090; -992.838
682.591;   33.311; -216.090; -538.838
682.859;   98.088;    9.911;  -35.839
683.128;   12.790;  232.911;  497.161
683.396; -166.733;-1102.089;-1122.840
683.664;  -36.607; -241.089;   21.160
683.932;    9.945;  144.911;  -76.840
684.200;  -91.728; -576.088; -320.841
684.468;  -23.401;  -73.088; -124.841
684.736;  -25.074; -214.088; -175.841
685.004; -126.922;-1024.088; -982.842
685.272;  -53.496; -880.088; -774.842
685.540;  -76.494; -499.087; -557.843
685.808;  -80.517; -651.087; -682.843
686.076;  -89.690; -894.087; -969.843
686.343;  -66.388; -601.087; -815.844
686.611;   38.889; -195.087; -224.844
686.879;  476.340; -530.086; -553.844
687.147; 3282.042; -483.086; -480.845
687.414;  937.044;  -12.086; -169.845
687.682;    5.196; -658.086; -757.846
687.950;  316.748;  259.915;  263.154
688.217;   15.225; -792.085; -760.846
688.485;   -1.449; -632.085; -636.847
688.753;  527.028;  -11.085; -102.847
689.020;  147.580; -820.085; -851.847
689.288;  -89.018; -853.084; -787.848
689.555;  -32.641; -195.084; -148.848
689.823;  -41.464; -241.084; -345.849
690.090;  -83.938; -546.084; -651.849
690.358; -145.011; -877.084; -897.849
690.625;    8.891;  120.917;   45.150
690.892;  -83.207; -403.083; -369.850
691.160;  -26.030;   72.917;  -35.850
691.427;   -0.879;  141.917;  130.149
691.694; -120.527; -855.083; -929.851
691.962; -128.950;-1177.082;-1060.852
692.229;   15.577;  127.918;   56.148
692.496;   82.104;  130.918;  -49.852
692.763;   13.706; -164.082; -201.853
693.031;  -73.168; -739.082; -716.853
693.298;  -39.266; -509.081; -368.853
693.565;  307.661; -155.081; -163.854
693.832; 1298.038;   -5.081;   -9.854
694.099;  138.940; -643.081; -642.855
694.366;  -70.508; -882.081; -896.855
694.633;  -54.307; -920.080; -633.855
694.900;  753.945; 4367.920; -114.856
695.167;  439.847; -214.080; -380.856
695.434;   98.974; -646.080; -623.856
695.701;  189.226;  121.921;  -61.857
695.968;  457.528; -365.079; -361.857
696.234;  999.304; -415.079; -646.858
696.501;10310.456; -776.079; -614.858
696.768; 5223.558; -554.079; -617.858
697.035;  301.135; -632.078; -667.859
697.302;   51.162; -448.078; -552.859
697.568;    6.589; -458.078; -497.859
697.835;  -51.985; -683.078; -624.860
698.102;  -25.883; -498.078; -407.860
698.368;   59.069;  384.923;  396.139
698.635;  -33.779;  -47.077; -424.861
698.901;  -20.652; -240.077; -348.861
699.168;   63.750; -534.077; -456.862
699.435;   66.151;  -72.077;  -13.862
699.701;  -98.472; -868.076; -764.862
699.968;    9.555;  144.924; -441.863
700.234; -104.693; -783.076; -822.863
700.500;  -61.941; -448.076; -539.864
700.767;   -7.264;   -1.075;   26.136
701.033; -128.488;-1015.075; -963.864
701.299;  -52.986; -450.075; -483.865
701.566;  123.641;  950.925;  763.135
701.832;   31.668;  -31.075;  -76.865
702.098; -108.955;-1054.074;-1034.866
702.365;  -81.178;-1098.074;-1030.866
702.631;  -29.352;-1038.074;-1063.867
702.897; 1325.375; -765.074; -676.867
703.163; 2229.427;  348.926;  254.133
703.429;  158.729; -256.073; -273.868
703.695;  -28.444; -796.073; -792.868
703.961;   21.058; -214.073; -210.868
704.227;  -53.191; -630.073; -725.869
704.493;  120.961;  613.927;  510.131
704.759;  -29.387; -565.072; -540.870
705.025;   29.040; -203.072; -194.870
705.291;   -2.283; -666.072; -562.870
705.557;  190.543;  719.928;   34.129
705.823;   34.095; -742.072; -694.871
706.089;  136.272; -307.071; -326.871
706.355;  351.424; -315.071; -244.872
706.620; 5563.951; -776.071; -729.872
706.886; 7725.203; -309.071; -362.873
707.152;  728.179; -818.070; -973.873
707.418;  -20.494;-1153.070;-1186.873
707.683;  -14.617; -550.070; -530.874
707.949;  -48.465; -547.070; -578.874
708.215;    7.962; -129.070; -207.874
708.480;  -20.061; -520.069; -420.875
708.746;   89.165;   68.931;   28.125
709.011;  -66.783; -578.069; -612.876
709.277;  -75.481; -538.069; -543.876
709.542;  -44.804; -428.069; -387.876
709.808;  -16.627;  -59.068;   89.123
710.073;  -80.900; -577.068; -695.877
710.339;  -31.849; -242.068; -228.877
710.604;   56.278; -780.068; -845.878
710.869;  314.680; -277.068; -366.878
711.135;  -77.018; -715.067; -628.879
711.400;  -74.416; -507.067; -608.879
711.665;  -58.164; -404.067; -479.879
711.931;  -99.988; -661.067; -677.880
712.196; -129.836; -876.067; -954.880
712.461;  106.666; -402.066; -490.880
712.726;  139.168; -727.066; -771.881
712.991;  -82.130; -647.066; -664.881
713.256;  -42.353; -350.066; -332.882
713.521;  -55.052; -417.065; -381.882
713.787;  -54.050; -454.065; -472.882
714.052;  -20.123; -214.065; -400.883
714.317;  -97.596;-1045.065; -981.883
714.581; 1023.956; -374.065; -268.883
714.846; 1392.208; -822.064; -888.884
715.111;  118.309;  261.936;  257.116
715.376;  -26.064;  -86.064; -223.885
715.641;    2.338; -365.064; -367.885
715.906;  291.390;   15.936; -551.885
716.171;  141.392;  221.937;  209.114
716.436;   35.969;  -78.063; -104.886
716.700;  -99.680; -818.063; -692.886
716.965; -137.503; -794.063; -807.887
717.230;  -56.601; -339.063; -392.887
717.494;  -18.874;  -40.062; -134.888
717.759;  -92.872; -784.062; -640.888
718.024;    4.255;  269.938;  250.112
718.288;   52.881;  685.938;  395.111
718.553; -141.017; -803.062; -977.889
718.817; -140.490; -883.061; -899.889
719.082;  -23.438; -115.061; -125.890
719.346; -142.861;-1000.061; -947.890
719.611;  -50.234; -300.061; -255.891
719.875;  -82.158; -568.060; -537.891
720.140;  -59.306; -453.060; -603.891
720.404;   40.571; -136.060; -249.892
720.668;  847.823; -475.060; -411.892
720.933;  337.925;  146.940;  137.108
721.197;  -98.224; -667.059; -600.893
721.461; -135.997; -851.059; -826.893
721.725;  -15.670;  -21.059; -250.894
721.990;  -62.518; -284.059; -204.894
722.254;  -26.066;  -26.059; -108.894
722.518;  -68.189; -286.058; -442.895
722.782;  -85.538; -743.058; -594.895
723.046;  130.414;  614.942;  570.105
723.310;   33.666;  374.942;  210.104
723.574;  -98.682; -654.058; -614.896
723.838; -105.180; -576.057; -642.897
724.102;  -44.053; -226.057; -239.897
724.366; -140.127;-1032.057; -978.897
724.630; -110.050; -749.057; -571.898
724.894;  -73.298; -722.057; -514.898
725.158;  -12.246;   38.944; -295.898
725.422;  -50.419; -394.056; -327.899
725.685;  -62.417; -441.056; -349.899
725.949;  -72.416; -566.056; -519.900
726.213;  -67.489; -732.056; -811.900
726.477;  165.013;-1020.055; -933.900
726.740;  147.740; -274.055; -104.901
727.004;  354.992; -384.055; -510.901
727.268; 3337.294; -442.055; -400.901
727.531;  915.695; -961.055; -775.902
727.795;  -52.778; -713.054; -673.902
728.059;  -46.226; -552.054; -557.903
728.322;  -78.999; -841.054; -669.903
728.586;   21.228; -692.054; -701.903
728.849;  -68.045; -695.053; -756.904
729.112; -110.944; -812.053; -912.904
729.376; -130.017; -959.053; -905.904
729.639;  -68.590; -536.053; -536.905
729.903; -106.988; -733.053; -699.905
730.166;  -45.286; -437.052; -399.906
730.429;  -33.084; -317.052; -468.906
730.693;  -55.733; -355.052; -894.906
730.956;  222.169;  810.948;  651.093
731.219;  696.596; -310.052; -103.907
731.482;  119.173;-1003.051; -894.907
731.745;   97.600; -794.051; -935.908
732.009;   25.227;  -30.051;   50.092
732.272; -102.047; -904.051; -771.909
732.535;  -33.345; -300.051; -310.909
732.798; -157.143;-1083.050;-1166.909
733.061;  -62.466; -430.050; -456.910
733.324;    4.486;   31.950; -180.910
733.587;   72.788;  290.950;  365.090
733.850;  -64.586; -973.049;-1050.911
734.113;   44.666;   33.951;   32.089
734.376;    1.643; -328.049; -447.912
734.639;  218.145; 1188.951; 1011.088
734.901;   72.047; -180.049; -402.912
735.164;  508.074; -883.048; -837.913
735.427; 1317.150; -166.048; -355.913
735.690;  124.027; -205.048; -234.913
735.952;  -19.171; -923.048; -925.914
736.215;  -38.569;-1113.048;-1009.914
736.478;   43.808; -771.047; -774.915
736.740;  224.084;   33.953;  129.085
737.003;  675.836; -658.047; -672.915
737.266; 4059.538;  -94.047;   46.084
737.528;  441.840; -682.047; -660.916
737.791;  317.767; -316.046; -327.916
738.053;  812.494;  465.954;  649.083
738.316;10955.795; -162.046; -136.917
738.578; 7579.447; -770.046; -736.918
738.841;  437.574; -382.046; -446.918
739.103;  179.951; -875.045; -777.918
739.365;  494.178;   79.955;  -69.919
739.628;   -6.845; -884.045; -805.919
739.890;  -23.719; -758.045; -710.919
740.152;  -44.467; -692.044; -754.920
740.414;  -19.815; -408.044; -359.920
740.677;  -50.338; -785.044; -634.921
740.939;  -35.611; -587.044; -487.921
741.201;  255.691; -432.044; -572.921
741.463;   28.592; -689.043; -745.922
741.725;   24.294;  -21.043; -199.922
741.987;   57.246;  220.957;  116.078
742.249;    4.473; -751.043; -859.923
742.511;  211.825; -703.043; -794.923
742.773;   11.252; -546.042; -546.924
743.035;  126.903;  796.958;  533.076
743.297;  -33.895; -963.042;-1013.924
743.559;  724.557; -278.042; -262.925
743.821;   65.559; -735.042; -744.925
744.083;   20.386;  -44.041; -149.925
744.345;  -90.912; -869.041; -892.926
744.607;   39.064;   75.959;  122.074
744.868;  -64.334; -490.041; -554.927
745.130;  -93.282; -994.041;-1008.927
745.392;   36.345;   -1.040;  -44.927
745.653;  -14.328; -411.040; -378.928
745.915;  158.474;  896.960;  631.072
746.177;   75.925;   35.960;  -43.928
746.438;   -7.648; -428.040; -543.929
746.700;  -41.596; -947.039; -988.929
746.961;    0.681; -659.039; -740.930
747.223;  119.533; -190.039;  -74.930
747.484;   81.585; -391.039; -471.930
747.746;  146.911;  -23.038; -106.931
748.007;  115.113; -647.038; -689.931
748.269;  294.340; -468.038; -440.931
748.530;  502.442; -852.038; -638.932
748.791;  264.444; -354.038; -420.932
749.053;  444.471;  286.963;  163.067
749.314;  468.372; -236.037; -169.933
749.575;  498.749; -945.037; -905.933
749.836;  855.801; -217.037;   86.066
750.098; 2489.978;  -60.037;  -21.934
750.359;36761.230;  414.964;  555.066
750.620; 9191.982; -121.036; -220.935
750.881; 1031.008; -585.036; -513.935
751.142; 1357.185; -950.036; -938.936
751.403;16783.787; -789.036; -705.936
751.664; 7226.764;-1034.035; -999.936
751.925;  504.666; -175.035; -262.937
752.186;  278.292; -298.035; -278.937
752.447;  127.519; -590.035; -445.937
752.708;   48.871; -532.035; -648.938
752.969;    7.973; -566.034; -576.938
753.230;  -25.950; -777.034; -672.939
753.491;   13.677; -650.034; -631.939
753.751;   61.553;  109.966;   19.061
754.012;  104.805;  258.967;  181.060
754.273;   60.657; -174.033;  -71.940
754.534;    9.334; -487.033; -580.940
754.794;  -79.539; -926.033; -911.941
755.055;  148.288; 1051.967;  881.059
755.316;  -46.811; -700.032; -566.942
755.576;  -30.059; -606.032; -576.942
755.837;  -53.757; -527.032; -695.942
756.097;  -39.905; -530.032; -564.943
756.358;  -75.678; -725.032; -770.943
756.618;  -47.401; -705.031; -641.943
756.879;    6.750; -254.031; -349.944
757.139; -123.673;-1098.031;-1116.944
757.400;  -53.396; -538.031; -553.945
757.660;  -14.544; -365.031; -401.945
757.920;   23.258; -266.030; -228.945
758.181;  -27.665; -468.030; -351.946
758.441;  -91.589; -870.030; -809.946
758.701;  -33.787; -308.030; -215.946
758.961;   -2.160; -220.030; -278.947
759.222;  -37.508; -574.029; -502.947
759.482;  -78.256; -683.029; -723.948
759.742;  -87.204; -706.029; -547.948
760.002;    6.097;  -83.029; -143.948
760.262;   36.024;   50.972;  182.051
760.522;  -49.674; -498.028; -574.949
760.782;  -56.272; -738.028; -612.949
761.042;  -35.270; -618.028; -573.950
761.302;   46.382;   55.972;  -18.950
761.562;   56.933; -164.027; -154.951
761.822;   90.260; -710.027; -551.951
762.082;  -21.838;-1104.027;-1093.951
762.342;   72.064; -328.027; -403.952
762.601;   76.941; -567.027; -506.952
762.861;  358.768; -281.026; -207.952
763.121;  408.694; -406.026; -411.953
763.381; 7468.521; -499.026; -485.953
763.640; 8086.373; -139.026; -307.954
763.900;  357.650; -242.026; -203.954
764.160;   82.702; -458.025; -491.954
764.419;  -13.021; -726.025; -782.955
764.679;  -66.495; -795.025; -726.955
764.939;  -10.193; -124.025; -210.955
765.198;  -79.066; -608.025; -563.956
765.458;  -96.464; -710.024; -612.956
765.717;  -75.887; -454.024; -590.957
765.976;  -68.136; -428.024; -411.957
766.236;  -83.109; -475.024; -610.957
766.495;   24.818;  260.977;   73.042
766.755; -106.530;-1090.023; -987.958
767.014;   -0.103; -594.023; -665.958
767.273;  -43.026; -373.023; -397.959
767.533;  -52.275; -228.023; -307.959
767.792;  -21.048; -151.022; -188.960
768.051;  -58.471; -228.022; -276.960
768.310;  -74.244; -546.022; -650.960
768.569;   -3.042; -161.022;    4.039
768.828;  -32.690; -285.022; -363.961
769.088; -110.864;-1050.021; -942.961
769.347;  -82.612; -755.021; -599.962
769.606; -103.085; -876.021; -857.962
769.865; -122.933;-1016.021;-1033.963
770.124;   -2.631; -411.021; -336.963
770.383;  -65.704; -778.020; -910.963
770.641;  -15.178; -398.020; -400.964
770.900;  -66.001; -953.020; -846.964
771.159;  -55.299; -851.020; -951.964
771.418;  -14.147; -917.020; -779.965
771.677;  130.755; -224.019; -293.965
771.936;  141.607; -794.019; -865.966
772.194; 2247.183; -465.019; -437.966
772.453;10973.810; -213.019; -391.966
772.712;  765.237;  416.982;  329.033
772.970;  132.314;   32.982;   63.033
773.229;   77.691;  -22.018;  102.033
773.488;  -81.482; -814.018; -770.968
773.746;   58.794;  296.982;  335.032
774.005;   -1.954;  190.983;  -22.969
774.263;    0.248;  243.983;  177.031
774.522;  -60.300; -422.017; -548.969
774.780;  -88.223; -484.017; -417.970
775.039;  -92.146; -551.017; -531.970
775.297;  -32.945; -135.016; -351.970
775.555; -104.843; -489.016; -612.971
775.814; -115.466; -618.016; -570.971
776.072; -117.589; -749.016; -740.971
776.330; -106.037; -630.016; -520.972
776.589; -127.485; -703.015; -721.972
776.847; -125.534; -645.015; -624.973
777.105; -168.732;-1016.015;-1032.973
777.363;  -84.480; -459.015; -454.973
777.621; -132.903; -660.015; -717.974
777.879;  -24.351;  -42.014;   32.026
778.138; -101.149; -554.014; -717.974
778.396; -108.098; -585.014; -526.975
778.654; -175.671;-1015.014; -970.975
778.912;  -68.044; -269.014; -371.976
779.170; -120.817; -880.013; -803.976
779.427; -145.090; -922.013; -897.976
779.685; -133.388; -880.013; -832.977
779.943;  -95.587; -654.013; -593.977
780.201; -165.585; -964.012; -883.978
780.459; -119.783; -651.012; -610.978
780.717;  -78.631; -440.012; -390.978
780.974; -108.854; -449.012; -490.979
781.232;  -67.453; -358.012; -338.979
781.490;  -80.526; -551.011; -472.979
781.747; -109.024; -555.011; -476.980
782.005;   16.053;  462.989;  254.020
782.263; -154.195; -542.011;-1004.981
782.520;  -86.893; -326.011; -501.981
782.778; -159.667;-1013.010;-1051.981
783.035; -169.840; -962.010; -938.982
783.293;  -68.838; -248.010; -206.982
783.550;  -64.061; -134.010; -198.982
783.808; -125.984; -764.010; -776.983
784.065; -152.632; -745.009; -874.983
784.322;  -40.031;   25.991;  -86.984
784.580; -138.179; -915.009; -771.984
784.837;  -96.127; -392.009; -466.984
785.094; -129.250; -783.009; -762.985
785.352;  -72.698; -304.008; -404.985
785.609; -119.296; -934.008; -839.985
785.866;  -70.645; -345.008; -401.986
786.123;  -77.518; -639.008; -583.986
786.380; -108.591; -665.008; -604.987
786.637;  -25.939; -225.007; -380.987
786.895;  -12.662; -456.007; -543.987
787.152;  -49.660; -135.007; -267.988
787.409;  -46.009; -123.007; -225.988
787.666;  -90.007; -299.006; -378.988
787.923; -107.705; -616.006; -695.989
788.179; -110.328; -551.006; -584.989
788.436; -115.501; -585.006; -585.990
788.693;  -28.549;  -92.006;  -87.990
788.950;  145.877; -125.005; -112.990
789.207;  225.854; -381.005; -372.991
789.464;  -50.769; -161.005; -301.991
789.720;  -11.042;  150.995;  110.009
789.977; -174.540;-1003.005; -671.992
790.234;  -35.788;   44.996;  -66.992
790.490; -157.462; -884.004;-1031.993
790.747;  -24.960;  -85.004;   22.007
791.004;  -20.933; -426.004; -348.993
791.260;  -74.806; -430.004; -560.994
791.517;  -98.154; -843.003; -788.994
791.773;  -63.902; -379.003; -342.994
792.030; -106.401; -596.003; -660.995
792.286; -101.874; -686.003; -636.995
792.543;  -26.347;  -74.002; -159.995
792.799;  -51.845; -584.002; -382.996
793.055; -160.618;-1179.002;-1210.996
793.312;  -86.716; -827.002; -816.997
793.568;  -57.840; -746.002; -599.997
793.824;   26.262; -226.001; -284.997
794.081;   29.514; -447.001; -508.998
794.337;   61.391; -664.001; -561.998
794.593; 1334.918; -319.001; -271.999
794.849; 6551.995; -746.001; -772.999
795.105;  319.846; -270.000; -261.999
795.361;   15.573; -490.000; -457.000
795.617;  -49.825; -875.000; -945.000
795.873;  -50.475; -360.000; -407.000
796.129;  -35.650; -368.000; -306.000
796.385;  -23.525; -124.000; -156.000
796.641;   80.075;  412.000;  550.000
796.897;  -97.550; -666.000; -635.000
797.153;   53.675;  453.000;  357.000
797.409; -108.575; -785.000; -868.000
797.665;  -77.375; -625.000; -732.000
797.921;  -67.625; -775.000; -762.000
798.176;  -54.875; -744.000; -747.000
798.432;  -60.550; -824.000; -596.000
798.688;  -92.025;-1174.000;-1078.000
798.943;   77.075; -165.000; -147.000
799.199;  -20.125;-1005.000; -959.000
799.455;  239.775;  369.000;  316.000
799.710;  132.800; -813.000; -380.000
799.966;  289.925; -162.000; -160.000
800.221;  479.875; -638.000; -721.000
800.477;10558.725; -743.000; -710.000
800.732; 9215.875; -773.000; -800.000
800.988;  629.000;  205.000;  -19.000
801.243; 1846.700; -454.000; -344.000
801.498; 7667.625; -814.000; -739.000
801.754;  440.300; -289.000; -163.000
802.009;   87.200; -257.000; -335.000
802.264;  -34.475; -967.000;-1033.000
802.520;   25.900;  222.000;   -3.000
802.775;  -58.475; -524.000; -359.000
803.030;   37.750;  395.000;  356.000
803.285; -120.100; -840.000; -903.000
803.540;  -65.850; -686.000; -699.000
803.795;  -41.575; -648.000; -583.000
804.051;  -20.925; -279.000; -346.000
804.306;   17.175;  168.000;  128.000
804.561;  140.500;  451.000;  362.000
804.816;  130.600;  714.000;  861.000
805.071;   -3.900; -185.000; -280.000
805.325;  211.950; -257.000; -427.000
805.580; -106.900; -841.000; -877.000
805.835;  -13.275; -204.000; -297.000
806.090;  -76.975; -760.000; -676.000
806.345;  -22.575; -344.000; -264.000
806.600;  -18.825; -549.000; -632.000
806.854;  -34.550; -408.000; -538.000
807.109;  -21.700; -493.000; -577.000
807.364;   -0.975; -407.000; -328.000
807.618;  -10.500; -415.000; -381.000
807.873;   64.225; -470.000; -494.000
808.128;   93.900; -257.000; -518.000
808.382;  120.000; -224.000; -332.000
808.637;   70.875; -440.000; -511.000
808.891;  192.225; -257.000; -180.000
809.146;   96.025; -902.000; -794.000
809.400;  271.950; -848.000; -923.000
809.654;  331.775; -779.000; -551.000
809.909;  499.050; -841.000; -927.000
810.163; 6722.775; -813.000; -651.000
810.418;17111.450; -940.000; -861.000
810.672; 1013.625; -685.000; -690.000
810.926;  717.075; -993.000; -973.000
811.180; 1421.400; -439.000; -372.000
811.434;32018.750;  240.000;  135.000
811.689;12560.675; -231.000; -365.000
811.943;  618.400; -936.000; -953.000
812.197;  309.500; -893.000; -671.000
812.451;  125.900; -379.000; -514.000
812.705;  -24.325; -809.000; -619.000
812.959;    5.625; -263.000; -388.000
813.213;    8.850; -283.000; -209.000
813.467;   56.900;  470.000;  253.000
813.721;  -98.675; -764.000; -792.000
813.975; -113.375; -826.000; -877.000
814.229;   39.300;  430.000;  353.000
814.482;  -80.950; -517.000; -566.000
814.736; -117.575; -766.000; -744.000
814.990; -116.850; -779.000; -872.000
815.244;  -44.850; -228.000; -285.000
815.497; -103.050; -636.000; -601.000
815.751;  -11.775; -141.000;   82.000
816.005;  -91.600; -470.000; -586.000
816.258;  -89.775; -510.000; -363.000
816.512; -115.775; -693.000; -610.000
816.766;    0.800;  121.000;  157.000
817.019;   18.650;  148.000;  149.000
817.273; -124.050;-1000.000; -802.000
817.526;  -39.625; -206.000; -173.000
817.779;  -51.800;-1049.000; -960.000
818.033;  -70.450; -693.000; -807.000
818.286; -132.325; -725.000; -792.000
818.540;  -86.400; -403.000; -403.000
818.793;  -76.900; -402.000; -489.000
819.046; -112.550; -582.000; -520.000
819.299;  -42.050; -157.000; -166.000
819.553; -115.100; -552.000; -592.000
819.806; -163.950;-1016.000; -838.000
820.059;  -67.050; -334.000; -354.000
820.312;   14.300;  152.000;  185.000
820.565;  -18.675;  110.000;  -27.000
820.818;  -50.500;  -59.000; -173.000
821.071; -161.100;-1041.000; -957.000
821.324; -111.425; -536.000; -540.000
821.577; -106.225; -457.000; -483.000
821.830;  -82.125; -270.000; -172.000
822.083; -122.225; -733.000; -288.000
822.336;  -52.600; -261.000; -167.000
822.589; -127.050; -805.000; -688.000
822.842; -138.675; -875.000; -770.000
823.094; -187.700;-1076.000;-1114.000
823.347; -134.050; -925.000; -729.000
823.600;   13.875;  402.000;  187.000
823.853;  -53.550; -311.000; -267.000
824.105;  -78.175; -331.000; -575.000
824.358; -112.450; -617.000; -716.000
824.611;   28.000;  234.000;   40.000
824.863;  -49.100; -612.000; -591.000
825.116;   55.275;  -33.000;   27.000
825.368;   89.600; -366.000; -372.000
825.621;  166.275; -186.000; -240.000
825.873;   79.450; -704.000; -737.000
826.126;  592.450; -669.000; -641.000
826.378;11640.650; -389.000; -505.000
826.630; 2801.825; -890.000; -898.000
826.883;   27.150; -754.000; -693.000
827.135;   39.850; -279.000; -270.000
827.387; -121.325; -893.000; -839.000
827.639;  -22.775;  -86.000;   32.000
827.892; -131.525; -742.000; -582.000
828.144; -146.250; -848.000; -804.000
828.396;  -35.000;  104.000;  -80.000
828.648;  -98.025; -440.000; -333.000
828.900; -150.650; -702.000; -795.000
829.152; -117.325; -684.000; -683.000
829.404;  -55.950; -215.000; -267.000
829.656;  -40.250;  321.000;  214.000
829.908;  -21.375;  393.000;  229.000
830.160; -163.875;-1064.000;-1047.000
830.412; -105.975; -481.000; -430.000
830.664; -117.450; -557.000; -665.000
830.916;  -88.750; -268.000; -206.000
831.167; -183.800;-1073.000; -951.000
831.419; -105.675; -623.000; -566.000
831.671; -154.175; -764.000; -809.000
831.923;  -88.325; -311.000; -447.000
832.174;  -66.050; -273.000; -331.000
832.426; -118.700; -493.000; -582.000
832.678; -176.325;-1043.000;-1091.000
832.929; -166.350; -947.000; -935.000
833.181;  -68.800; -575.000; -677.000
833.432;  -54.575;  -59.000; -186.000
833.684;  -23.000;  112.000;  -27.000
833.935; -118.425; -610.000; -566.000
834.187; -145.525; -829.000; -823.000
834.438;  -58.050;  -58.000;  -25.000
834.689;  -54.450; -255.000; -123.000
834.941;  -70.975; -343.000; -244.000
835.192; -102.625; -590.000; -533.000
835.443; -111.850; -419.000; -506.000
835.695;  -12.950;  138.000;  -16.000
835.946; -106.125; -608.000; -378.000
836.197; -116.150; -599.000; -622.000
836.448;  -86.875; -528.000; -395.000
836.699;  -61.950; -253.000; -341.000
836.950;   -5.175;   72.000;    7.000
837.201; -146.950;-1003.000; -987.000
837.452;  -49.925; -356.000; -170.000
837.703; -108.650; -791.000; -737.000
837.954;  -42.325; -205.000; -365.000
838.205;  -82.275;-1029.000;-1008.000
838.456;  169.250; -196.000; -282.000
838.707;    7.375; -423.000; -519.000
838.958;    1.150; -634.000; -647.000
839.209;  282.225;   18.000;   40.000
839.460;  102.275; -439.000; -201.000
839.710;  180.875; -135.000; -297.000
839.961;  414.700;  730.000;  612.000
840.212;  340.700; -382.000; -497.000
840.462; 1113.100; -328.000; -277.000
840.713;18033.250; -571.000; -536.000
840.964; 7107.400;  -62.000; -143.000
841.214;  496.850; -384.000; -624.000
841.465;  556.300; -214.000; -141.000
841.715;  528.775; -417.000; -380.000
841.966;  649.825; -746.000; -685.000
842.216; 9223.350; -330.000; -431.000
842.466;34457.675; -169.000; -313.000
842.717; 1864.050; -964.000; -952.000
842.967;  312.575; -635.000; -641.000
843.217;  269.100;   20.000;   28.000
843.468;   68.575; -104.000; -132.000
843.718;  -39.425; -718.000; -726.000
843.968;  -84.800; -837.000; -765.000
844.218;   12.975; -315.000; -262.000
844.469;  -57.675; -577.000; -561.000
844.719; -105.250; -537.000; -682.000
844.969;  -91.950; -550.000; -580.000
845.219; -144.650; -814.000; -862.000
845.469;  -87.025; -392.000; -342.000
845.719; -138.850; -792.000; -884.000
845.969;  -16.275;  119.000;  174.000
846.219; -123.925; -738.000; -720.000
846.469;   15.850;  464.000;  432.000
846.718;  -44.025; -115.000;   31.000
846.968; -144.500; -827.000; -827.000
847.218;  -41.600; -224.000; -371.000
847.468;   -3.625; -586.000; -555.000
847.718; -144.575; -827.000; -798.000
847.967; -129.750; -826.000; -915.000
848.217;  -92.400; -449.000; -569.000
848.467;  -65.675; -405.000; -376.000
848.716; -110.050; -708.000; -725.000
848.966;    0.425; -372.000; -358.000
849.215;  -65.675; -428.000; -419.000
849.465; -114.900; -785.000; -615.000
849.714; -133.075;-1132.000;-1150.000
849.964;  -65.300; -551.000; -613.000
850.213;  -27.925; -393.000; -355.000
850.463;   66.725;  137.000;  340.000
850.712;   10.700; -542.000; -567.000
850.961;   22.675; -739.000; -678.000
851.211;  111.825; -513.000; -504.000
851.460;  164.225; -635.000; -650.000
851.709;  575.725;  -25.000;   18.000
851.958;10497.950; -912.000; -750.000
852.208;12596.125; -859.000; -879.000
852.457;  469.825; -181.000;  -13.000
852.706;   72.575; -791.000; -823.000
852.955;   17.550; -507.000; -528.000
853.204;  -75.800; -521.000; -461.000
853.453;  -79.200; -418.000; -458.000
853.702; -125.700; -660.000; -750.000
853.951; -121.100; -532.000; -520.000
854.200; -112.225; -613.000; -562.000
854.449; -131.675; -695.000; -661.000
854.698;  -95.225; -340.000; -279.000
854.946;  -73.400; -181.000; -284.000
855.195; -155.825; -843.000; -868.000
855.444;  -92.225; -395.000; -420.000
855.693; -121.400; -345.000; -432.000
855.941; -119.300; -387.000; -516.000
856.190;  -63.075; -256.000; -382.000
856.439; -139.550; -652.000; -703.000
856.687;  -61.425;  -99.000;  -72.000
856.936; -111.825; -621.000; -323.000
857.184; -182.075;-1067.000;-1020.000
857.433; -108.325; -423.000; -512.000
857.681; -163.325; -989.000; -953.000
857.930;  -75.050; -282.000; -433.000
858.178; -171.900; -856.000; -929.000
858.427; -154.525; -802.000; -781.000
858.675; -115.100; -377.000; -544.000
858.923; -107.425; -527.000; -819.000
859.172; -182.325;-1094.000;-1070.000
859.420;  -96.550; -339.000; -239.000
859.668; -135.650; -624.000; -628.000
859.916;  -31.425;  109.000;  115.000
860.164; -115.200; -699.000; -603.000
860.413;  281.525; -878.000; -696.000
860.661;  217.525; -709.000; -577.000
860.909;  -81.650; -339.000; -325.000
861.157;  -82.425; -277.000; -444.000
861.405; -142.025; -534.000; -670.000
861.653;   14.425;  310.000;  310.000
861.901;  173.950; -543.000; -613.000
862.149;  -27.200; -801.000; -824.000
862.396;  -84.600; -297.000; -187.000
862.644;  -91.950; -368.000; -347.000
862.892;  -48.500;   98.000;  138.000
863.140; -119.125; -549.000; -530.000
863.388; -166.025; -815.000; -759.000
863.635; -141.100; -642.000; -601.000
863.883;  -15.950;  231.000;  190.000
864.131; -102.725; -288.000; -357.000
864.378; -129.625; -675.000; -540.000
864.626; -119.525; -347.000; -415.000
864.873; -129.750; -556.000; -505.000
865.121; -150.100; -714.000; -799.000
865.368;  -45.950; -173.000;   75.000
865.616;  -54.225;  -33.000;  -40.000
865.863;  -82.725; -462.000; -506.000
866.111; -110.275; -795.000; -824.000
866.358;   28.500; -426.000; -420.000
866.605; 2275.025;  -64.000; -804.000
866.853; 2294.400; -621.000; -537.000
867.100;  -44.900; -728.000; -775.000
867.347;  -99.975; -672.000; -611.000
867.594;  -95.350; -740.000; -714.000
867.841;   98.675;   97.000;   17.000
868.089; -145.125; -746.000; -698.000
868.336; -113.850; -477.000; -420.000
868.583; -129.950; -637.000; -741.000
868.830;  -65.175; -131.000; -170.000
869.077; -163.225; -859.000; -787.000
869.324; -130.425; -502.000; -458.000
869.571; -122.775; -398.000; -430.000
869.818; -115.325; -485.000; -439.000
870.065; -103.400; -439.000; -513.000
870.311; -128.625; -456.000; -542.000
870.558; -107.650; -332.000; -311.000
870.805;  -90.775; -320.000; -384.000
871.052; -104.700; -494.000; -369.000
871.298;  -74.175; -204.000; -131.000
871.545;  -73.000; -151.000; -185.000
871.792;  -82.975; -173.000; -222.000
872.038;  -66.475;   43.000; -126.000
872.285; -128.825; -496.000; -387.000
872.532;  -92.275; -357.000; -387.000
872.778;    8.150;  556.000;  403.000
873.025;  -90.625; -384.000; -359.000
873.271;   15.075;  501.000;  578.000
873.517;  -32.675; -133.000; -209.000
873.764;  -36.050; -193.000;  -80.000
874.010;  -69.200; -143.000; -230.000
874.257;  -41.900;  123.000;   90.000
874.503; -127.850; -579.000; -479.000
874.749;  -82.625;   31.000;  275.000
874.995;  -58.675;  -80.000;  -20.000
875.242; -131.650; -540.000; -478.000
875.488; -103.950; -414.000; -439.000
875.734;  -64.050; -106.000; -234.000
875.980;  184.650; -872.000;-1032.000
876.226;  348.175; -157.000; -255.000
876.472;   -1.300;  343.000;  237.000
876.718;  -36.375;  184.000;  158.000
876.964;  -54.600;   56.000;   55.000
877.210; -162.975; -547.000; -677.000
877.456; -141.175; -630.000; -557.000
877.702; -187.925; -821.000; -832.000
877.948; -110.275; -377.000; -497.000
878.193;  -21.375;  361.000;  255.000
878.439;  -81.025; -487.000; -472.000
878.685; -101.300; -272.000; -343.000
878.931; -126.200; -618.000; -676.000
879.176; -104.475; -201.000; -201.000
879.422; -180.000; -933.000; -820.000
879.668;   65.375;   10.000;   79.000
879.913;  125.125;   53.000;  137.000
880.159;  -52.375; -112.000;  -17.000
880.404;  -66.300; -152.000; -162.000
880.650;  -46.600;   91.000;  141.000
880.895; -160.450; -670.000; -710.000
881.141; -124.775; -454.000; -428.000
881.386; -153.875; -503.000; -658.000
881.631;  -94.325; -311.000; -166.000
881.877;  -28.175;  112.000;  -13.000
882.122; -129.575; -684.000; -600.000
882.367;  -92.350; -136.000; -186.000
882.612;  -70.725;  -80.000; -176.000
882.858; -177.975; -877.000; -823.000
883.103; -114.625; -297.000; -267.000
883.348; -151.725; -759.000; -852.000
883.593; -153.500; -677.000; -602.000
883.838;  -59.775; -311.000;  -24.000
884.083;   16.775;  353.000;  288.000
884.328;  -86.550; -564.000; -545.000
884.573;  -56.550; -196.000; -143.000
884.818;  192.375; -694.000; -531.000
885.063;  164.025; -348.000; -315.000
885.308;  -98.575; -475.000; -398.000
885.553;  -15.825;  245.000;  325.000
885.797; -125.100; -545.000; -615.000
886.042;  -64.075;    8.000;   58.000
886.287;  -94.850; -253.000; -211.000
886.532;  -68.375;   26.000;  204.000
886.776; -104.250; -407.000; -525.000
887.021; -145.325; -621.000; -574.000
887.265; -157.925; -685.000; -689.000
887.510; -141.150; -557.000; -496.000
887.755;  -80.750; -194.000; -164.000
887.999; -150.300; -552.000; -575.000
888.244;  -63.825;  -58.000;  161.000
888.488;  -10.975;  371.000;  393.000
888.732; -131.975; -368.000; -520.000
888.977; -132.475; -622.000; -567.000
889.221; -152.775; -683.000; -659.000
889.465; -134.750; -422.000; -566.000
889.710;  -67.175;  -56.000; -299.000
889.954;   -3.975;  579.000;  467.000
890.198; -143.675; -584.000; -707.000
890.442; -167.125; -716.000; -712.000
890.687; -166.700; -800.000; -753.000
890.931; -100.250; -273.000; -210.000
891.175; -142.100; -502.000; -500.000
891.419;  -74.450; -105.000; -110.000
891.663;  -93.950; -239.000; -112.000
891.907; -173.275; -801.000; -545.000
892.151; -181.500; -920.000; -815.000
892.395; -121.375; -274.000; -387.000
892.638;  -41.175;  408.000;  291.000
892.882; -170.450; -780.000; -867.000
893.126;    8.050;  758.000;  558.000
893.370;  -98.625; -167.000; -168.000
893.614; -150.800; -714.000; -715.000
893.857; -104.625; -183.000; -197.000
894.101; -134.050; -527.000; -631.000
894.345;  -54.250;  300.000;  150.000
894.588;   29.025;  569.000;  380.000
894.832;  -85.025; -178.000;  -84.000
895.075;  -83.275;   15.000;  -92.000
895.319; -136.700; -552.000; -420.000
895.563; -125.200; -413.000; -353.000
895.806; -163.900; -628.000; -741.000
896.049;  -61.600; -576.000; -368.000
896.293;   94.375;  527.000;  405.000
896.536;  -83.750; -465.000; -468.000
896.779;  -82.850; -149.000;   -1.000
897.023; -142.675; -751.000; -714.000
897.266;  -32.475;  325.000;  269.000
897.509; -176.825; -900.000; -901.000
897.752;  -41.825;  149.000;  171.000
897.996; -187.025; -972.000; -864.000
898.239;  -64.650;  168.000;  102.000
898.482; -121.850; -431.000; -453.000
898.725;  -41.300;  101.000;   53.000
898.968; -145.275; -609.000; -744.000
899.211; -116.375; -513.000; -361.000
899.454; -133.100; -633.000; -539.000
899.697;  -67.850;   90.000;  -43.000
899.940; -171.675; -761.000; -757.000
900.182; -105.275; -335.000; -405.000
900.425;  -98.700; -150.000; -298.000
900.668;  -20.475;  491.000;  350.000
900.911; -107.250; -292.000; -345.000
901.154;  -53.825;  141.000;   -3.000
901.396; -134.775; -407.000; -412.000
901.639; -137.125; -430.000; -496.000
901.882; -186.575; -790.000; -809.000
902.124;  -77.750;  -29.000; -143.000
902.367; -122.875; -315.000; -361.000
902.609; -130.275; -476.000; -453.000
902.852;  -85.800; -108.000; -260.000
903.094; -138.900; -458.000; -337.000
903.337;  -72.425;  -26.000;   53.000
903.579; -118.525; -228.000; -441.000
903.821; -151.300; -597.000; -744.000
904.064;  -59.075;   85.000;  127.000
904.306;  -83.400; -126.000; -166.000
904.548; -112.675; -152.000; -366.000
904.790;  -99.925; -195.000; -340.000
905.033; -127.525; -625.000; -577.000
905.275; -130.775; -513.000; -524.000
905.517;   23.625;  468.000;  256.000
905.759;  -75.525; -667.000; -761.000
906.001; -108.000; -322.000; -369.000
906.243;  -55.700; -162.000; -224.000
906.485;  112.525; -265.000; -207.000
906.727;  112.025; -499.000; -542.000
906.969;  -34.175;  -30.000; -135.000
907.211;  120.225; -316.000; -382.000
907.453;  257.925; -188.000; -237.000
907.695;  -11.525; -158.000; -385.000
907.936;   44.450;  818.000;  706.000
908.178;  -75.075;   92.000; -135.000
908.420;  -78.175; -111.000; -162.000
908.662; -134.825; -633.000; -682.000
908.903;  -84.175; -208.000; -123.000
909.145;  -65.475; -240.000; -305.000
909.386;   -6.650;  315.000;  280.000
909.628;   41.400;  363.000;  397.000
909.870;   19.125;   29.000;  264.000
910.111;  -98.525; -809.000; -949.000
910.353;    8.825; -123.000; -161.000
910.594;   -7.725; -574.000; -606.000
910.835;   75.550; -265.000; -326.000
911.077;  140.175; -503.000; -604.000
911.318;  275.875; -505.000; -471.000
911.559;  455.250; -577.000; -880.000
911.801; 1353.100; -284.000; -280.000
912.042;10613.850;  -50.000; -159.000
912.283;26869.725;  404.000;  371.000
912.524; 4036.775; -396.000; -457.000
912.765;  458.450; -193.000;   79.000
913.006;  237.875; -307.000; -338.000
913.247;   41.225; -270.000; -290.000
913.488;   -8.225;  -43.000;   30.000
913.729;  -82.950; -373.000; -373.000
913.970;  -73.600;  -96.000; -292.000
914.211;  -67.850; -160.000; -198.000
914.452;  -75.075; -118.000;  -11.000
914.693;    3.725;  510.000;  592.000
914.934;   23.850;  510.000;  440.000
915.175;  -66.650;   53.000;  -95.000
915.415;  -81.600; -137.000;   27.000
915.656;  -76.225;  -28.000;  192.000
915.897;  -98.325; -252.000;  -82.000
916.137;  -77.275;   74.000;   -9.000
916.378; -131.975; -573.000; -517.000
916.619; -102.750; -159.000;  -63.000
916.859;  -29.025;  303.000;  330.000
917.100;  127.525; 1655.000; 1070.000
917.340;   56.550;  930.000;  728.000
917.581;   36.375;  965.000;  789.000
917.821;  -27.700; -171.000;  143.000
918.061;   17.500; -199.000;  -72.000
918.302;  -54.725; -152.000; -211.000
918.542;  -42.500;  -22.000;    3.000
918.782;   30.150;  369.000;  377.000
919.023;  136.675;  360.000;  427.000
919.263; 1752.600; 8131.000;  202.000
919.503; 1097.525; -137.000;  -54.000
919.743;  604.150;  390.000;  266.000
919.983;  247.475; -134.000;  -26.000
920.223;   69.525;  135.000;   14.000
920.463;  151.875;  631.000;  554.000
920.703;  126.650;   84.000;   39.000
920.943;  157.525; -110.000;   90.000
921.183;  243.150; -414.000; -405.000
921.423;  501.875;  307.000;  546.000
921.663;  738.175; -174.000; -257.000
921.903; 1563.075;  237.000;  173.000
922.143; 8805.675;  372.000;  389.000
922.383;33643.050;  158.000;  115.000
922.622;11109.975; -120.000;  -15.000
922.862; 1162.800;  796.000;  785.000
923.102;  467.350;  -51.000;   33.000
923.341;  164.250;   59.000;   74.000
923.581;   95.975;  450.000;  360.000
923.821;   26.300;  301.000;  398.000
924.060;   15.875;  351.000;  193.000
924.300;  -64.150;  -16.000; -128.000
924.539;  -13.225;  584.000;  473.000
924.779;   10.875;  812.000;  597.000
925.018;  -51.050;  247.000;  353.000
925.257;   -2.525;  595.000;  666.000
925.497;  -39.775;  447.000;  412.000
925.736;  -82.075;  -35.000;  102.000
925.975;   12.650;  687.000;  669.000
926.214;   20.650;  907.000;  850.000
926.454;    9.750;  706.000;  757.000
926.693;  -35.575;  419.000;  543.000
926.932;   48.925; 1021.000;  825.000
927.171;   60.225; 1107.000; 1044.000
927.410;   56.225; 1144.000;  967.000
927.649;   23.425;  924.000;  742.000
927.888;  -26.575;  590.000;  564.000
928.127;  -12.375;  680.000;  678.000
928.366;   28.525;  842.000;  826.000
928.605;   38.775;  831.000;  737.000
928.844;  242.350; 1451.000; 1393.000
929.083;  617.000;  770.000;  613.000
929.321;  305.700; 1335.000; 1359.000
929.560;   75.725; 1158.000; 1122.000
929.799;  -19.150;  574.000;  475.000
930.038;   87.300; 1025.000; 1394.000
930.276;  -46.475;  334.000;  397.000
930.515;    1.450;  827.000;  681.000
930.753;  -19.875;  614.000;  589.000
930.992;  -25.475;  664.000;  717.000
931.230;   -7.550;  847.000;  847.000
931.469;  167.775; 2162.000;  892.000
931.707;   57.200;  840.000;  751.000
931.946;   55.325; 1278.000; 1344.000
932.184;   54.750; 1437.000; 1175.000
932.423;   35.125; 1265.000;  963.000
932.661;   99.675; 1296.000; 1428.000
932.899;   16.600;  987.000;  821.000
933.137;   20.825;  754.000;  564.000
933.376;  148.400; 1664.000; 1335.000
933.614;  157.225; 1759.000; 1196.000
933.852;   52.350; 1357.000; 1171.000
934.090;  121.350; 1722.000; 1747.000
934.328;  111.075; 1252.000; 1457.000
934.566;   93.750; 1431.000; 1110.000
934.804;  125.175; 1263.000; 1309.000
935.042;  461.625; 1861.000; 1850.000
935.280; 1808.600; 2088.000; 2063.000
935.518; 1702.375; 2113.000; 2007.000
935.756;  343.750; 2481.000; 2316.000
935.994;  160.100; 1808.000; 1751.000
936.231;  333.400; 2890.000; 2950.000
936.469;  185.575; 2367.000; 2378.000
936.707;  174.750; 2220.000; 2167.000
936.945;  226.250; 2825.000; 2882.000
937.182;  226.225; 2679.000; 2741.000
937.420;  304.100; 3602.000; 3031.000
937.657;  418.225; 3365.000; 3478.000
937.895;  359.625; 3331.000; 3488.000
938.133;  309.300; 3540.000; 3528.000
938.370;  343.975; 3896.000; 4191.000
938.607;  397.575; 4488.000; 4205.000
938.845;  552.550; 5587.000; 5549.000
939.082;  485.325; 5387.000; 5177.000
939.320;  533.375; 5799.000; 5728.000
939.557;  648.400; 6549.000; 6491.000
939.794;  727.725; 7285.000; 7097.000
940.031;  918.825; 8421.000; 8368.000
940.269; 1130.225; 9552.000; 9107.000
940.506; 1128.000;10901.000;10507.000

