
Integration time [ms]: 200.000
Averaging Nr. [scans]: 10
Smoothing Nr. [pixels]: 0
Data measured with spectrometer [name]: 2101013U2
Wave   ;Sample   ;Dark     ;Reference
[nm]   ;[counts] ;[counts] ;[counts] 

394.013;   74.074; -450.257; -315.536
394.305;  288.171; -461.258; -419.536
394.596; 1599.124; -676.269; -527.514
394.887; 3806.248; -796.268; -654.518
395.178; 1612.591;  145.736;   11.476
395.470;  108.107; -210.263; -356.526
395.761;  344.269;  305.734;  394.479
396.052;  529.145; -545.284; -306.489
396.343;  435.544; -557.276; -454.503
396.634;  142.100; -200.279; -290.497
396.926;  110.044; -618.268; -565.517
397.217;  163.851;   11.725;  -17.504
397.508;   48.174; -366.273; -154.507
397.799;   10.400; -555.279; -571.497
398.090;  -91.108; -973.280; -902.495
398.381;  172.137;   11.708;  -11.473
398.672;  -76.061; -585.292; -742.473
398.963;   32.708; -348.279; -373.498
399.254;  123.152;   54.709; -209.475
399.545; -127.936;-1017.266; -883.520
399.836;   52.129; -407.277; -343.501
400.127;   94.703; -205.295; -209.468
400.418;   67.866; -423.274; -392.506
400.709;   61.873; -359.281; -333.493
401.000;   51.457; -268.291; -309.476
401.290;  193.712;  225.698;  115.545
401.581;   86.720; -166.286; -228.485
401.872;   14.363; -542.298; -486.462
402.163;   43.892; -313.296; -252.467
402.454;  143.553; -123.291; -163.475
402.744;   49.080; -844.297; -813.465
403.035;  535.725; -226.293;  -86.471
403.326;  642.443; -366.292; -384.474
403.617;  536.155;  204.701;  165.539
403.907;  322.853; -593.283; -679.490
404.198; 3410.047; -545.307; -599.446
404.489; 8745.560; -618.283; -588.491
404.779; 2962.617; -618.302; -660.456
405.070;  314.287;  -67.304; -174.451
405.360;  477.327; -259.293; -238.472
405.651;  504.433;  125.699;   98.542
405.942;  303.613;  209.714;  127.516
406.232;  297.034; -432.285; -413.487
406.523;  709.917;  641.706;  758.530
406.813;   65.316; -579.286; -644.484
407.104;  496.136;  261.708;  144.527
407.394;  165.357; -604.299; -591.462
407.685;  225.633;  336.715;  222.513
407.975;   18.558; -400.283; -382.490
408.265;  156.373; -134.289; -190.478
408.556;   48.448; -472.291; -459.475
408.846;  330.419;  474.706;  429.530
409.137;  156.485;   -1.288; -216.480
409.427;   70.033; -193.285; -271.487
409.717;   12.278; -776.273; -692.508
410.007;  250.724;    4.715; -170.486
410.298;   95.707; -360.295; -342.469
410.588;   69.430; -495.285; -510.486
410.878;  -28.599; -792.287; -873.482
411.168;  135.067; -481.298; -478.463
411.459;  142.850; -295.283; -242.489
411.749;   64.246; -609.292; -507.474
412.039;   15.783; -755.289; -386.480
412.329;  268.419;   40.722;  132.501
412.619;  208.817;  -62.286; -148.485
412.909;  589.777;  639.711;  594.521
413.199;  418.192; -130.280; -251.495
413.490;  591.964;  521.710;  352.523
413.780;  108.998;-1013.279; -913.496
414.070;  462.046;  -46.276;  235.497
414.360;  437.013; -729.278; -666.498
414.650;  560.896; -726.288; -688.482
414.940;  701.397; -538.280; -441.496
415.230; 1292.391;   50.712;   74.519
415.520; 8870.522;  155.730;   66.486
415.809;33499.173; -305.281; -125.493
416.099;26832.332; -388.277; -229.501
416.389; 7527.563;  435.726;  236.494
416.679; 4482.512;   91.738;   85.473
416.969;  762.508; -527.287; -503.483
417.259;  836.800;  341.721;  171.503
417.549; 1024.071;  522.718;  318.508
417.838; 2424.447; -205.268; -147.518
418.128; 7893.471;  650.710;  492.522
418.418; 6446.987; -491.272; -579.509
418.708; 4495.063;    9.726;  -48.506
418.997;16479.257; -474.275; -480.505
419.287;17173.772; -733.273; -790.507
419.577;16851.049; -160.283; -123.489
419.866;53154.529; -588.277; -498.501
420.156;54180.317; -242.270;  -55.513
420.446;10292.902; -112.263;  -26.526
420.735; 1157.908; -376.271; -446.512
421.025; 1411.512; 1830.722;  315.502
421.314;  913.005; -203.271; -226.512
421.604; 1757.336;   89.732;  233.484
421.893;  961.200; -705.271; -602.511
422.183;  326.502; -487.263; -461.526
422.472;  536.402;  -36.271; -107.511
422.762;  602.972; -416.266; -379.521
423.051;  291.047; -916.276; -916.503
423.341;  404.075; -491.273; -439.507
423.630;  569.581; -121.265;   15.477
423.919;  505.556;   58.725;   49.495
424.209;  526.810;  -31.263;   56.473
424.498;  708.043;   68.732;  161.483
424.787; 1461.852; -535.267; -601.518
425.077; 4595.179;   34.735;   29.478
425.366; 6252.518; -734.262; -744.528
425.655;14209.776;  639.727;  259.493
425.945;30685.002; -313.247; -268.554
426.234;17812.050;  117.741;  300.467
426.523; 7225.058;  -86.259; -350.534
426.812; 9924.666;  107.734;  159.480
427.101;14813.531; -127.269; -323.515
427.390;18088.922;  -55.270;  -86.514
427.680; 3872.986; -624.257; -411.538
427.969;  712.001; -330.255; -301.540
428.258;  398.174; -385.257; -477.536
428.547;  783.193;  449.728;  397.490
428.836; 1521.724; -421.253; -398.543
429.125; 2244.660; -199.259;  -72.534
429.414; 1109.957; -330.251; -294.548
429.703; 4559.157; -231.251; -213.548
429.992;12998.462; -938.250; -828.549
430.281; 8830.192; -397.264; -331.524
430.570;  921.243;  -21.252;   32.454
430.859;  813.657;  279.741;  352.466
431.148;  733.496;  636.752;  631.446
431.437;  478.642;  391.748;  367.454
431.725;  179.376; -544.257; -481.536
432.014;  133.235; -845.253; -756.545
432.303;  540.404; -149.239; -105.569
432.592;  773.201; -460.263; -178.525
432.881; 1454.198; -601.248; -437.554
433.169; 9029.902; -343.255;  -61.540
433.458;17824.053;  445.765;  540.424
433.747; 7577.526; -397.261; -289.529
434.036; 1198.570; -275.242; -280.564
434.324; 2966.780; -395.249; -379.551
434.613; 5069.461;   40.757;  159.437
434.902; 1765.190;  333.760;  439.433
435.190;  677.103;   75.761;  295.431
435.479;  429.035;  -52.245;   83.441
435.767;   89.046; -411.244; -427.561
436.056;  254.364; -340.242; -294.563
436.345;  483.094; -372.240; -223.568
436.633;  576.873;   60.750;  383.450
436.922;  379.897;  208.760;  414.432
437.210;  706.738; -194.236;    1.426
437.499; 2103.750; -583.235; -432.576
437.787; 2413.038; -339.236;  -10.574
438.075;  628.711;   56.761;  162.430
438.364;  866.814;  -44.238;  250.429
438.652;  507.764; -286.226; -138.592
438.941;  216.413;    3.770;  269.415
439.229;  -44.661; -665.252; -466.545
439.517;   80.562; -160.234;  -85.577
439.806;  -36.513; -501.225; -290.595
440.094;  283.973;  377.766;  650.421
440.382;  162.378; -653.233; -302.580
440.670;  207.749; -361.235; -285.576
440.959;   -6.089; -347.223; -170.599
441.247;  112.129; -151.229; -109.587
441.535;  135.260; -266.235;   31.423
441.823;   20.069; -497.234; -305.578
442.111;  267.635;  173.771;  327.412
442.400;  624.234; -628.245; -335.559
442.688; 1599.272; -111.234; -620.579
442.976; 1024.037; -786.213; -450.617
443.264;  126.096; -324.224; -364.597
443.552;  118.766; -258.226;   51.408
443.840;  270.558;  602.765;  876.423
444.128;  187.577;  265.767;  269.420
444.416;  -74.261; -694.228; -312.588
444.704;    9.354; -465.219;  -92.605
444.992;   76.170;   -0.226;  240.407
445.280;   58.714; -517.230;  -94.585
445.568;    6.842; -694.212; -396.618
445.856;  423.731; -174.221;  357.398
446.143;  879.848;  -54.220;   -7.604
446.431;  767.944;  -25.228;  625.411
446.719;  396.081;  489.783;  675.391
447.007;  305.906;  481.769;  705.416
447.295;  296.407;  597.777;  871.402
447.583;  114.226; -464.229;  -34.587
447.870;  171.727; -434.221; -202.601
448.158;  544.412; -104.230;  129.415
448.446;  321.550; -800.219; -338.604
448.733;  259.098;   13.776;  269.403
449.021;  335.941;   60.788;  341.382
449.309;  251.763; -296.210;  208.379
449.596;  310.276;  128.783;   59.392
449.884;  179.817; -571.222; -325.600
450.172;  136.752; -756.227; -406.590
450.459;  697.513;  645.786;  780.387
450.747; 3573.474; -411.218; -147.608
451.034;10882.746;  493.772;  889.411
451.322; 9157.817; -413.214; -170.614
451.609;  865.400;  292.777;  508.403
451.897;  849.253; -550.203; -183.634
452.184; 2456.508; -622.223; -400.598
452.472; 2454.793;   97.792;  269.375
452.759;  554.351;  512.781;  864.395
453.047;  101.838; -407.212; -125.617
453.334;   85.262; -732.219; -216.606
453.621;   89.921; -438.214; -161.615
453.909;  206.941;   13.796;  384.368
454.196;  120.406; -299.199; -123.641
454.483;  304.571;  317.798;  540.364
454.771;  179.198; -215.208;  196.374
455.058;   62.602; -316.207;  102.374
455.345;  170.285;   71.807;  344.347
455.632;  168.907; -128.207;  235.373
455.919;  115.038;  -82.196;  182.354
456.207; -126.887; -774.198; -450.642
456.494;  -26.511; -475.200;  -66.639
456.781;    6.865; -399.202; -198.635
457.068;   81.416; -253.206;  -29.628
457.355;  -83.182; -698.206; -401.629
457.642;  -55.474; -552.205; -290.630
457.929;  -56.228; -778.194; -417.651
458.216;   58.338; -575.212; -354.617
458.503;  382.179; -173.193;  -19.652
458.790;  306.394; -864.208; -630.625
459.077;  392.372;  -77.202;  110.364
459.364; 1179.162; -350.195; -210.649
459.651; 2408.013;  -46.206;  220.372
459.938; 1061.881; -864.209; -665.623
460.225;  214.877;  132.799;  276.363
460.512; -136.166; -836.197; -688.645
460.799;  187.772;  -32.218;  320.392
461.086;   59.395; -370.200; -251.640
461.372;   43.813; -509.198; -279.642
461.659;  175.140; -165.196;  108.354
461.946;   80.277; -445.193;  -54.651
462.233;  394.992;  842.800;  888.361
462.519;  425.387; -814.201; -464.639
462.806; 1352.635; -768.197; -497.645
463.093; 1192.506; -445.191;  -66.656
463.380; -118.935; -920.186; -824.664
463.666;   80.538; -259.197;  -18.646
463.953;  146.455; -406.195; -243.648
464.239;  304.555; -173.195;  -77.648
464.526;  625.970;  413.806;  743.350
464.813;  419.723; -565.190; -304.658
465.099;  558.778;  606.807;  607.348
465.386;  552.284;  903.807;  921.348
465.672;  -16.065; -694.197; -522.645
465.959;    2.648; -598.188; -520.662
466.245;   -2.816; -468.193; -359.652
466.532;  163.152; -109.195;   63.352
466.818;   75.365; -357.186; -216.664
467.104;  -23.078; -488.182; -415.672
467.391;  -53.874; -628.189; -459.658
467.677;   43.670; -289.186;    9.335
467.964;   -4.265; -682.189; -471.660
468.250;  117.074; -331.186; -160.665
468.536;  122.427;   90.811;  180.341
468.822;  -89.809; -821.184; -574.668
469.109;  257.838;  351.827;  471.311
469.395;  352.998;  729.808;  787.346
469.681;  308.132;   46.811;  156.341
469.967; 1853.338; -699.188; -382.660
470.254; 3762.050; -494.188; -306.662
470.540; 2557.738; -601.196; -476.646
470.826;  344.338; -488.181; -397.675
471.112;  548.096;  288.816;  113.331
471.398;  133.902; -253.183;  -58.670
471.684;   39.678; -626.177; -447.680
471.970;  -96.557; -918.180; -981.675
472.256;   21.596; -521.192; -441.654
472.542;  -22.047; -499.171; -434.691
472.828;  -17.283; -743.182; -607.672
473.114;   36.015; -380.166; -283.700
473.400;    0.602; -504.175; -293.684
473.686;   37.424; -452.166; -400.701
473.972;  100.523; -230.174; -131.687
474.258; -111.462; -925.173; -843.689
474.544;  357.067; -183.178;   -2.679
474.830;  486.005;  -65.175;   45.316
475.116;  757.825; -123.190; -196.658
475.401;  963.347; -558.180; -467.676
475.687;  291.745; -725.180; -718.676
475.973;  -68.272; -673.181; -770.673
476.259;  386.308;  736.825;  764.315
476.544;  528.390; -539.176; -437.682
476.830; 1238.147; -398.172; -322.690
477.116; 1085.488; -430.177; -336.682
477.401;  284.746;  346.820;  358.324
477.687;  -28.798; -289.175; -405.684
477.973;   74.033;   21.819;   28.326
478.258;  -22.946; -448.163; -348.706
478.544;  117.281;   21.815;   61.334
478.829; -127.939; -818.171; -738.692
479.115; -100.253; -749.172; -651.690
479.401;  -45.283; -444.174; -449.686
479.686;   63.844; -253.180;  -74.676
479.972; -107.326; -886.178; -776.680
480.257;   55.317; -258.166;  -65.700
480.542;  -24.633; -614.170; -469.693
480.828;  483.600; 1288.824; 1392.317
481.113;  -72.503; -464.176; -426.683
481.399;   11.087; -236.161; -202.711
481.684; -110.783; -620.166; -462.700
481.969;   44.007; -158.159;  -73.713
482.255;  -21.518; -439.169; -285.695
482.540;   17.675; -569.178; -441.680
482.825;   26.458; -395.187; -404.663
483.110;  155.187;  -85.169; -105.696
483.396;  276.038; -840.157; -652.718
483.681;  852.823;  543.826;  730.313
483.966;  214.498; -696.160; -700.712
484.251;   11.822; -404.174; -310.687
484.536;    4.032; -356.165; -378.703
484.822;   20.626; -205.173; -218.687
485.107;  -56.608; -599.152; -502.726
485.392;  269.540;  662.836;  541.296
485.677;  163.201;  354.832;  163.302
485.962;  200.134;  160.843;  270.283
486.247;  117.765;  -14.162;   -8.707
486.532;   76.019; -178.166; -325.701
486.817;  306.579;  381.839;  431.291
487.102;  135.368; -453.154; -514.722
487.387; 1032.140; -637.156; -652.718
487.672; 1756.547; -154.164;  -38.705
487.957; 1135.090; -394.160; -286.711
488.241;  354.016; -290.150; -314.729
488.526; 1187.594; -280.152; -148.726
488.811; 1708.577; -881.177; -818.680
489.096; 1393.272; -666.154; -702.723
489.381;  789.189;    3.847;  162.275
489.666;  578.687; -428.161; -510.710
489.950;  356.276;  558.846;  627.277
490.235;  -60.291; -480.151; -458.728
490.520;  -74.014; -756.161; -723.710
490.804; -112.057; -827.156; -736.719
491.089;    7.438; -469.149; -299.732
491.374;   80.645; -132.164;  -75.704
491.658;  -58.345; -817.147; -717.735
491.943;  174.000; -657.152; -609.727
492.227;  346.662; -178.155;  -38.721
492.512;   56.833; -294.157; -341.717
492.797; -115.270; -713.149; -716.731
493.081; -121.541; -588.147; -598.735
493.366;  -97.112; -751.161; -635.711
493.650;  383.634;  831.859;  917.254
493.935;   21.154; -648.147; -447.734
494.219; -102.384; -778.142; -687.743
494.503;  -78.078; -585.150; -487.730
494.788;   74.321;   46.842;   74.285
495.072;  244.218;  184.850;  434.271
495.356;  220.843; -463.148; -343.733
495.641;  636.368; -812.146; -736.736
495.925;  523.150; -976.156; -903.719
496.209;   65.537; -599.149; -451.732
496.494; -107.283; -763.142; -544.744
496.778;    8.968; -364.154; -360.722
497.062; -124.851; -819.156; -627.719
497.346;  -50.908; -869.160; -640.711
497.631;  278.648;  580.852;  560.266
497.915;  124.183;  -64.145;  175.261
498.199;   86.638; -341.157; -277.718
498.483;   30.392; -562.152; -508.725
498.767;  342.619;  301.850;  300.271
499.051;  325.434; -126.149; -100.732
499.335;   15.632; -693.149; -739.731
499.619;  -39.321; -381.129; -423.767
499.903;   47.260; -272.155;  -65.721
500.187;   51.178; -588.153; -316.724
500.471;  -32.601; -796.152; -595.727
500.755;  179.986;   62.839;  -96.710
501.039;   13.561; -270.155; -357.721
501.323;  204.737;  -21.141;  264.254
501.607;   -8.546; -447.163; -503.706
501.891;  -31.860; -607.156; -512.718
502.174;  -63.201; -726.144; -585.741
502.458;  176.005;   89.849;  370.273
502.742;   59.971; -180.138; -191.751
503.026;  161.153; -412.147; -254.734
503.310;  285.505; -437.159; -375.713
503.593;  193.756; -464.147; -325.735
503.877;  200.928; -232.133; -156.760
504.161;  235.582;    2.847;  -50.724
504.444;  146.125; -841.158; -710.716
504.728;  689.544; -487.164; -522.704
505.012; 1060.015; -257.150;  -76.729
505.295;  805.688; -417.161; -212.711
505.579;  784.849; -256.156; -496.719
505.862; 1149.578; -555.145; -333.738
506.146; 1092.309; -681.159; -758.714
506.429;  705.009;  568.841;  461.286
506.713;   77.911; -732.151; -667.728
506.996;  558.867;   90.846;  295.278
507.280;  451.537; -633.165; -474.703
507.563;  392.258; -469.155; -261.721
507.847;  149.779; -423.153; -112.724
508.130;  134.189; -665.161; -456.711
508.413;  189.611; -758.167; -577.700
508.697;  435.111; -151.167;   12.300
508.980;  262.881; -422.153; -312.724
509.263;    8.053; -466.155; -450.720
509.547;   56.714; -124.150;   82.271
509.830;   76.292; -172.160;  140.289
510.113;  144.049;  128.844;  298.281
510.396;   44.289; -530.152; -300.725
510.680;  158.080; -818.145; -812.738
510.963;  766.073;  184.846;  180.277
511.246;  556.525; -493.150; -357.730
511.529;  379.187; -482.145;  -83.739
511.812;  606.924; -250.134;   10.241
512.095;  426.007; -740.151; -396.728
512.378;  138.761; -317.147; -245.736
512.661;   19.082; -703.137; -623.753
512.944;   -5.781; -750.142; -637.744
513.227;  104.778; -170.137; -171.752
513.510;   14.599; -479.144; -671.741
513.793;   47.443; -485.140; -435.747
514.076;  210.908;  -43.127;  -39.771
514.359;  187.139; -294.149; -135.732
514.642;  111.123; -442.142; -567.744
514.925; 1250.541;  581.860;  561.253
515.208; 1463.718; -498.134; -443.758
515.491;  993.638; -276.133; -182.761
515.773;  622.404; -410.143; -337.742
516.056; 3351.791;  249.864;  409.246
516.339; 4081.097; -754.136; -652.755
516.622; 2755.922; -518.150; -488.730
516.904; 1672.614;  882.857;  975.257
517.187;  658.476; -730.138; -523.752
517.470;  597.413; -568.143; -510.743
517.752;  610.201; -624.136; -470.756
518.035;  471.858; -708.139; -725.749
518.318;  584.397; -799.136; -744.755
518.600; 3825.943; -300.132; -325.762
518.883; 4930.222;  310.858;   88.256
519.165; 2483.766; -585.138; -426.751
519.448;  546.843;  -61.132;  -19.762
519.730;  259.019; -573.126; -415.773
520.013;  534.533;  588.867;  664.240
520.295; 1057.926;  -94.134;  -15.759
520.578; 2163.161; -335.131; -305.764
520.860; 2528.443; -254.132;   56.238
521.143; 1334.904; -763.135; -584.756
521.425;  727.438; -251.125; -279.775
521.707; 1033.409; -622.127; -380.771
521.990; 2860.310; -199.127;  167.229
522.272; 3105.546; -116.140;   -4.748
522.554; 1401.705; -237.143; -157.742
522.836;  478.523;  -24.134;   99.241
523.119;  302.051; -496.148; -189.734
523.401;  252.371; -448.130; -314.766
523.683;   80.283; -865.137; -693.753
523.965;  466.773;  408.862;  260.248
524.247;  458.868;   54.878;  170.220
524.529;  348.426; -451.134; -367.759
524.812;  564.274;   -3.130;  191.234
525.094; 1393.272; -773.138; -631.751
525.376; 2105.451; -143.124;   78.223
525.658; 1230.593; -441.136; -339.754
525.940;   24.957; -805.131; -671.764
526.222;   75.198; -188.136;  -88.755
526.504;  139.454; -190.131;   32.237
526.786;  165.929; -960.133; -647.760
527.068;  356.558; -124.123;  -67.778
527.349;  120.888; -865.137; -774.754
527.631;  207.142; -137.132;   22.238
527.913;  211.708; -664.127; -450.771
528.195;  210.128; -761.125; -639.774
528.477;  425.819;  -93.134;  -30.758
528.759;  191.074; -648.130; -522.766
529.040;   89.157; -569.123; -293.778
529.322;   81.431; -235.125;  -10.774
529.604;  228.677;  -47.130;   93.233
529.886;  133.619; -546.126; -302.773
530.167;  218.365;  232.870;  192.235
530.449;  102.361;    1.853;   63.265
530.731;   43.767; -572.122; -459.779
531.012;   95.096; -513.120; -216.784
531.294;  156.752; -118.116;  -43.792
531.575;  293.738;  290.875;  538.225
531.857;   93.511; -548.135; -266.757
532.138;  205.635; -113.141;   40.254
532.420;  290.406;  294.865;  403.244
532.701;  208.533; -722.133; -751.760
532.983;  476.937;  232.867;  182.239
533.264;  167.016; -243.126;  175.228
533.546;  -66.203; -491.136; -508.755
533.827;   72.928;  173.867;   -1.759
534.109;   13.111; -352.135;  -80.757
534.390;   88.248; -725.132; -582.762
534.671;  395.206; -270.135;  -82.756
534.953;  164.061; -751.123; -611.779
535.234;   42.731; -426.117; -255.789
535.515; -163.792; -891.119; -735.785
535.796;  -23.798; -431.128; -193.770
536.078; -220.450;-1050.124; -904.777
536.359;   53.262;  -22.123;    3.221
536.640;  -51.670; -480.125; -197.774
536.921;  295.884;  225.871;  143.232
537.202;  599.868;  -87.138;  -16.751
537.483;  749.161;  251.869;  377.236
537.764;  269.965;   17.870;   98.235
538.045;  -78.483; -543.134; -371.758
538.326;  -63.613; -596.129; -447.768
538.607;   -5.190; -686.127; -476.771
538.888;  318.483;   98.879;    5.218
539.169;  274.876; -704.122; -535.781
539.450;  512.083;  236.871;   16.233
539.731;  311.789; -361.121; -182.783
540.012;  232.496;  199.880;  412.216
540.293;  130.242;   82.876;  158.224
540.574;  -42.618; -895.113; -717.796
540.855;  762.587;  435.879;  377.218
541.136;  757.872;   47.878;  139.220
541.416;  439.275; -161.130; -220.766
541.697;  322.754; -274.131; -170.763
541.978; 1659.709; -270.135; -315.757
542.259; 1947.310; -211.127; -236.771
542.539;  949.043; -191.116; -186.790
542.820;  326.937;  461.875;  480.225
543.101;  181.782;  -52.145;  -77.738
543.381;   -6.190; -638.127; -591.771
543.662;  465.306;  159.873; -254.771
543.942;  860.504; -751.127; -830.770
544.223; 1585.074;  193.878;  161.219
544.504; 1034.650; -275.124; -182.777
544.784;  971.819; -592.126; -408.773
545.065; 2492.548;  104.884; -254.791
545.345; 2880.908;  227.881;   14.215
545.626; 2029.880;  -14.113; -108.796
545.906; 1339.064;   77.869;   98.235
546.186;  591.825;   92.874;  -95.773
546.467;  361.553;   99.877;  -95.778
546.747;  557.843;  264.884;  327.210
547.027;  627.748;   91.876;  111.223
547.308;  467.803; -376.127; -530.770
547.588;  614.288;  299.871;  371.232
547.868;  369.866;  458.870;  588.235
548.149;  387.359;  609.885;  593.207
548.429;  191.607; -347.127; -299.771
548.709;  297.796; -645.120; -461.784
548.989;  764.022;   84.882;   88.213
549.269; 3420.441;   10.868;  139.239
549.550; 7390.959;  215.877;  117.222
549.830; 6501.606; -758.111; -556.799
550.110; 1396.317; -468.110; -320.801
550.390; 1270.067; -128.122;  -56.779
550.670; 1658.274; -868.114; -783.795
550.950; 1264.586; -509.121; -471.782
551.230;  332.081;  549.879;  460.218
551.510;  -29.315; -381.121; -326.782
551.790;   58.728; -173.109; -127.803
552.070;  545.753;  940.877; 1181.223
552.350;  637.114; -492.119; -377.786
552.630;  900.878;   -2.121;   77.219
552.909;  600.749;  181.884;   73.209
553.189;  409.250;  -49.132;   33.237
553.469;  276.414; -703.119; -514.786
553.749;  311.412; -469.127; -357.772
554.029;  263.737;   33.883;  -24.790
554.308;  247.765; -154.115;  -37.794
554.588;   78.101; -196.128; -204.770
554.868;   95.688; -366.121;  -47.782
555.147;  245.261; -114.115;  -46.793
555.427;  999.453; -260.116; -250.792
555.707; 6196.758; -284.115; -200.793
555.986; 6910.311; -719.111; -538.800
556.266; 3898.341;   23.884;   72.210
556.546;  174.985; -888.121; -675.782
556.825;  403.271; -657.114; -556.794
557.105; 2910.798; -125.128;   17.230
557.384; 3098.148;  122.884;  187.209
557.664; 1245.652; -717.116; -508.792
557.943;  182.287; -557.121; -411.782
558.222;  270.826; -345.118; -344.788
558.502;  461.963; -116.115;  -76.793
558.781;  838.457;  194.885;  499.208
559.061;  649.026; -232.118; -227.788
559.340;  525.233;  302.883;  353.211
559.619; 1194.241;   93.884;  148.210
559.899; 1570.136; -239.117; -266.789
560.178; 1503.262; -778.115; -593.793
560.457; 5025.438; -623.117; -562.790
560.736; 6392.513; -472.111; -482.800
561.015; 4553.395; -500.128; -502.769
561.295;  635.956;  180.893;  215.193
561.574;  561.959;  119.885;  116.207
561.853;  784.634;  274.891;  303.197
562.132;  788.966;  -45.114;  182.206
562.411;  716.578;  396.879;  553.219
562.690;  188.856; -592.115; -458.792
562.969;  283.191;  472.888;  630.203
563.248; 1042.675; 2966.878; 2487.219
563.527;  388.312; -290.111; -408.800
563.806;  600.007; -650.127; -521.771
564.085;  666.478; -297.105; -206.810
564.364;  339.240; -594.117; -405.790
564.643;  842.979; -276.121; -223.781
564.922; 2969.325;  221.890;  397.198
565.201; 2755.231; -640.109; -700.803
565.479; 1339.654; -297.115; -219.792
565.758;  469.198; -810.128; -712.770
566.037;  686.332; -155.109; -100.803
566.316;  395.748; -286.116;  -28.791
566.595;   89.358;  -17.115;  -12.793
566.873;  260.514; -166.111;  -79.801
567.152;  -84.510; -490.113; -590.797
567.431;   26.942; -113.116;    6.210
567.709;   41.557; -344.107; -212.807
567.988;  403.171; -810.114; -769.794
568.266;  802.658; -160.115;  -68.793
568.545;  597.845; -644.100; -514.819
568.824; 1008.854;  160.885;  356.208
569.102;  838.170; -351.114; -235.794
569.381;  343.252; -492.116; -407.792
569.659;  -76.015; -553.113; -553.796
569.938;   47.673; -743.122; -465.780
570.216;  161.236; -225.109; -225.804
570.494;  -32.025; -632.114; -572.795
570.773;   95.185;  202.879;  114.218
571.051;    3.957; -373.123; -357.778
571.330;  118.681; -221.113; -174.796
571.608;   72.970; -181.098; -173.823
571.886; -131.497; -671.111; -581.799
572.164; -108.012; -739.121; -621.782
572.443;  -83.417; -562.105; -512.811
572.721;  -56.262; -399.117; -289.790
572.999;  -68.871; -280.117; -168.788
573.277;  197.174;  379.894;  620.191
573.555;  538.877;   94.894;   37.190
573.834; 2133.129;  -86.117; -114.788
574.112; 2423.760;  880.893;  811.193
574.390;  805.913; -143.111;  -96.801
574.668;    7.992;  -91.112;  -61.797
574.946;  -23.823; -165.106; -187.810
575.224;   25.330;   71.891;  -16.803
575.502;    2.545; -200.116; -204.791
575.780; -171.307; -767.112; -829.798
576.058;  342.212; 1589.889; 1004.200
576.336;  -46.480; -210.110; -129.801
576.614;  -77.807; -511.112; -340.798
576.891;   84.465; -711.115; -823.794
577.169;  770.347; -158.108; -285.805
577.447;  910.759;  169.893;  202.193
577.725;  507.300;  629.888;  854.201
578.003;   30.597;  -71.112; -371.798
578.280;  164.696; -208.104; -242.812
578.558;   34.463; -450.115; -422.793
578.836;  212.475; -210.114; -145.795
579.114;   57.691; -630.112; -670.797
579.391;  148.731;   -6.117;  -18.789
579.669; -157.834; -595.114; -704.794
579.947;  304.855; -326.107; -127.806
580.224;  436.854; -692.107; -524.806
580.502;  518.160;  127.893;   76.193
580.779;   60.140;  -42.117;   75.210
581.057; -117.364; -584.109; -470.804
581.334; -198.883; -726.102; -695.815
581.612;  112.078;   54.895;  511.190
581.889;  -69.064;  -83.101; -129.818
582.167;  -46.944; -298.099; -190.821
582.444; -185.572; -845.102; -814.817
582.721;  239.229;  657.899;  715.183
582.999;  104.253; -326.100; -167.821
583.276;  767.063; -812.123; -713.779
583.553; 1016.622; -364.102; -294.816
583.831;  326.691; -607.104; -631.812
584.108;  108.144;  349.892;  174.195
584.385;   26.616; -122.102;  -98.815
584.662; -149.185; -651.111; -828.801
584.940;   74.314;  204.889;  204.199
585.217;    5.284;  -73.113; -303.796
585.494;   99.727;   71.890;  118.198
585.771;  336.937; -250.109; -354.804
586.048;  741.684; -196.113;  -76.796
586.325;  421.618; -721.110; -773.801
586.602;  198.996;  230.896;  213.188
586.879;  -45.652; -499.100; -580.820
587.156;   74.479; -156.105; -331.810
587.433;  -87.975; -701.102; -667.817
587.710;  158.194;  152.888;  234.202
587.987;  458.287; -264.105; -236.811
588.264; 1158.297;  315.888;  387.202
588.541; 2130.600;  -61.104;   26.187
588.818; 3968.941;   72.892;  171.196
589.095; 3403.694; -163.104; -174.812
589.371;  555.934; -459.109; -414.804
589.648;   71.860; -581.107; -437.807
589.925;   50.476; -517.114; -621.795
590.202;  -23.706; -741.112; -607.798
590.478;  141.289; -166.105;  -73.811
590.755;  441.849; -241.108; -132.806
591.032; 3972.622; -741.110; -699.802
591.308; 4936.827; -732.094; -790.831
591.585; 2713.521; -573.110; -560.802
591.862;  176.927;-1056.102; -950.817
592.138;   79.846; -475.108; -474.805
592.415;  212.398; -486.104; -495.813
592.691; 2384.694;  460.896;  518.188
592.968; 2645.473; -208.098; -123.824
593.244; 1357.343; -695.116; -595.790
593.521;  116.728; -105.102;  -42.817
593.797;  -33.531; -810.122; -720.780
594.074;  460.591; -611.096; -588.826
594.350; 1053.807;  828.905;  729.172
594.626;  462.115; -303.111; -283.801
594.903;  177.429; -643.101; -645.817
595.179;  309.803;  243.896;  418.187
595.455;   44.262; -136.107; -150.807
595.731;   36.605;  -19.103;  -38.814
596.008;  -22.093; -464.111; -434.800
596.284;   56.351; -187.100; -242.820
596.560;   72.837; -501.093; -493.833
596.836;  327.982; -173.105;  -70.810
597.112;  529.947; -582.108; -437.805
597.388;  458.788;  -49.097;  -48.826
597.665;  239.288;  437.887;  530.203
597.941; -117.322; -572.089; -658.839
598.217;   29.626; -323.110; -293.802
598.493;  448.640;   61.891; -204.804
598.769;  751.943; -175.100;  -50.819
599.045;  404.751; -490.108; -562.806
599.321;  110.849; -193.100; -261.820
599.597;  215.239; -355.109; -476.804
599.872;  764.000;  409.896;  429.187
600.148;  609.390;  -61.097; -172.826
600.424;  517.658;   91.893;  202.193
600.700;  339.361; -170.107; -280.807
600.976;  194.282; -442.097; -464.825
601.252;  379.934; -226.109; -272.803
601.527;  297.801; -833.104; -840.813
601.803;  222.490; -453.105; -404.812
602.079;  337.543; -124.100; -118.819
602.354;  888.651; -620.092; -531.835
602.630; 1249.484; -140.113; -482.796
602.906; 3831.536; -910.101; -863.818
603.181;10028.014; -627.119; -534.786
603.457; 8480.787;   98.903; -278.826
603.733; 1273.890; -605.120; -626.783
604.008; 1671.378; -245.106; -164.810
604.284; 4433.931; -636.101; -580.817
604.559; 3919.900;   -3.112;  -42.799
604.835;  813.082; -163.105; -225.810
605.110;  603.057; -732.099; -892.821
605.385; 1103.340;  224.907;  267.167
605.661; 1041.811; -625.095; -729.829
605.936; 1690.851; -664.108; -737.806
606.211; 1498.415;  -17.103; -170.815
606.487;  333.369; -329.114; -376.794
606.762;    5.714; -791.119; -745.786
607.037;   -8.418; -501.105; -433.810
607.313;  -84.699; -589.096; -574.828
607.588;    5.477; -375.106; -137.810
607.863;   90.435;  -28.101; -143.818
608.138;  345.924;  513.890;  516.198
608.413;   52.663; -576.099; -592.822
608.688;   99.746; -203.108; -267.805
608.964;  334.669; -509.106; -218.809
609.239;  371.578; -107.105; -212.810
609.514;  464.990;  281.895;  240.188
609.789;  975.296; -187.104; -716.812
610.064; 1230.999; -435.096; -609.827
610.339; 1390.234; -855.109; -799.804
610.614; 1744.250; -131.100; -315.820
610.889; 1026.990;  215.895;  107.188
611.163;   58.991; -407.104; -591.812
611.438;  135.971;   81.886; -167.794
611.713;  -23.469; -467.101; -499.817
611.988;  117.434; -144.101; -328.818
612.263;  -66.883; -771.102; -717.815
612.538;  417.383;  385.887;  251.204
612.812;  208.752; -832.100; -911.820
613.087;  215.770; -358.098; -338.823
613.362;  -97.639; -497.107; -557.807
613.637;  103.509;  261.897;  138.186
613.911;  -12.148; -256.092; -345.835
614.186;  225.459; -249.107; -292.807
614.460; 1020.685; -842.081; -758.854
614.735; 1167.112;  -55.087;  -17.843
615.010;  249.397;   43.912;  -82.841
615.284;  408.445;  360.892;  246.195
615.559;  492.650; -792.092; -955.835
615.833;  474.560;  -76.099;  -87.822
616.108;  -10.833; -225.090; -390.837
616.382;  264.414;  274.913;  402.156
616.656;  279.567; -241.090; -232.837
616.931;  729.461; -785.099; -700.822
617.205; 1542.802; -973.104; -979.813
617.480; 1476.535;  -91.125;    6.225
617.754;  239.931; -396.125; -128.774
618.028;   44.589; -369.129; -382.768
618.302;  155.443;   73.892;  -25.805
618.577;  -54.889; -371.103; -518.815
618.851;  -95.870; -399.109; -600.803
619.125;  -62.674; -335.134; -378.759
619.399;  -44.998; -244.104; -374.813
619.673;  -59.246; -330.115; -515.792
619.947;  -76.625; -333.114; -448.795
620.222;   -0.284; -198.110; -204.801
620.496;  -11.413;  -47.121;  -96.782
620.770;   53.075; -187.122;  -93.781
621.044;  391.779;  323.895;  346.190
621.318; 1111.191; -653.120; -614.783
621.592; 1022.888; -430.121; -409.783
621.866;  545.501; -476.112; -572.799
622.140;   67.845; -207.116; -356.791
622.413;  133.707;  138.889;  112.200
622.687;  -72.969; -746.101; -492.817
622.961;   70.443; -130.108; -143.805
623.235; -106.392; -633.111; -661.800
623.509; -186.111; -816.105; -848.811
623.783;   59.456;  -12.107;   48.193
624.056;   -5.207; -254.120; -280.783
624.330;   92.092;   63.888;   -3.797
624.604;   95.040; -271.116; -355.790
624.877;  133.523;  180.890;   26.198
625.151;   84.767; -249.114; -238.794
625.425;  -37.795; -150.103; -283.814
625.698;  -69.994; -367.119; -374.785
625.972; -165.374; -799.110; -765.802
626.245;  160.143;  685.884;  484.210
626.519; -118.802; -426.120; -340.784
626.792;   -3.339; -192.107; -380.807
627.066; -149.135; -485.122; -662.779
627.339; -148.780; -736.110; -663.802
627.613;   76.896;  351.880;  148.216
627.886;  136.229;  187.891; -612.803
628.160;  -51.709;  312.880; -161.783
628.433; -166.462; -695.125; -703.775
628.706; -166.702; -517.120; -615.784
628.979;   65.548;  296.876;  117.223
629.253; -180.787; -785.119; -833.786
629.526;  667.116; -334.126; -253.772
629.799;  466.658; -641.123; -479.778
630.072;  232.091; -497.128; -516.769
630.346; -135.157;-1115.116;-1080.790
630.619;  720.162; -467.107; -545.808
630.892; 1007.809;  709.889;  593.200
631.165;  622.402;  790.896;  679.187
631.438; -208.003;-1092.112;-1055.798
631.711;  126.062;  453.877;  257.221
631.984; -125.664; -523.117; -624.789
632.257; -111.569; -636.117; -681.789
632.530;  -67.894; -412.119; -433.785
632.803;   65.764; -109.115;    7.207
633.076; -104.947; -360.123; -422.777
633.349;   62.697;  173.872;  121.231
633.622;  -42.695; -187.119; -240.785
633.895; -228.907; -903.120; -823.783
634.167; -127.981; -496.126; -525.773
634.440;   -2.348;  -19.116; -137.792
634.713;   32.711;  -22.119; -120.786
634.986;  170.682;  593.871;  453.233
635.258; -153.038; -507.115; -597.793
635.531;  247.225;  742.882; -343.788
635.804;  -29.766; -303.117; -318.789
636.077; -147.054; -830.116; -852.791
636.349;  -58.041; -586.115; -474.793
636.622;  763.515; 1695.874; 1392.228
636.894;  347.399; -474.120; -909.784
637.167;  198.807; -836.127; -789.771
637.439;   29.101; -278.128; -213.770
637.712;  -54.782; -312.126; -293.772
637.984; -176.753; -635.116; -707.791
638.257;  691.354;  515.877;  488.222
638.529;  716.640; -881.125; -924.776
638.802;  349.791; -508.128; -449.769
639.074; -209.626; -927.122; -952.781
639.346; -229.586; -942.135; -930.757
639.619;   11.821;  -79.142; -319.744
639.891;   11.465;  -83.122; -168.779
640.163; -137.432; -689.122; -756.780
640.435;  110.970;  273.878;  103.220
640.708;    0.073;  -72.122; -132.780
640.980;  -53.624; -366.122; -362.781
641.252;  342.978;  -25.121;  -71.781
641.524; 2732.181;  580.879;  573.219
641.796; 2476.083;-1094.121; -907.782
642.068;  460.686; -191.121; -300.782
642.340;  -99.611; -486.121; -566.783
642.613;  127.491;  294.880;  323.217
642.885; -173.006; -787.120; -878.783
643.157;  -94.104; -810.120; -658.784
643.428;  143.899;  170.880;  218.216
643.700; -103.198; -498.120; -425.784
643.972;  -52.396;  -16.119; -133.785
644.244; -122.293; -474.119; -559.785
644.516;  -47.090; -250.119; -114.786
644.788;  184.812;  662.881;  548.214
645.060;   -0.085;  -12.119; -124.786
645.332; -170.983; -525.118; -535.787
645.603;  110.320;  479.882;  342.213
645.875; -115.777; -334.118; -369.787
646.147;  355.925; 1487.882; 1242.212
646.418; -147.772; -931.117; -918.788
646.690;  203.130; -714.117; -715.789
646.962;   86.333; -413.117; -451.789
647.233;    6.336;   15.883;   11.211
647.505; -149.362; -595.117; -475.790
647.776;  113.641;  328.884;  229.210
648.048;    8.843; -248.116; -418.790
648.320; -150.454; -752.116; -679.791
648.591; -262.651;-1055.116; -958.791
648.862; -150.949; -505.116; -577.792
649.134;   70.654;  115.885;  198.208
649.405;  -84.644; -661.115; -618.792
649.677;  -63.641; -475.115; -598.793
649.948;   22.862; -181.115; -296.793
650.219;   36.964;  -37.115; -147.793
650.491; -162.733; -431.114; -520.794
650.762; -198.031; -705.114; -731.794
651.033; -137.228; -437.114; -424.795
651.304; -164.125; -743.114; -728.795
651.576; -101.723; -680.114; -645.795
651.847;  -42.520; -250.113; -140.796
652.118;  -23.918;  -32.113; -189.796
652.389; -197.315; -639.113; -722.796
652.660;  -31.512; -147.113;  -89.797
652.931; -251.210; -897.112; -871.797
653.202; -125.507; -382.112; -541.798
653.473;  -92.504; -633.112; -533.798
653.744;  217.698; -595.112; -590.798
654.015;  188.101; -356.112; -303.799
654.286; -137.697; -642.111; -663.799
654.557;  -72.894; -586.111; -521.799
654.828; -312.391;-1114.111;-1088.800
655.099;  -92.089; -404.111; -291.800
655.370; -152.786; -427.111; -543.801
655.641; -178.484; -656.110; -714.801
655.911; -182.781; -618.110; -638.801
656.182;  118.222;  437.890;  387.198
656.453;  201.524;  830.890;  746.198
656.724; -111.273; -466.110; -426.802
656.994; -165.371; -553.109; -568.803
657.265; -204.168; -862.109; -873.803
657.536; -122.065; -500.109; -377.804
657.806; -175.863; -561.109; -593.804
658.077; -258.760; -866.109; -950.804
658.347; -154.358; -523.108; -598.805
658.618; -208.755; -646.108; -694.805
658.888;  -10.652;  -41.108;  112.195
659.159; -139.750; -432.108; -548.806
659.429;  -26.347; -292.108; -349.806
659.700;   -8.045; -435.107; -390.807
659.970;  -12.942; -370.107; -359.807
660.241;  -30.539; -754.107; -921.807
660.511;  715.063; -147.107; -174.808
660.781;  110.566; -793.106; -748.808
661.052;  -61.332; -222.106; -381.808
661.322;   -6.829;   21.894;   -9.809
661.592;   87.974;  257.894;  148.191
661.862; -111.424; -369.106; -382.810
662.133; -158.121; -551.105; -502.810
662.403; -200.919; -770.105; -676.810
662.673;  -71.216; -256.105; -213.811
662.943; -174.313; -612.105; -551.811
663.213;   18.589;  -85.105;  -81.811
663.483; -148.508; -593.104; -568.812
663.753;  -50.605; -194.104; -152.812
664.023;   16.297;   68.896;  -32.813
664.293;  -78.400; -319.104; -126.813
664.563; -187.198; -694.104; -648.813
664.833; -212.795; -743.103; -608.814
665.103; -237.292; -730.103; -793.814
665.373; -209.290; -766.103; -806.814
665.643; -196.287; -863.103; -918.815
665.913;   45.315; -534.103; -714.815
666.182;  179.318; -685.102; -719.816
666.452;  430.021;  -22.102;  -89.816
666.722;  -72.377; -724.102; -784.816
666.992; -257.274; -948.102; -921.817
667.261; -167.572; -824.102; -808.817
667.531;  337.331;  134.899;   45.183
667.801;  732.834; -440.101; -412.818
668.070;  453.836;  714.899;  697.182
668.340; -180.361; -883.101; -840.819
668.609;  234.341;  588.900;  301.181
668.879; -123.456; -490.100; -558.819
669.149; -118.753; -539.100; -516.820
669.418; -184.551; -698.100; -726.820
669.688;  -42.748; -482.100; -666.820
669.957;   87.654; -423.099; -546.821
670.226;  -24.943; -268.099; -331.821
670.496; -181.440; -431.099; -635.822
670.765; -121.338; -418.099; -501.822
671.034; -259.335; -872.099; -828.822
671.304;    5.867;   55.902; -111.823
671.573; -265.730;-1085.098; -957.823
671.842;  147.773; -380.098; -294.823
672.112;   31.775; -692.098; -586.824
672.381;   44.478; -239.098; -214.824
672.650; -248.919;-1005.097;-1021.825
672.919; -147.017; -631.097; -507.825
673.188; -150.214; -681.097; -878.825
673.457; -281.712;-1101.097;-1143.826
673.726; -126.109; -579.096; -646.826
673.995;  -92.006; -533.096; -479.826
674.265;  -60.504; -263.096; -333.827
674.534;   44.299; -183.096; -235.827
674.802;  -19.699; -618.096; -703.828
675.071; 1601.604; -886.095; -801.828
675.340; 5617.907; -464.095; -339.828
675.609; 2028.709;  103.905;   82.171
675.878;   55.612; -949.095; -893.829
676.147;   73.414;  -26.095;   -8.829
676.416;  153.317; -210.094; -294.830
676.685; 1190.420; 1000.906; -622.830
676.953;  163.022; -603.094; -452.831
677.222;  -26.675; -193.094; -273.831
677.491;  -24.573;  -24.094; -127.831
677.759;   54.330;   11.907;  172.168
678.028;   14.933; -279.093; -222.832
678.297;   17.635;   71.907;  197.168
678.565; -238.262; -898.093; -944.833
678.834;  -76.160; -311.093; -268.833
679.102; -119.457; -411.092; -391.834
679.371; -222.154; -898.092; -727.834
679.639; -255.852; -797.092; -786.834
679.908; -202.149; -794.092; -724.835
680.176; -280.947; -895.091; -941.835
680.445; -126.944; -346.091; -352.835
680.713;    4.159;  -58.091;  -23.836
680.982; -156.439; -523.091; -525.836
681.250; -150.936; -578.091; -507.837
681.518; -141.933; -534.090; -751.837
681.787;  -39.931; -204.090; -167.837
682.055;  -97.428; -490.090; -422.838
682.323; -284.926; -993.090; -992.838
682.591;   67.877; -216.090; -538.838
682.859;  162.280;    9.911;  -35.839
683.128;   82.082;  232.911;  497.161
683.396; -275.715;-1102.089;-1122.840
683.664;   28.587; -241.089;   21.160
683.932;   43.290;  144.911;  -76.840
684.200; -114.107; -576.088; -320.841
684.468;  -26.305;  -73.088; -124.841
684.736;  -29.202; -214.088; -175.841
685.004; -226.200;-1024.088; -982.842
685.272; -108.397; -880.088; -774.842
685.540; -146.394; -499.087; -557.843
685.808; -100.192; -651.087; -682.843
686.076; -198.089; -894.087; -969.843
686.343; -113.987; -601.087; -815.844
686.611;   71.616; -195.087; -224.844
686.879;  806.219; -530.086; -553.844
687.147; 4795.921; -483.086; -480.845
687.414; 1403.424;  -12.086; -169.845
687.682;  -12.974; -658.086; -757.846
687.950;  542.629;  259.915;  263.154
688.217;  -30.268; -792.085; -760.846
688.485;   20.134; -632.085; -636.847
688.753;  769.837;  -11.085; -102.847
689.020;  192.539; -820.085; -851.847
689.288; -196.458; -853.084; -787.848
689.555;  -20.155; -195.084; -148.848
689.823;  -43.053; -241.084; -345.849
690.090; -130.850; -546.084; -651.849
690.358; -250.748; -877.084; -897.849
690.625;   58.855;  120.917;   45.150
690.892; -127.142; -403.083; -369.850
691.160;   27.660;   72.917;  -35.850
691.427;   44.763;  141.917;  130.149
691.694; -205.434; -855.083; -929.851
691.962; -263.932;-1177.082;-1060.852
692.229;   79.771;  127.918;   56.148
692.496;  186.173;  130.918;  -49.852
692.763;   40.876; -164.082; -201.853
693.031; -145.721; -739.082; -716.853
693.298;  -56.419; -509.081; -368.853
693.565;  516.584; -155.081; -163.854
693.832; 1859.886;   -5.081;   -9.854
694.099;  195.689; -643.081; -642.855
694.366; -121.308; -882.081; -896.855
694.633; -135.006; -920.080; -633.855
694.900; 1557.597; 4367.920; -114.856
695.167;  626.199; -214.080; -380.856
695.434;  150.602; -646.080; -623.856
695.701;  323.005;  121.921;  -61.857
695.968;  684.807; -365.079; -361.857
696.234; 1615.610; -415.079; -646.858
696.501;15213.712; -776.079; -614.858
696.768; 7326.915; -554.079; -617.858
697.035;  462.218; -632.078; -667.859
697.302;   33.320; -448.078; -552.859
697.568;   29.123; -458.078; -497.859
697.835;  -74.775; -683.078; -624.860
698.102;  -14.572; -498.078; -407.860
698.368;  205.831;  384.923;  396.139
698.635;  -26.767;  -47.077; -424.861
698.901;  -20.664; -240.077; -348.861
699.168;  114.038; -534.077; -456.862
699.435;  141.941;  -72.077;  -13.862
699.701; -206.156; -868.076; -764.862
699.968;  -59.454;  144.924; -441.863
700.234; -154.251; -783.076; -822.863
700.500;  -78.448; -448.076; -539.864
700.767;   29.154;   -1.075;   26.136
701.033; -228.843;-1015.075; -963.864
701.299;  -67.941; -450.075; -483.865
701.566;  257.862;  950.925;  763.135
701.832;   91.665;  -31.075;  -76.865
702.098; -184.333;-1054.074;-1034.866
702.365; -152.230;-1098.074;-1030.866
702.631;  -67.428;-1038.074;-1063.867
702.897; 2034.475; -765.074; -676.867
703.163; 3207.278;  348.926;  254.133
703.429;  260.880; -256.073; -273.868
703.695; -110.317; -796.073; -792.868
703.961;   58.585; -214.073; -210.868
704.227; -103.612; -630.073; -725.869
704.493;  275.691;  613.927;  510.131
704.759;  -61.007; -565.072; -540.870
705.025;   55.696; -203.072; -194.870
705.291;  -31.802; -666.072; -562.870
705.557;  376.401;  719.928;   34.129
705.823;   25.604; -742.072; -694.871
706.089;  225.306; -307.071; -326.871
706.355;  592.209; -315.071; -244.872
706.620; 8397.311; -776.071; -729.872
706.886;10748.714; -309.071; -362.873
707.152;  993.417; -818.070; -973.873
707.418;  -93.181;-1153.070;-1186.873
707.683;    4.222; -550.070; -530.874
707.949;  -70.476; -547.070; -578.874
708.215;   40.227; -129.070; -207.874
708.480;    6.830; -520.069; -420.875
708.746;  177.532;   68.931;   28.125
709.011;  -96.365; -578.069; -612.876
709.277; -126.563; -538.069; -543.876
709.542;  -64.660; -428.069; -387.876
709.808;   25.643;  -59.068;   89.123
710.073; -148.955; -577.068; -695.877
710.339;   17.748; -242.068; -228.877
710.604;   72.151; -780.068; -845.878
710.869;  484.653; -277.068; -366.878
711.135; -122.744; -715.067; -628.879
711.400; -104.442; -507.067; -608.879
711.665;  -90.139; -404.067; -479.879
711.931; -141.736; -661.067; -677.880
712.196; -227.234; -876.067; -954.880
712.461;  186.069; -402.066; -490.880
712.726;  139.771; -727.066; -771.881
712.991; -165.826; -647.066; -664.881
713.256;  -69.123; -350.066; -332.882
713.521;  -76.321; -417.065; -381.882
713.787;  -97.118; -454.065; -472.882
714.052;  -38.816; -214.065; -400.883
714.317; -194.613;-1045.065; -981.883
714.581; 1519.590; -374.065; -268.883
714.846; 1747.992; -822.064; -888.884
715.111;  246.995;  261.936;  257.116
715.376;  -14.203;  -86.064; -223.885
715.641;   -0.200; -365.064; -367.885
715.906;  412.603;   15.936; -551.885
716.171;  260.405;  221.937;  209.114
716.436;   64.708;  -78.063; -104.886
716.700; -156.790; -818.063; -692.886
716.965; -204.287; -794.063; -807.887
717.230;  -98.984; -339.063; -392.887
717.494;  -16.382;  -40.062; -134.888
717.759; -152.379; -784.062; -640.888
718.024;   63.423;  269.938;  250.112
718.288;  190.026;  685.938;  395.111
718.553; -251.271; -803.062; -977.889
718.817; -229.569; -883.061; -899.889
719.082;  -21.166; -115.061; -125.890
719.346; -236.063;-1000.061; -947.890
719.611;  -31.661; -300.061; -255.891
719.875; -161.658; -568.060; -537.891
720.140;  -97.256; -453.060; -603.891
720.404;  116.747; -136.060; -249.892
720.668; 1267.050; -475.060; -411.892
720.933;  496.452;  146.940;  137.108
721.197; -163.345; -667.059; -600.893
721.461; -218.743; -851.059; -826.893
721.725;   37.860;  -21.059; -250.894
721.990;  -54.937; -284.059; -204.894
722.254;  -14.035;  -26.059; -108.894
722.518;  -80.332; -286.058; -442.895
722.782; -152.430; -743.058; -594.895
723.046;  292.573;  614.942;  570.105
723.310;   84.476;  374.942;  210.104
723.574; -135.222; -654.058; -614.896
723.838; -174.119; -576.057; -642.897
724.102;  -19.517; -226.057; -239.897
724.366; -263.014;-1032.057; -978.897
724.630; -162.511; -749.057; -571.898
724.894; -106.709; -722.057; -514.898
725.158;   17.894;   38.944; -295.898
725.422;  -81.204; -394.056; -327.899
725.685;  -91.201; -441.056; -349.899
725.949; -158.098; -566.056; -519.900
726.213; -119.096; -732.056; -811.900
726.477;  177.207;-1020.055; -933.900
726.740;  246.409; -274.055; -104.901
727.004;  516.012; -384.055; -510.901
727.268; 4601.115; -442.055; -400.901
727.531; 1131.117; -961.055; -775.902
727.795;  -64.680; -713.054; -673.902
728.059; -106.577; -552.054; -557.903
728.322;  -94.075; -841.054; -669.903
728.586;   -1.372; -692.054; -701.903
728.849; -143.270; -695.053; -756.904
729.112; -202.067; -812.053; -912.904
729.376; -217.664; -959.053; -905.904
729.639; -123.562; -536.053; -536.905
729.903; -149.659; -733.053; -699.905
730.166;  -59.857; -437.052; -399.906
730.429;    5.346; -317.052; -468.906
730.693;  -93.851; -355.052; -894.906
730.956;  439.251;  810.948;  651.093
731.219; 1043.454; -310.052; -103.907
731.482;  165.056;-1003.051; -894.907
731.745;   73.559; -794.051; -935.908
732.009;   85.062;  -30.051;   50.092
732.272; -158.436; -904.051; -771.909
732.535;  -24.533; -300.051; -310.909
732.798; -261.931;-1083.050;-1166.909
733.061;  -92.728; -430.050; -456.910
733.324;   50.875;   31.950; -180.910
733.587;  180.077;  290.950;  365.090
733.850; -117.720; -973.049;-1050.911
734.113;  109.782;   33.951;   32.089
734.376;    6.085; -328.049; -447.912
734.639;  485.888; 1188.951; 1011.088
734.901;  133.790; -180.049; -402.912
735.164;  785.893; -883.048; -837.913
735.427; 1886.295; -166.048; -355.913
735.690;  212.398; -205.048; -234.913
735.952;  -89.999; -923.048; -925.914
736.215;  -74.897;-1113.048;-1009.914
736.478;   60.006; -771.047; -774.915
736.740;  376.508;   33.953;  129.085
737.003; 1184.711; -658.047; -672.915
737.266; 5957.514;  -94.047;   46.084
737.528;  670.316; -682.047; -660.916
737.791;  484.619; -316.046; -327.916
738.053; 1335.722;  465.954;  649.083
738.316;16012.124; -162.046; -136.917
738.578;10114.227; -770.046; -736.918
738.841;  661.329; -382.046; -446.918
739.103;  285.032; -875.045; -777.918
739.365;  785.235;   79.955;  -69.919
739.628;  -10.363; -884.045; -805.919
739.890;  -43.660; -758.045; -710.919
740.152;  -89.358; -692.044; -754.920
740.414;   36.045; -408.044; -359.920
740.677; -104.552; -785.044; -634.921
740.939;  -46.950; -587.044; -487.921
741.201;  411.453; -432.044; -572.921
741.463;   68.055; -689.043; -745.922
741.725;   76.758;  -21.043; -199.922
741.987;  160.461;  220.957;  116.078
742.249;  -18.337; -751.043; -859.923
742.511;  289.766; -703.043; -794.923
742.773;   53.268; -546.042; -546.924
743.035;  276.371;  796.958;  533.076
743.297;  -77.726; -963.042;-1013.924
743.559; 1105.776; -278.042; -262.925
743.821;   72.079; -735.042; -744.925
744.083;   68.681;  -44.041; -149.925
744.345; -169.516; -869.041; -892.926
744.607;  118.887;   75.959;  122.074
744.868;  -47.211; -490.041; -554.927
745.130; -206.508; -994.041;-1008.927
745.392;  120.194;   -1.040;  -44.927
745.653;   -7.003; -411.040; -378.928
745.915;  310.700;  896.960;  631.072
746.177;  149.902;   35.960;  -43.928
746.438;   12.005; -428.040; -543.929
746.700;  -73.092; -947.039; -988.929
746.961;   -3.890; -659.039; -740.930
747.223;  251.513; -190.039;  -74.930
747.484;  118.215; -391.039; -471.930
747.746;  235.718;  -23.038; -106.931
748.007;  186.921; -647.038; -689.931
748.269;  505.523; -468.038; -440.931
748.530;  713.526; -852.038; -638.932
748.791;  393.828; -354.038; -420.932
749.053;  717.631;  286.963;  163.067
749.314;  744.434; -236.037; -169.933
749.575;  756.236; -945.037; -905.933
749.836; 1337.339; -217.037;   86.066
750.098; 4262.841;  -60.037;  -21.934
750.359;53111.944;  414.964;  555.066
750.620;12682.847; -121.036; -220.935
750.881; 1641.549; -585.036; -513.935
751.142; 2138.252; -950.036; -938.936
751.403;25258.554; -789.036; -705.936
751.664; 9870.357;-1034.035; -999.936
751.925;  810.860; -175.035; -262.937
752.186;  464.962; -298.035; -278.937
752.447;  208.565; -590.035; -445.937
752.708;   59.967; -532.035; -648.938
752.969;   58.470; -566.034; -576.938
753.230;  -21.927; -777.034; -672.939
753.491;   -6.425; -650.034; -631.939
753.751;  139.578;  109.966;   19.061
754.012;  230.880;  258.967;  181.060
754.273;  115.583; -174.033;  -71.940
754.534;   20.686; -487.033; -580.940
754.794; -156.712; -926.033; -911.941
755.055;  404.891; 1051.967;  881.059
755.316;  -60.206; -700.032; -566.942
755.576;   -3.104; -606.032; -576.942
755.837;  -61.401; -527.032; -695.942
756.097;  -35.099; -530.032; -564.943
756.358; -111.896; -725.032; -770.943
756.618;  -78.893; -705.031; -641.943
756.879;   22.309; -254.031; -349.944
757.139; -189.488;-1098.031;-1116.944
757.400;  -97.986; -538.031; -553.945
757.660;   43.417; -365.031; -401.945
757.920;   33.220; -266.030; -228.945
758.181;    9.422; -468.030; -351.946
758.441; -153.275; -870.030; -809.946
758.701;  -10.273; -308.030; -215.946
758.961;   -0.870; -220.030; -278.947
759.222;  -76.367; -574.029; -502.947
759.482; -146.465; -683.029; -723.948
759.742; -118.562; -706.029; -547.948
760.002;   64.240;  -83.029; -143.948
760.262;  122.943;   50.972;  182.051
760.522;  -67.554; -498.028; -574.949
760.782;  -65.452; -738.028; -612.949
761.042;  -74.049; -618.028; -573.950
761.302;  123.253;   55.972;  -18.950
761.562;  144.156; -164.027; -154.951
761.822;  188.159; -710.027; -551.951
762.082;  -74.939;-1104.027;-1093.951
762.342;  159.764; -328.027; -403.952
762.601;  162.866; -567.027; -506.952
762.861;  599.269; -281.026; -207.952
763.121;  760.772; -406.026; -411.953
763.381;12825.574; -499.026; -485.953
763.640;12138.177; -139.026; -307.954
763.900;  639.079; -242.026; -203.954
764.160;  156.582; -458.025; -491.954
764.419;   -8.815; -726.025; -782.955
764.679;  -67.213; -795.025; -726.955
764.939;   31.190; -124.025; -210.955
765.198; -129.507; -608.025; -563.956
765.458; -130.605; -710.024; -612.956
765.717; -123.502; -454.024; -590.957
765.976;  -84.100; -428.024; -411.957
766.236;  -84.297; -475.024; -610.957
766.495;  116.206;  260.977;   73.042
766.755; -173.492;-1090.023; -987.958
767.014;    6.311; -594.023; -665.958
767.273;  -65.887; -373.023; -397.959
767.533;  -19.684; -228.023; -307.959
767.792;   28.919; -151.022; -188.960
768.051;  -38.879; -228.022; -276.960
768.310; -125.176; -546.022; -650.960
768.569;   52.926; -161.022;    4.039
768.828;  -29.871; -285.022; -363.961
769.088; -219.968;-1050.021; -942.961
769.347; -126.366; -755.021; -599.962
769.606; -139.163; -876.021; -857.962
769.865; -233.461;-1016.021;-1033.963
770.124;   24.942; -411.021; -336.963
770.383;  -91.155; -778.020; -910.963
770.641;    0.147; -398.020; -400.964
770.900; -137.350; -953.020; -846.964
771.159;  -95.648; -851.020; -951.964
771.418;  -41.745; -917.020; -779.965
771.677;  232.758; -224.019; -293.965
771.936;  177.260; -794.019; -865.966
772.194; 3724.463; -465.019; -437.966
772.453;15608.765; -213.019; -391.966
772.712; 1211.968;  416.982;  329.033
772.970;  236.071;   32.982;   63.033
773.229;  192.173;  -22.018;  102.033
773.488; -157.624; -814.018; -770.968
773.746;  184.779;  296.982;  335.032
774.005;   61.881;  190.983;  -22.969
774.263;   75.384;  243.983;  177.031
774.522; -120.214; -422.017; -548.969
774.780;  -96.211; -484.017; -417.970
775.039; -126.308; -551.017; -531.970
775.297;    7.894; -135.016; -351.970
775.555; -159.503; -489.016; -612.971
775.814; -160.701; -618.016; -570.971
776.072; -202.198; -749.016; -740.971
776.330; -139.595; -630.016; -520.972
776.589; -191.493; -703.015; -721.972
776.847; -188.490; -645.015; -624.973
777.105; -275.088;-1016.015;-1032.973
777.363; -107.285; -459.015; -454.973
777.621; -251.282; -660.015; -717.974
777.879;   10.220;  -42.014;   32.026
778.138; -137.377; -554.014; -717.974
778.396; -155.875; -585.014; -526.975
778.654; -274.772;-1015.014; -970.975
778.912;  -71.369; -269.014; -371.976
779.170; -244.367; -880.013; -803.976
779.427; -263.264; -922.013; -897.976
779.685; -237.262; -880.013; -832.977
779.943; -136.959; -654.013; -593.977
780.201; -282.156; -964.012; -883.978
780.459; -174.654; -651.012; -610.978
780.717; -103.051; -440.012; -390.978
780.974; -129.849; -449.012; -490.979
781.232; -118.246; -358.012; -338.979
781.490; -139.143; -551.011; -472.979
781.747; -141.841; -555.011; -476.980
782.005;  121.962;  462.989;  254.020
782.263; -291.735; -542.011;-1004.981
782.520; -108.033; -326.011; -501.981
782.778; -286.830;-1013.010;-1051.981
783.035; -262.928; -962.010; -938.982
783.293;  -51.325; -248.010; -206.982
783.550;  -29.422; -134.010; -198.982
783.808; -222.420; -764.010; -776.983
784.065; -268.117; -745.009; -874.983
784.322;  -30.915;   25.991;  -86.984
784.580; -196.112; -915.009; -771.984
784.837; -127.009; -392.009; -466.984
785.094; -229.007; -783.009; -762.985
785.352;  -99.604; -304.008; -404.985
785.609; -179.102; -934.008; -839.985
785.866; -126.599; -345.008; -401.986
786.123; -100.296; -639.008; -583.986
786.380; -147.794; -665.008; -604.987
786.637;  -32.791; -225.007; -380.987
786.895;  -18.289; -456.007; -543.987
787.152;  -19.786; -135.007; -267.988
787.409;  -47.483; -123.007; -225.988
787.666;  -72.681; -299.006; -378.988
787.923; -167.878; -616.006; -695.989
788.179; -136.676; -551.006; -584.989
788.436; -166.873; -585.006; -585.990
788.693;    2.930;  -92.006;  -87.990
788.950;  279.232; -125.005; -112.990
789.207;  283.935; -381.005; -372.991
789.464;  -22.163; -161.005; -301.991
789.720;   60.940;  150.995;  110.009
789.977; -301.557;-1003.005; -671.992
790.234;  -23.555;   44.996;  -66.992
790.490; -244.552; -884.004;-1031.993
790.747;    4.050;  -85.004;   22.007
791.004;   -2.947; -426.004; -348.993
791.260; -112.544; -430.004; -560.994
791.517; -181.042; -843.003; -788.994
791.773;  -13.939; -379.003; -342.994
792.030; -153.936; -596.003; -660.995
792.286; -128.434; -686.003; -636.995
792.543;   29.169;  -74.002; -159.995
792.799;  -52.429; -584.002; -382.996
793.055; -284.526;-1179.002;-1210.996
793.312; -144.823; -827.002; -816.997
793.568; -109.121; -746.002; -599.997
793.824;   98.382; -226.001; -284.997
794.081;   52.984; -447.001; -508.998
794.337;  128.187; -664.001; -561.998
794.593; 2611.090; -319.001; -271.999
794.849;10114.992; -746.001; -772.999
795.105;  513.095; -270.000; -261.999
795.361;   59.497; -490.000; -457.000
795.617; -116.300; -875.000; -945.000
795.873;  -38.800; -360.000; -407.000
796.129;  -26.300; -368.000; -306.000
796.385;    0.800; -124.000; -156.000
796.641;  181.000;  412.000;  550.000
796.897; -118.000; -666.000; -635.000
797.153;  196.500;  453.000;  357.000
797.409; -158.200; -785.000; -868.000
797.665; -121.200; -625.000; -732.000
797.921; -123.200; -775.000; -762.000
798.176;  -77.500; -744.000; -747.000
798.432; -109.100; -824.000; -596.000
798.688; -162.500;-1174.000;-1078.000
798.943;  146.800; -165.000; -147.000
799.199;  -23.300;-1005.000; -959.000
799.455;  442.300;  369.000;  316.000
799.710;  143.000; -813.000; -380.000
799.966;  430.500; -162.000; -160.000
800.221;  666.700; -638.000; -721.000
800.477;16128.600; -743.000; -710.000
800.732;11448.700; -773.000; -800.000
800.988;  996.800;  205.000;  -19.000
801.243; 3267.100; -454.000; -344.000
801.498;11045.300; -814.000; -739.000
801.754;  645.000; -289.000; -163.000
802.009;  175.700; -257.000; -335.000
802.264; -111.000; -967.000;-1033.000
802.520;   59.500;  222.000;   -3.000
802.775;  -69.300; -524.000; -359.000
803.030;  171.600;  395.000;  356.000
803.285; -205.400; -840.000; -903.000
803.540;  -74.900; -686.000; -699.000
803.795;  -75.300; -648.000; -583.000
804.051;  -16.300; -279.000; -346.000
804.306;  102.500;  168.000;  128.000
804.561;  318.500;  451.000;  362.000
804.816;  333.000;  714.000;  861.000
805.071;   60.000; -185.000; -280.000
805.325;  352.400; -257.000; -427.000
805.580; -160.400; -841.000; -877.000
805.835;   25.600; -204.000; -297.000
806.090;  -90.400; -760.000; -676.000
806.345;    5.400; -344.000; -264.000
806.600;  -26.100; -549.000; -632.000
806.854;  -27.100; -408.000; -538.000
807.109;   19.400; -493.000; -577.000
807.364;   21.200; -407.000; -328.000
807.618;   21.000; -415.000; -381.000
807.873;   73.900; -470.000; -494.000
808.128;  197.100; -257.000; -518.000
808.382;  156.800; -224.000; -332.000
808.637;  156.800; -440.000; -511.000
808.891;  306.300; -257.000; -180.000
809.146;  143.600; -902.000; -794.000
809.400;  415.300; -848.000; -923.000
809.654;  537.300; -779.000; -551.000
809.909;  738.800; -841.000; -927.000
810.163;11927.400; -813.000; -651.000
810.418;24986.500; -940.000; -861.000
810.672; 1570.500; -685.000; -690.000
810.926; 1174.900; -993.000; -973.000
811.180; 2412.600; -439.000; -372.000
811.434;50788.800;  240.000;  135.000
811.689;16745.000; -231.000; -365.000
811.943;  881.000; -936.000; -953.000
812.197;  489.100; -893.000; -671.000
812.451;  211.300; -379.000; -514.000
812.705;  -45.400; -809.000; -619.000
812.959;    9.100; -263.000; -388.000
813.213;   59.900; -283.000; -209.000
813.467;  212.700;  470.000;  253.000
813.721; -120.700; -764.000; -792.000
813.975; -177.600; -826.000; -877.000
814.229;  152.900;  430.000;  353.000
814.482;  -60.200; -517.000; -566.000
814.736; -168.200; -766.000; -744.000
814.990; -198.100; -779.000; -872.000
815.244;  -19.800; -228.000; -285.000
815.497; -159.800; -636.000; -601.000
815.751;   11.900; -141.000;   82.000
816.005; -146.800; -470.000; -586.000
816.258;  -51.700; -510.000; -363.000
816.512; -169.300; -693.000; -610.000
816.766;   82.100;  121.000;  157.000
817.019;  103.500;  148.000;  149.000
817.273; -187.700;-1000.000; -802.000
817.526;   -3.200; -206.000; -173.000
817.779;  -95.900;-1049.000; -960.000
818.033; -121.500; -693.000; -807.000
818.286; -173.400; -725.000; -792.000
818.540; -132.600; -403.000; -403.000
818.793;  -89.800; -402.000; -489.000
819.046; -167.700; -582.000; -520.000
819.299;    2.200; -157.000; -166.000
819.553; -150.100; -552.000; -592.000
819.806; -271.600;-1016.000; -838.000
820.059;  -83.900; -334.000; -354.000
820.312;   85.000;  152.000;  185.000
820.565;   11.600;  110.000;  -27.000
820.818;  -34.600;  -59.000; -173.000
821.071; -290.200;-1041.000; -957.000
821.324; -173.800; -536.000; -540.000
821.577; -153.200; -457.000; -483.000
821.830;  -89.100; -270.000; -172.000
822.083; -201.600; -733.000; -288.000
822.336;  -50.100; -261.000; -167.000
822.589; -222.400; -805.000; -688.000
822.842; -210.400; -875.000; -770.000
823.094; -296.700;-1076.000;-1114.000
823.347; -219.400; -925.000; -729.000
823.600;  103.600;  402.000;  187.000
823.853;  -30.600; -311.000; -267.000
824.105;  -86.300; -331.000; -575.000
824.358; -184.100; -617.000; -716.000
824.611;  100.700;  234.000;   40.000
824.863;  -93.800; -612.000; -591.000
825.116;  119.100;  -33.000;   27.000
825.368;  139.500; -366.000; -372.000
825.621;  254.100; -186.000; -240.000
825.873;  109.700; -704.000; -737.000
826.126; 1004.800; -669.000; -641.000
826.378;17698.300; -389.000; -505.000
826.630; 3296.200; -890.000; -898.000
826.883;   75.600; -754.000; -693.000
827.135;   75.400; -279.000; -270.000
827.387; -174.300; -893.000; -839.000
827.639;   -2.400;  -86.000;   32.000
827.892; -228.100; -742.000; -582.000
828.144; -227.900; -848.000; -804.000
828.396;    5.200;  104.000;  -80.000
828.648; -154.400; -440.000; -333.000
828.900; -236.000; -702.000; -795.000
829.152; -209.800; -684.000; -683.000
829.404;  -72.900; -215.000; -267.000
829.656;   54.100;  321.000;  214.000
829.908;   46.300;  393.000;  229.000
830.160; -261.500;-1064.000;-1047.000
830.412; -126.700; -481.000; -430.000
830.664; -192.000; -557.000; -665.000
830.916;  -99.000; -268.000; -206.000
831.167; -300.100;-1073.000; -951.000
831.419; -140.400; -623.000; -566.000
831.671; -250.900; -764.000; -809.000
831.923; -116.200; -311.000; -447.000
832.174;  -83.300; -273.000; -331.000
832.426; -139.400; -493.000; -582.000
832.678; -332.700;-1043.000;-1091.000
832.929; -239.500; -947.000; -935.000
833.181;  -81.200; -575.000; -677.000
833.432;  -48.500;  -59.000; -186.000
833.684;   26.600;  112.000;  -27.000
833.935; -166.600; -610.000; -566.000
834.187; -200.500; -829.000; -823.000
834.438;    2.300;  -58.000;  -25.000
834.689;  -40.800; -255.000; -123.000
834.941;  -44.500; -343.000; -244.000
835.192; -123.100; -590.000; -533.000
835.443; -108.500; -419.000; -506.000
835.695;   18.600;  138.000;  -16.000
835.946; -140.800; -608.000; -378.000
836.197; -162.500; -599.000; -622.000
836.448;  -92.900; -528.000; -395.000
836.699;  -63.000; -253.000; -341.000
836.950;   35.600;   72.000;    7.000
837.201; -241.300;-1003.000; -987.000
837.452;   -8.700; -356.000; -170.000
837.703; -197.300; -791.000; -737.000
837.954;  -40.300; -205.000; -365.000
838.205; -149.300;-1029.000;-1008.000
838.456;  286.400; -196.000; -282.000
838.707;   31.400; -423.000; -519.000
838.958;   20.000; -634.000; -647.000
839.209;  452.100;   18.000;   40.000
839.460;  203.400; -439.000; -201.000
839.710;  252.000; -135.000; -297.000
839.961;  779.900;  730.000;  612.000
840.212;  527.800; -382.000; -497.000
840.462; 1916.400; -328.000; -277.000
840.713;28666.400; -571.000; -536.000
840.964; 9174.700;  -62.000; -143.000
841.214;  742.900; -384.000; -624.000
841.465;  930.300; -214.000; -141.000
841.715;  827.000; -417.000; -380.000
841.966; 1104.900; -746.000; -685.000
842.216;17437.200; -330.000; -431.000
842.466;51893.100; -169.000; -313.000
842.717; 2195.800; -964.000; -952.000
842.967;  573.700; -635.000; -641.000
843.217;  457.300;   20.000;   28.000
843.468;  172.600; -104.000; -132.000
843.718;  -24.800; -718.000; -726.000
843.968; -134.500; -837.000; -765.000
844.218;   49.100; -315.000; -262.000
844.469;  -53.100; -577.000; -561.000
844.719; -162.300; -537.000; -682.000
844.969; -129.200; -550.000; -580.000
845.219; -202.600; -814.000; -862.000
845.469; -101.400; -392.000; -342.000
845.719; -220.000; -792.000; -884.000
845.969;   33.800;  119.000;  174.000
846.219; -183.900; -738.000; -720.000
846.469;  123.500;  464.000;  432.000
846.718;  -23.900; -115.000;   31.000
846.968; -204.300; -827.000; -827.000
847.218;  -44.100; -224.000; -371.000
847.468; -164.800; -586.000; -555.000
847.718; -241.700; -827.000; -798.000
847.967; -193.500; -826.000; -915.000
848.217; -105.100; -449.000; -569.000
848.467;  -54.700; -405.000; -376.000
848.716; -162.200; -708.000; -725.000
848.966;   12.200; -372.000; -358.000
849.215;  -81.100; -428.000; -419.000
849.465; -120.800; -785.000; -615.000
849.714; -254.300;-1132.000;-1150.000
849.964;  -75.300; -551.000; -613.000
850.213;  -20.600; -393.000; -355.000
850.463;  184.100;  137.000;  340.000
850.712;  -25.900; -542.000; -567.000
850.961;   19.300; -739.000; -678.000
851.211;  123.600; -513.000; -504.000
851.460;  185.800; -635.000; -650.000
851.709;  914.500;  -25.000;   18.000
851.958;17015.700; -912.000; -750.000
852.208;16437.500; -859.000; -879.000
852.457;  612.000; -181.000;  -13.000
852.706;  112.200; -791.000; -823.000
852.955;   -7.300; -507.000; -528.000
853.204;  -91.600; -521.000; -461.000
853.453;  -90.000; -418.000; -458.000
853.702; -202.300; -660.000; -750.000
853.951; -153.000; -532.000; -520.000
854.200; -200.900; -613.000; -562.000
854.449; -194.500; -695.000; -661.000
854.698; -131.600; -340.000; -279.000
854.946;  -69.000; -181.000; -284.000
855.195; -245.900; -843.000; -868.000
855.444; -104.600; -395.000; -420.000
855.693; -150.400; -345.000; -432.000
855.941; -137.000; -387.000; -516.000
856.190;  -12.000; -256.000; -382.000
856.439; -168.100; -652.000; -703.000
856.687;  -79.900;  -99.000;  -72.000
856.936; -150.100; -621.000; -323.000
857.184; -295.600;-1067.000;-1020.000
857.433; -141.900; -423.000; -512.000
857.681; -277.900; -989.000; -953.000
857.930;  -66.900; -282.000; -433.000
858.178; -292.700; -856.000; -929.000
858.427; -241.800; -802.000; -781.000
858.675; -166.200; -377.000; -544.000
858.923; -134.000; -527.000; -819.000
859.172; -302.800;-1094.000;-1070.000
859.420; -108.800; -339.000; -239.000
859.668; -202.500; -624.000; -628.000
859.916;   31.800;  109.000;  115.000
860.164; -168.400; -699.000; -603.000
860.413;  444.900; -878.000; -696.000
860.661;  259.000; -709.000; -577.000
860.909;  -68.800; -339.000; -325.000
861.157; -102.200; -277.000; -444.000
861.405; -173.500; -534.000; -670.000
861.653;   86.600;  310.000;  310.000
861.901;  359.900; -543.000; -613.000
862.149;  -64.500; -801.000; -824.000
862.396;  -75.100; -297.000; -187.000
862.644; -129.700; -368.000; -347.000
862.892;   26.000;   98.000;  138.000
863.140; -171.800; -549.000; -530.000
863.388; -241.500; -815.000; -759.000
863.635; -191.200; -642.000; -601.000
863.883;   50.900;  231.000;  190.000
864.131; -106.500; -288.000; -357.000
864.378; -200.700; -675.000; -540.000
864.626; -133.800; -347.000; -415.000
864.873; -158.400; -556.000; -505.000
865.121; -231.100; -714.000; -799.000
865.368;  -24.200; -173.000;   75.000
865.616;  -33.000;  -33.000;  -40.000
865.863; -102.400; -462.000; -506.000
866.111; -212.800; -795.000; -824.000
866.358;   68.000; -426.000; -420.000
866.605; 3753.300;  -64.000; -804.000
866.853; 2935.300; -621.000; -537.000
867.100; -116.000; -728.000; -775.000
867.347; -148.900; -672.000; -611.000
867.594; -106.200; -740.000; -714.000
867.841;  214.700;   97.000;   17.000
868.089; -217.600; -746.000; -698.000
868.336; -150.100; -477.000; -420.000
868.583; -233.700; -637.000; -741.000
868.830;  -35.600; -131.000; -170.000
869.077; -272.000; -859.000; -787.000
869.324; -193.900; -502.000; -458.000
869.571; -185.000; -398.000; -430.000
869.818; -181.300; -485.000; -439.000
870.065; -143.100; -439.000; -513.000
870.311; -162.100; -456.000; -542.000
870.558; -111.000; -332.000; -311.000
870.805;  -98.800; -320.000; -384.000
871.052; -151.600; -494.000; -369.000
871.298;  -51.300; -204.000; -131.000
871.545;  -73.800; -151.000; -185.000
871.792; -111.600; -173.000; -222.000
872.038;  -68.700;   43.000; -126.000
872.285; -184.700; -496.000; -387.000
872.532; -130.400; -357.000; -387.000
872.778;  140.000;  556.000;  403.000
873.025; -161.300; -384.000; -359.000
873.271;  140.300;  501.000;  578.000
873.517;   13.900; -133.000; -209.000
873.764;  -29.100; -193.000;  -80.000
874.010;  -59.600; -143.000; -230.000
874.257;   22.000;  123.000;   90.000
874.503; -206.900; -579.000; -479.000
874.749;  -59.200;   31.000;  275.000
874.995;  -73.600;  -80.000;  -20.000
875.242; -164.500; -540.000; -478.000
875.488; -153.600; -414.000; -439.000
875.734;  -38.700; -106.000; -234.000
875.980;  341.500; -872.000;-1032.000
876.226;  543.300; -157.000; -255.000
876.472;   70.300;  343.000;  237.000
876.718;   -2.500;  184.000;  158.000
876.964;  -31.600;   56.000;   55.000
877.210; -213.800; -547.000; -677.000
877.456; -197.800; -630.000; -557.000
877.702; -272.900; -821.000; -832.000
877.948; -160.400; -377.000; -497.000
878.193;  115.300;  361.000;  255.000
878.439; -164.800; -487.000; -472.000
878.685; -100.700; -272.000; -343.000
878.931; -191.700; -618.000; -676.000
879.176;  -80.600; -201.000; -201.000
879.422; -289.300; -933.000; -820.000
879.668;  108.500;   10.000;   79.000
879.913;  265.200;   53.000;  137.000
880.159;  -56.800; -112.000;  -17.000
880.404;  -23.800; -152.000; -162.000
880.650;  -28.200;   91.000;  141.000
880.895; -266.400; -670.000; -710.000
881.141; -178.500; -454.000; -428.000
881.386; -242.600; -503.000; -658.000
881.631; -123.900; -311.000; -166.000
881.877;  -17.200;  112.000;  -13.000
882.122; -196.000; -684.000; -600.000
882.367; -129.300; -136.000; -186.000
882.612;  -71.100;  -80.000; -176.000
882.858; -277.700; -877.000; -823.000
883.103;  -97.100; -297.000; -267.000
883.348; -262.800; -759.000; -852.000
883.593; -215.500; -677.000; -602.000
883.838;  -58.300; -311.000;  -24.000
884.083;   77.900;  353.000;  288.000
884.328; -105.600; -564.000; -545.000
884.573;  -45.200; -196.000; -143.000
884.818;  364.400; -694.000; -531.000
885.063;  282.600; -348.000; -315.000
885.308; -142.400; -475.000; -398.000
885.553;   48.900;  245.000;  325.000
885.797; -184.300; -545.000; -615.000
886.042;  -28.800;    8.000;   58.000
886.287; -128.000; -253.000; -211.000
886.532;   -6.500;   26.000;  204.000
886.776; -139.000; -407.000; -525.000
887.021; -207.700; -621.000; -574.000
887.265; -194.900; -685.000; -689.000
887.510; -191.600; -557.000; -496.000
887.755; -111.600; -194.000; -164.000
887.999; -195.100; -552.000; -575.000
888.244;  -63.700;  -58.000;  161.000
888.488;   81.000;  371.000;  393.000
888.732; -180.900; -368.000; -520.000
888.977; -178.400; -622.000; -567.000
889.221; -260.400; -683.000; -659.000
889.465; -197.700; -422.000; -566.000
889.710;  -99.900;  -56.000; -299.000
889.954;   84.100;  579.000;  467.000
890.198; -244.700; -584.000; -707.000
890.442; -258.200; -716.000; -712.000
890.687; -279.000; -800.000; -753.000
890.931; -116.100; -273.000; -210.000
891.175; -211.500; -502.000; -500.000
891.419;  -79.400; -105.000; -110.000
891.663; -120.500; -239.000; -112.000
891.907; -250.600; -801.000; -545.000
892.151; -305.600; -920.000; -815.000
892.395; -149.900; -274.000; -387.000
892.638;   21.600;  408.000;  291.000
892.882; -289.800; -780.000; -867.000
893.126;  115.500;  758.000;  558.000
893.370; -117.200; -167.000; -168.000
893.614; -213.900; -714.000; -715.000
893.857;  -96.200; -183.000; -197.000
894.101; -201.200; -527.000; -631.000
894.345;  -30.500;  300.000;  150.000
894.588;  120.800;  569.000;  380.000
894.832;  -67.400; -178.000;  -84.000
895.075; -105.100;   15.000;  -92.000
895.319; -169.500; -552.000; -420.000
895.563; -168.800; -413.000; -353.000
895.806; -207.900; -628.000; -741.000
896.049;  -74.900; -576.000; -368.000
896.293;  237.000;  527.000;  405.000
896.536; -138.500; -465.000; -468.000
896.779;  -50.000; -149.000;   -1.000
897.023; -225.400; -751.000; -714.000
897.266;   26.100;  325.000;  269.000
897.509; -308.400; -900.000; -901.000
897.752;   22.800;  149.000;  171.000
897.996; -325.600; -972.000; -864.000
898.239;   13.000;  168.000;  102.000
898.482; -178.600; -431.000; -453.000
898.725;   48.200;  101.000;   53.000
898.968; -249.300; -609.000; -744.000
899.211; -146.900; -513.000; -361.000
899.454; -185.200; -633.000; -539.000
899.697;  -40.600;   90.000;  -43.000
899.940; -260.800; -761.000; -757.000
900.182; -127.800; -335.000; -405.000
900.425; -112.600; -150.000; -298.000
900.668;   55.100;  491.000;  350.000
900.911; -137.800; -292.000; -345.000
901.154;  -14.200;  141.000;   -3.000
901.396; -229.400; -407.000; -412.000
901.639; -197.000; -430.000; -496.000
901.882; -301.800; -790.000; -809.000
902.124;  -77.700;  -29.000; -143.000
902.367; -168.000; -315.000; -361.000
902.609; -187.400; -476.000; -453.000
902.852; -114.800; -108.000; -260.000
903.094; -173.200; -458.000; -337.000
903.337;  -39.100;  -26.000;   53.000
903.579; -161.600; -228.000; -441.000
903.821; -279.200; -597.000; -744.000
904.064;  -51.600;   85.000;  127.000
904.306; -109.100; -126.000; -166.000
904.548; -147.300; -152.000; -366.000
904.790; -133.600; -195.000; -340.000
905.033; -175.900; -625.000; -577.000
905.275; -203.100; -513.000; -524.000
905.517;  142.000;  468.000;  256.000
905.759; -123.400; -667.000; -761.000
906.001; -119.500; -322.000; -369.000
906.243;  -88.400; -162.000; -224.000
906.485;  283.600; -265.000; -207.000
906.727;  154.100; -499.000; -542.000
906.969;  -24.800;  -30.000; -135.000
907.211;  212.000; -316.000; -382.000
907.453;  487.100; -188.000; -237.000
907.695;   -4.800; -158.000; -385.000
907.936;  195.800;  818.000;  706.000
908.178;   -9.900;   92.000; -135.000
908.420;  -57.400; -111.000; -162.000
908.662; -211.700; -633.000; -682.000
908.903; -117.800; -208.000; -123.000
909.145;  -69.000; -240.000; -305.000
909.386;   96.500;  315.000;  280.000
909.628;  114.700;  363.000;  397.000
909.870;   81.300;   29.000;  264.000
910.111; -155.200; -809.000; -949.000
910.353;   69.800; -123.000; -161.000
910.594;   29.800; -574.000; -606.000
910.835;  196.600; -265.000; -326.000
911.077;  251.300; -503.000; -604.000
911.318;  529.200; -505.000; -471.000
911.559;  798.400; -577.000; -880.000
911.801; 2551.000; -284.000; -280.000
912.042;20964.600;  -50.000; -159.000
912.283;45604.800;  404.000;  371.000
912.524; 5650.000; -396.000; -457.000
912.765;  883.000; -193.000;   79.000
913.006;  412.200; -307.000; -338.000
913.247;  124.400; -270.000; -290.000
913.488;   16.200;  -43.000;   30.000
913.729;  -70.200; -373.000; -373.000
913.970;  -60.100;  -96.000; -292.000
914.211;  -67.100; -160.000; -198.000
914.452;  -81.400; -118.000;  -11.000
914.693;   98.600;  510.000;  592.000
914.934;   88.500;  510.000;  440.000
915.175;  -42.100;   53.000;  -95.000
915.415; -126.100; -137.000;   27.000
915.656;  -56.100;  -28.000;  192.000
915.897; -131.300; -252.000;  -82.000
916.137;  -44.000;   74.000;   -9.000
916.378; -195.900; -573.000; -517.000
916.619; -114.600; -159.000;  -63.000
916.859;   45.000;  303.000;  330.000
917.100;  354.900; 1655.000; 1070.000
917.340;  179.000;  930.000;  728.000
917.581;  157.000;  965.000;  789.000
917.821;   -2.600; -171.000;  143.000
918.061;   19.200; -199.000;  -72.000
918.302;  -60.800; -152.000; -211.000
918.542;    2.800;  -22.000;    3.000
918.782;   92.400;  369.000;  377.000
919.023;  235.800;  360.000;  427.000
919.263; 3560.300; 8131.000;  202.000
919.503; 1725.900; -137.000;  -54.000
919.743; 1121.600;  390.000;  266.000
919.983;  418.700; -134.000;  -26.000
920.223;  175.400;  135.000;   14.000
920.463;  318.300;  631.000;  554.000
920.703;  248.900;   84.000;   39.000
920.943;  286.400; -110.000;   90.000
921.183;  338.400; -414.000; -405.000
921.423;  824.100;  307.000;  546.000
921.663; 1180.000; -174.000; -257.000
921.903; 2675.900;  237.000;  173.000
922.143;15373.600;  372.000;  389.000
922.383;53394.000;  158.000;  115.000
922.622;14663.800; -120.000;  -15.000
922.862; 1800.800;  796.000;  785.000
923.102;  727.500;  -51.000;   33.000
923.341;  336.000;   59.000;   74.000
923.581;  177.400;  450.000;  360.000
923.821;   68.800;  301.000;  398.000
924.060;   76.000;  351.000;  193.000
924.300;  -56.400;  -16.000; -128.000
924.539;   34.300;  584.000;  473.000
924.779;   71.900;  812.000;  597.000
925.018;  -28.200;  247.000;  353.000
925.257;   86.400;  595.000;  666.000
925.497;  -12.100;  447.000;  412.000
925.736;  -77.900;  -35.000;  102.000
925.975;   59.200;  687.000;  669.000
926.214;  170.200;  907.000;  850.000
926.454;  135.700;  706.000;  757.000
926.693;   31.000;  419.000;  543.000
926.932;  150.800; 1021.000;  825.000
927.171;  208.300; 1107.000; 1044.000
927.410;  191.100; 1144.000;  967.000
927.649;  145.200;  924.000;  742.000
927.888;   39.300;  590.000;  564.000
928.127;   57.800;  680.000;  678.000
928.366;  131.300;  842.000;  826.000
928.605;  160.400;  831.000;  737.000
928.844;  497.800; 1451.000; 1393.000
929.083; 1123.300;  770.000;  613.000
929.321;  548.600; 1335.000; 1359.000
929.560;  249.200; 1158.000; 1122.000
929.799;   30.700;  574.000;  475.000
930.038;  309.500; 1025.000; 1394.000
930.276;  -31.800;  334.000;  397.000
930.515;   87.100;  827.000;  681.000
930.753;   35.400;  614.000;  589.000
930.992;   28.100;  664.000;  717.000
931.230;  115.000;  847.000;  847.000
931.469;  445.300; 2162.000;  892.000
931.707;  218.000;  840.000;  751.000
931.946;  210.800; 1278.000; 1344.000
932.184;  177.200; 1437.000; 1175.000
932.423;  175.200; 1265.000;  963.000
932.661;  283.300; 1296.000; 1428.000
932.899;  113.200;  987.000;  821.000
933.137;   75.800;  754.000;  564.000
933.376;  385.500; 1664.000; 1335.000
933.614;  371.500; 1759.000; 1196.000
933.852;  183.700; 1357.000; 1171.000
934.090;  332.200; 1722.000; 1747.000
934.328;  297.400; 1252.000; 1457.000
934.566;  246.400; 1431.000; 1110.000
934.804;  320.000; 1263.000; 1309.000
935.042;  850.800; 1861.000; 1850.000
935.280; 3120.500; 2088.000; 2063.000
935.518; 2570.200; 2113.000; 2007.000
935.756;  699.000; 2481.000; 2316.000
935.994;  412.700; 1808.000; 1751.000
936.231;  776.900; 2890.000; 2950.000
936.469;  427.500; 2367.000; 2378.000
936.707;  411.300; 2220.000; 2167.000
936.945;  595.900; 2825.000; 2882.000
937.182;  571.000; 2679.000; 2741.000
937.420;  737.500; 3602.000; 3031.000
937.657;  892.600; 3365.000; 3478.000
937.895;  757.700; 3331.000; 3488.000
938.133;  723.600; 3540.000; 3528.000
938.370;  763.800; 3896.000; 4191.000
938.607;  887.400; 4488.000; 4205.000
938.845; 1184.900; 5587.000; 5549.000
939.082; 1073.700; 5387.000; 5177.000
939.320; 1178.700; 5799.000; 5728.000
939.557; 1394.700; 6549.000; 6491.000
939.794; 1515.700; 7285.000; 7097.000
940.031; 1945.600; 8421.000; 8368.000
940.269; 2240.600; 9552.000; 9107.000
940.506; 2330.500;10901.000;10507.000

