
Integration time [ms]: 100.000
Averaging Nr. [scans]: 40
Smoothing Nr. [pixels]: 0
Data measured with spectrometer [name]: 2101013U2
Wave   ;Sample   ;Dark     ;Reference
[nm]   ;[counts] ;[counts] ;[counts] 

394.013;   48.518; -450.257; -315.536
394.305;  207.666; -461.258; -419.536
394.596; 1131.513; -676.269; -527.514
394.887; 2759.380; -796.268; -654.518
395.178; 1083.360;  145.736;   11.476
395.470;   97.472; -210.263; -356.526
395.761;  194.545;  305.734;  394.479
396.052;  289.163; -545.284; -306.489
396.343;  297.783; -557.276; -454.503
396.634;   98.652; -200.279; -290.497
396.926;  101.727; -618.268; -565.517
397.217;  102.487;   11.725;  -17.504
397.508;   50.278; -366.273; -154.507
397.799;   26.777; -555.279; -571.497
398.090;    3.846; -973.280; -902.495
398.381;  108.713;   11.708;  -11.473
398.672;   -2.136; -585.292; -742.473
398.963;   30.558; -348.279; -373.498
399.254;  116.648;   54.709; -209.475
399.545;  -36.284;-1017.266; -883.520
399.836;   44.922; -407.277; -343.501
400.127;   58.264; -205.295; -209.468
400.418;   46.923; -423.274; -392.506
400.709;   52.183; -359.281; -333.493
401.000;   33.027; -268.291; -309.476
401.290;   96.801;  225.698;  115.545
401.581;   71.521; -166.286; -228.485
401.872;   10.886; -542.298; -486.462
402.163;   57.282; -313.296; -252.467
402.454;   84.674; -123.291; -163.475
402.744;   68.548; -844.297; -813.465
403.035;  417.104; -226.293;  -86.471
403.326;  529.492; -366.292; -384.474
403.617;  363.080;  204.701;  165.539
403.907;  241.819; -593.283; -679.490
404.198; 2459.405; -545.307; -599.446
404.489; 6395.399; -618.283; -588.491
404.779; 2089.654; -618.302; -660.456
405.070;  223.158;  -67.304; -174.451
405.360;  326.931; -259.293; -238.472
405.651;  364.165;  125.699;   98.542
405.942;  167.366;  209.714;  127.516
406.232;  226.730; -432.285; -413.487
406.523;  445.074;  641.706;  758.530
406.813;   85.643; -579.286; -644.484
407.104;  314.887;  261.708;  144.527
407.394;  153.782; -604.299; -591.462
407.685;  127.330;  336.715;  222.513
407.975;   48.622; -400.283; -382.490
408.265;  113.338; -134.289; -190.478
408.556;   74.096; -472.291; -459.475
408.846;  179.125;  474.706;  429.530
409.137;   80.197;   -1.288; -216.480
409.427;   50.605; -193.285; -271.487
409.717;   41.656; -776.273; -692.508
410.007;  132.999;    4.715; -170.486
410.298;   88.517; -360.295; -342.469
410.588;   61.003; -495.285; -510.486
410.878;   24.333; -792.287; -873.482
411.168;   99.939; -481.298; -478.463
411.459;  110.567; -295.283; -242.489
411.749;   60.369; -609.292; -507.474
412.039;   48.345; -755.289; -386.480
412.329;  199.515;   40.722;  132.501
412.619;  202.243;  -62.286; -148.485
412.909;  362.016;  639.711;  594.521
413.199;  313.796; -130.280; -251.495
413.490;  376.681;  521.710;  352.523
413.780;  148.125;-1013.279; -913.496
414.070;  322.159;  -46.276;  235.497
414.360;  374.686; -729.278; -666.498
414.650;  429.204; -726.288; -688.482
414.940;  554.049; -538.280; -441.496
415.230;  929.576;   50.712;   74.519
415.520; 6166.812;  155.730;   66.486
415.809;24234.933; -305.281; -125.493
416.099;18732.099; -388.277; -229.501
416.389; 5315.820;  435.726;  236.494
416.679; 3083.375;   91.738;   85.473
416.969;  541.437; -527.287; -503.483
417.259;  465.977;  341.721;  171.503
417.549;  701.981;  522.718;  318.508
417.838; 1694.729; -205.268; -147.518
418.128; 5592.387;  650.710;  492.522
418.418; 4689.013; -491.272; -579.509
418.708; 3152.196;    9.726;  -48.506
418.997;11927.041; -474.275; -480.505
419.287;12387.677; -733.273; -790.507
419.577;11842.141; -160.283; -123.489
419.866;39022.097; -588.277; -498.501
420.156;39696.383; -242.270;  -55.513
420.446; 7075.818; -112.263;  -26.526
420.735;  823.902; -376.271; -446.512
421.025;  832.860; 1830.722;  315.502
421.314;  667.575; -203.271; -226.512
421.604; 1321.272;   89.732;  233.484
421.893;  759.197; -705.271; -602.511
422.183;  232.393; -487.263; -461.526
422.472;  377.173;  -36.271; -107.511
422.762;  437.322; -416.266; -379.521
423.051;  241.284; -916.276; -916.503
423.341;  304.679; -491.273; -439.507
423.630;  420.503; -121.265;   15.477
423.919;  381.466;   58.725;   49.495
424.209;  376.698;  -31.263;   56.473
424.498;  493.202;   68.732;  161.483
424.787; 1105.933; -535.267; -601.518
425.077; 3389.902;   34.735;   29.478
425.366; 4681.004; -734.262; -744.528
425.655;10117.430;  639.727;  259.493
425.945;22542.783; -313.247; -268.554
426.234;12425.302;  117.741;  300.467
426.523; 5111.482;  -86.259; -350.534
426.812; 7012.368;  107.734;  159.480
427.101;10446.768; -127.269; -323.515
427.390;13101.787;  -55.270;  -86.514
427.680; 2884.352; -624.257; -411.538
427.969;  479.962; -330.255; -301.540
428.258;  304.093; -385.257; -477.536
428.547;  530.167;  449.728;  397.490
428.836; 1178.379; -421.253; -398.543
429.125; 1732.309; -199.259;  -72.534
429.414;  773.176; -330.251; -294.548
429.703; 3134.826; -231.251; -213.548
429.992; 9534.355; -938.250; -828.549
430.281; 6242.361; -397.264; -331.524
430.570;  575.092;  -21.252;   32.454
430.859;  529.656;  279.741;  352.466
431.148;  435.204;  636.752;  631.446
431.437;  275.766;  391.748;  367.454
431.725;  150.870; -544.257; -481.536
432.014;  148.186; -845.253; -756.545
432.303;  378.105; -149.239; -105.569
432.592;  575.917; -460.263; -178.525
432.881; 1071.080; -601.248; -437.554
433.169; 6342.063; -343.255;  -61.540
433.458;12914.713;  445.765;  540.424
433.747; 5328.460; -397.261; -289.529
434.036;  856.305; -275.242; -280.564
434.324; 2121.642; -395.249; -379.551
434.613; 3717.649;   40.757;  159.437
434.902; 1189.595;  333.760;  439.433
435.190;  496.628;   75.761;  295.431
435.479;  281.881;  -52.245;   83.441
435.767;   93.864; -411.244; -427.561
436.056;  197.951; -340.242; -294.563
436.345;  355.447; -372.240; -223.568
436.633;  368.063;   60.750;  383.450
436.922;  232.099;  208.760;  414.432
437.210;  525.703; -194.236;    1.426
437.499; 1657.111; -583.235; -432.576
437.787; 1885.153; -339.236;  -10.574
438.075;  479.534;   56.761;  162.430
438.364;  632.637;  -44.238;  250.429
438.652;  386.616; -286.226; -138.592
438.941;  130.780;    3.770;  269.415
439.229;   -3.786; -665.252; -466.545
439.517;   31.545; -160.234;  -85.577
439.806;  -12.443; -501.225; -290.595
440.094;  172.503;  377.766;  650.421
440.382;  153.606; -653.233; -302.580
440.670;  171.486; -361.235; -285.576
440.959;   32.649; -347.223; -170.599
441.247;   59.117; -151.229; -109.587
441.535;   79.518; -266.235;   31.423
441.823;   17.700; -497.234; -305.578
442.111;  170.421;  173.771;  327.412
442.400;  472.255; -628.245; -335.559
442.688; 1267.552; -111.234; -620.579
442.976;  861.937; -786.213; -450.617
443.264;   90.739; -324.224; -364.597
443.552;   96.892; -258.226;   51.408
443.840;  160.392;  602.765;  876.423
444.128;  100.680;  265.767;  269.420
444.416;    2.674; -694.228; -312.588
444.704;   17.029; -465.219;  -92.605
444.992;   59.870;   -0.226;  240.407
445.280;   42.706; -517.230;  -94.585
445.568;   36.866; -694.212; -396.618
445.856;  329.713; -174.221;  357.398
446.143;  708.225;  -54.220;   -7.604
446.431;  576.727;  -25.228;  625.411
446.719;  232.473;  489.783;  675.391
447.007;  190.650;  481.769;  705.416
447.295;  166.171;  597.777;  871.402
447.583;   73.964; -464.229;  -34.587
447.870;  139.160; -434.221; -202.601
448.158;  386.780; -104.230;  129.415
448.446;  296.151; -800.219; -338.604
448.733;  162.515;   13.776;  269.403
449.021;  247.515;   60.788;  341.382
449.309;  166.530; -296.210;  208.379
449.596;  221.519;  128.783;   59.392
449.884;  154.678; -571.222; -325.600
450.172;  168.033; -756.227; -406.590
450.459;  466.545;  645.786;  780.387
450.747; 2474.668; -411.218; -147.608
451.034; 7861.553;  493.772;  889.411
451.322; 6480.573; -413.214; -170.614
451.609;  542.942;  292.777;  508.403
451.897;  603.418; -550.203; -183.634
452.184; 1876.947; -622.223; -400.598
452.472; 1740.577;   97.792;  269.375
452.759;  338.527;  512.781;  864.395
453.047;  101.588; -407.212; -125.617
453.334;   56.160; -732.219; -216.606
453.621;   65.851; -438.214; -161.615
453.909;   99.510;   13.796;  384.368
454.196;   93.255; -299.199; -123.641
454.483;  202.456;  317.798;  540.364
454.771;  111.955; -215.208;  196.374
455.058;   32.158; -316.207;  102.374
455.345;  114.761;   71.807;  344.347
455.632;   81.136; -128.207;  235.373
455.919;   51.753;  -82.196;  182.354
456.207;  -66.440; -774.198; -450.642
456.494;   -8.332; -475.200;  -66.639
456.781;    3.027; -399.202; -198.635
457.068;   46.218; -253.206;  -29.628
457.355;  -19.031; -698.206; -401.629
457.642;    2.199; -552.205; -290.630
457.929;    9.727; -778.194; -417.651
458.216;   59.363; -575.212; -354.617
458.503;  254.356; -173.193;  -19.652
458.790;  229.752; -864.208; -630.625
459.077;  263.332;  -77.202;  110.364
459.364;  815.420; -350.195; -210.649
459.651; 1732.216;  -46.206;  220.372
459.938;  811.068; -864.209; -665.623
460.225;  139.635;  132.799;  276.363
460.512;  -47.925; -836.197; -688.645
460.799;   89.592;  -32.218;  320.392
461.086;   52.548; -370.200; -251.640
461.372;   45.685; -509.198; -279.642
461.659;   90.429; -165.196;  108.354
461.946;   50.330; -445.193;  -54.651
462.233;  232.670;  842.800;  888.361
462.519;  332.942; -814.201; -464.639
462.806; 1037.476; -768.197; -497.645
463.093;  884.651; -445.191;  -66.656
463.380;  -33.083; -920.186; -824.664
463.666;   52.327; -259.197;  -18.646
463.953;   98.015; -406.195; -243.648
464.239;  202.639; -173.195;  -77.648
464.526;  382.325;  413.806;  743.350
464.813;  318.837; -565.190; -304.658
465.099;  333.131;  606.807;  607.348
465.386;  309.485;  903.807;  921.348
465.672;   20.676; -694.197; -522.645
465.959;    9.905; -598.188; -520.662
466.245;   17.835; -468.193; -359.652
466.532;   83.362; -109.195;   63.352
466.818;   66.567; -357.186; -216.664
467.104;   -8.243; -488.182; -415.672
467.391;  -34.536; -628.189; -459.658
467.677;   28.095; -289.186;    9.335
467.964;   -7.629; -682.189; -471.660
468.250;   51.098; -331.186; -160.665
468.536;   80.865;   90.811;  180.341
468.822;  -22.165; -821.184; -574.668
469.109;  137.487;  351.827;  471.311
469.395;  186.920;  729.808;  787.346
469.681;  179.118;   46.811;  156.341
469.967; 1255.198; -699.188; -382.660
470.254; 2749.431; -494.188; -306.662
470.540; 1739.728; -601.196; -476.646
470.826;  253.868; -488.181; -397.675
471.112;  314.413;  288.816;  113.331
471.398;   76.093; -253.183;  -58.670
471.684;   37.096; -626.177; -447.680
471.970;    4.847; -918.180; -981.675
472.256;   14.394; -521.192; -441.654
472.542;   21.023; -499.171; -434.691
472.828;    0.828; -743.182; -607.672
473.114;   28.167; -380.166; -283.700
473.400;   11.138; -504.175; -293.684
473.686;   17.223; -452.166; -400.701
473.972;   58.352; -230.174; -131.687
474.258;  -42.363; -925.173; -843.689
474.544;  197.338; -183.178;   -2.679
474.830;  330.539;  -65.175;   45.316
475.116;  502.564; -123.190; -196.658
475.401;  710.174; -558.180; -467.676
475.687;  195.398; -725.180; -718.676
475.973;    0.961; -673.181; -770.673
476.259;  226.766;  736.825;  764.315
476.544;  369.304; -539.176; -437.682
476.830;  859.019; -398.172; -322.690
477.116;  766.628; -430.177; -336.682
477.401;  152.273;  346.820;  358.324
477.687;  -25.212; -289.175; -405.684
477.973;   33.664;   21.819;   28.326
478.258;   -1.257; -448.163; -348.706
478.544;   45.103;   21.815;   61.334
478.829;  -61.196; -818.171; -738.692
479.115;  -37.306; -749.172; -651.690
479.401;  -15.552; -444.174; -449.686
479.686;   35.672; -253.180;  -74.676
479.972;  -38.782; -886.178; -776.680
480.257;   26.443; -258.166;  -65.700
480.542;   -8.542; -614.170; -469.693
480.828;  210.486; 1288.824; 1392.317
481.113;  -32.416; -464.176; -426.683
481.399;  -17.983; -236.161; -202.711
481.684;  -59.682; -620.166; -462.700
481.969;   16.006; -158.159;  -73.713
482.255;    0.918; -439.169; -285.695
482.540;   -6.207; -569.178; -441.680
482.825;   13.662; -395.187; -404.663
483.110;   91.897;  -85.169; -105.696
483.396;  203.277; -840.157; -652.718
483.681;  513.527;  543.826;  730.313
483.966;  162.575; -696.160; -700.712
484.251;    1.201; -404.174; -310.687
484.536;   -1.097; -356.165; -378.703
484.822;    9.279; -205.173; -218.687
485.107;  -34.260; -599.152; -502.726
485.392;  131.984;  662.836;  541.296
485.677;   78.656;  354.832;  163.302
485.962;   89.375;  160.843;  270.283
486.247;   74.826;  -14.162;   -8.707
486.532;   32.869; -178.166; -325.701
486.817;  160.062;  381.839;  431.291
487.102;  110.548; -453.154; -514.722
487.387;  702.829; -637.156; -652.718
487.672; 1232.039; -154.164;  -38.705
487.957;  780.769; -394.160; -286.711
488.241;  203.957; -290.150; -314.729
488.526;  760.567; -280.152; -148.726
488.811; 1226.770; -881.177; -818.680
489.096;  947.826; -666.154; -702.723
489.381;  508.638;    3.847;  162.275
489.666;  413.367; -428.161; -510.710
489.950;  179.304;  558.846;  627.277
490.235;  -29.898; -480.151; -458.728
490.520;  -40.184; -756.161; -723.710
490.804;  -52.944; -827.156; -736.719
491.089;   -0.127; -469.149; -299.732
491.374;   38.088; -132.164;  -75.704
491.658;   -6.866; -817.147; -717.735
491.943;  162.771; -657.152; -609.727
492.227;  243.619; -178.155;  -38.721
492.512;   61.374; -294.157; -341.717
492.797;  -65.058; -713.149; -716.731
493.081;  -42.738; -588.147; -598.735
493.366;  -51.757; -751.161; -635.711
493.650;  206.965;  831.859;  917.254
493.935;   28.109; -648.147; -447.734
494.219;  -33.298; -778.142; -687.743
494.503;  -49.688; -585.150; -487.730
494.788;   51.516;   46.842;   74.285
495.072;  109.533;  184.850;  434.271
495.356;  172.426; -463.148; -343.733
495.641;  469.293; -812.146; -736.736
495.925;  439.961; -976.156; -903.719
496.209;   20.822; -599.149; -451.732
496.494;  -50.622; -763.142; -544.744
496.778;    8.748; -364.154; -360.722
497.062;  -56.514; -819.156; -627.719
497.346;  -32.754; -869.160; -640.711
497.631;  156.779;  580.852;  560.266
497.915;   65.429;  -64.145;  175.261
498.199;   48.127; -341.157; -277.718
498.483;   43.115; -562.152; -508.725
498.767;  196.334;  301.850;  300.271
499.051;  196.545; -126.149; -100.732
499.335;   20.093; -693.149; -739.731
499.619;  -43.684; -381.129; -423.767
499.903;   27.918; -272.155;  -65.721
500.187;   25.456; -588.153; -316.724
500.471;   12.145; -796.152; -595.727
500.755;  111.466;   62.839;  -96.710
501.039;   21.268; -270.155; -357.721
501.323;   78.017;  -21.141;  264.254
501.607;   37.994; -447.163; -503.706
501.891;  -14.096; -607.156; -512.718
502.174;  -24.660; -726.144; -585.741
502.458;   71.474;   89.849;  370.273
502.742;   45.016; -180.138; -191.751
503.026;  130.033; -412.147; -254.734
503.310;  181.555; -437.159; -375.713
503.593;  126.585; -464.147; -325.735
503.877;  113.431; -232.133; -156.760
504.161;  176.458;    2.847;  -50.724
504.444;  134.793; -841.158; -710.716
504.728;  475.237; -487.164; -522.704
505.012;  754.506; -257.150;  -76.729
505.295;  535.292; -417.161; -212.711
505.579;  553.160; -256.156; -496.719
505.862;  807.825; -555.145; -333.738
506.146;  777.657; -681.159; -758.714
506.429;  421.107;  568.841;  461.286
506.713;   67.278; -732.151; -667.728
506.996;  326.848;   90.846;  295.278
507.280;  345.257; -633.165; -474.703
507.563;  241.016; -469.155; -261.721
507.847;   97.181; -423.153; -112.724
508.130;   84.243; -665.161; -456.711
508.413;  110.164; -758.167; -577.700
508.697;  255.414; -151.167;   12.300
508.980;  158.433; -422.153; -312.724
509.263;   -1.037; -466.155; -450.720
509.547;   35.206; -124.150;   82.271
509.830;   55.395; -172.160;  140.289
510.113;   69.385;  128.844;  298.281
510.396;   21.563; -530.152; -300.725
510.680;  149.052; -818.145; -812.738
510.963;  553.827;  184.846;  180.277
511.246;  467.189; -493.150; -357.730
511.529;  248.957; -482.145;  -83.739
511.812;  396.602; -250.134;   10.241
512.095;  271.351; -740.151; -396.728
512.378;   73.689; -317.147; -245.736
512.661;   25.623; -703.137; -623.753
512.944;   39.029; -750.142; -637.744
513.227;   55.845; -170.137; -171.752
513.510;   27.865; -479.144; -671.741
513.793;   25.496; -485.140; -435.747
514.076;  140.887;  -43.127;  -39.771
514.359;  103.198; -294.149; -135.732
514.642;   88.482; -442.142; -567.744
514.925;  774.669;  581.860;  561.253
515.208; 1043.774; -498.134; -443.758
515.491;  687.638; -276.133; -182.761
515.773;  402.519; -410.143; -337.742
516.056; 2183.730;  249.864;  409.246
516.339; 2933.008; -754.136; -652.755
516.622; 1893.111; -518.150; -488.730
516.904; 1162.151;  882.857;  975.257
517.187;  535.019; -730.138; -523.752
517.470;  407.675; -568.143; -510.743
517.752;  455.561; -624.136; -470.756
518.035;  376.957; -708.139; -725.749
518.318;  388.034; -799.136; -744.755
518.600; 2537.616; -300.132; -325.762
518.883; 3528.107;  310.858;   88.256
519.165; 1721.412; -585.138; -426.751
519.448;  399.216;  -61.132;  -19.762
519.730;  198.419; -573.126; -415.773
520.013;  284.884;  588.867;  664.240
520.295;  763.904;  -94.134;  -15.759
520.578; 1717.729; -335.131; -305.764
520.860; 1944.916; -254.132;   56.238
521.143; 1017.213; -763.135; -584.756
521.425;  480.282; -251.125; -279.775
521.707;  713.462; -622.127; -380.771
521.990; 1862.988; -199.127;  167.229
522.272; 2136.298; -116.140;   -4.748
522.554;  954.270; -237.143; -157.742
522.836;  352.727;  -24.134;   99.241
523.119;  218.157; -496.148; -189.734
523.401;  160.736; -448.130; -314.766
523.683;   94.174; -865.137; -693.753
523.965;  283.542;  408.862;  260.248
524.247;  291.103;   54.878;  170.220
524.529;  213.029; -451.134; -367.759
524.812;  343.712;   -3.130;  191.234
525.094;  893.366; -773.138; -631.751
525.376; 1443.341; -143.124;   78.223
525.658;  862.806; -441.136; -339.754
525.940;   24.950; -805.131; -671.764
526.222;   35.284; -188.136;  -88.755
526.504;  114.623; -190.131;   32.237
526.786;  165.331; -960.133; -647.760
527.068;  276.172; -124.123;  -67.778
527.349;  106.377; -865.137; -774.754
527.631;  136.566; -137.132;   22.238
527.913;  136.986; -664.127; -450.771
528.195;  182.275; -761.125; -639.774
528.477;  261.574;  -93.134;  -30.758
528.759;  143.537; -648.130; -522.766
529.040;   53.470; -569.123; -293.778
529.322;   50.703; -235.125;  -10.774
529.604;  128.365;  -47.130;   93.233
529.886;  133.794; -546.126; -302.773
530.167;  121.556;  232.870;  192.235
530.449;   47.988;    1.853;   63.265
530.731;   21.202; -572.122; -459.779
531.012;   74.823; -513.120; -216.784
531.294;   75.637; -118.116;  -43.792
531.575;  161.557;  290.875;  538.225
531.857;   56.819; -548.135; -266.757
532.138;   94.015; -113.141;   40.254
532.420;  172.765;  294.865;  403.244
532.701;  206.634; -722.133; -751.760
532.983;  343.137;  232.867;  182.239
533.264;  126.792; -243.126;  175.228
533.546;  -40.541; -491.136; -508.755
533.827;   42.880;  173.867;   -1.759
534.109;   31.469; -352.135;  -80.757
534.390;  101.920; -725.132; -582.762
534.671;  259.790; -270.135;  -82.756
534.953;  134.123; -751.123; -611.779
535.234;   30.897; -426.117; -255.789
535.515;  -71.569; -891.119; -735.785
535.796;  -22.143; -431.128; -193.770
536.078; -119.009;-1050.124; -904.777
536.359;    9.174;  -22.123;    3.221
536.640;  -13.748; -480.125; -197.774
536.921;  150.845;  225.871;  143.232
537.202;  393.588;  -87.138;  -16.751
537.483;  450.328;  251.869;  377.236
537.764;  177.456;   17.870;   98.235
538.045;  -45.252; -543.134; -371.758
538.326;  -31.303; -596.129; -447.768
538.607;   11.638; -686.127; -476.771
538.888;  202.714;   98.879;    5.218
539.169;  188.334; -704.122; -535.781
539.450;  345.744;  236.871;   16.233
539.731;  231.693; -361.121; -182.783
540.012;  137.823;  199.880;  412.216
540.293;   73.510;   82.876;  158.224
540.574;    7.608; -895.113; -717.796
540.855;  446.817;  435.879;  377.218
541.136;  547.006;   47.878;  139.220
541.416;  282.213; -161.130; -220.766
541.697;  203.024; -274.131; -170.763
541.978; 1073.692; -270.135; -315.757
542.259; 1375.613; -211.127; -236.771
542.539;  653.756; -191.116; -186.790
542.820;  190.757;  461.875;  480.225
543.101;  133.378;  -52.145;  -77.738
543.381;   36.112; -638.127; -591.771
543.662;  275.760;  159.873; -254.771
543.942;  590.683; -751.127; -830.770
544.223; 1074.658;  193.878;  161.219
544.504;  707.041; -275.124; -182.777
544.784;  612.494; -592.126; -408.773
545.065; 1678.360;  104.884; -254.791
545.345; 2008.082;  227.881;   14.215
545.626; 1304.907;  -14.113; -108.796
545.906;  912.331;   77.869;   98.235
546.186;  373.898;   92.874;  -95.773
546.467;  206.893;   99.877;  -95.778
546.747;  360.806;  264.884;  327.210
547.027;  388.914;   91.876;  111.223
547.308;  355.333; -376.127; -530.770
547.588;  402.272;  299.871;  371.232
547.868;  201.982;  458.870;  588.235
548.149;  197.392;  609.885;  593.207
548.429;  142.286; -347.127; -299.771
548.709;  210.198; -645.120; -461.784
548.989;  491.216;   84.882;   88.213
549.269; 2215.864;   10.868;  139.239
549.550; 5072.497;  215.877;  117.222
549.830; 4495.250; -758.111; -556.799
550.110;  903.657; -468.110; -320.801
550.390;  850.828; -128.122;  -56.779
550.670; 1196.128; -868.114; -783.795
550.950;  827.891; -509.121; -471.782
551.230;  205.312;  549.879;  460.218
551.510;    2.790; -381.121; -326.782
551.790;   30.615; -173.109; -127.803
552.070;  265.218;  940.877; 1181.223
552.350;  423.861; -492.119; -377.786
552.630;  614.410;   -2.121;   77.219
552.909;  380.710;  181.884;   73.209
553.189;  238.846;  -49.132;   33.237
553.469;  214.410; -703.119; -514.786
553.749;  204.964; -469.127; -357.772
554.029;  171.776;   33.883;  -24.790
554.308;  148.596; -154.115;  -37.794
554.588;   63.756; -196.128; -204.770
554.868;   68.317; -366.121;  -47.782
555.147;  167.418; -114.115;  -46.793
555.427;  636.363; -260.116; -250.792
555.707; 4079.841; -284.115; -200.793
555.986; 4956.203; -719.111; -538.800
556.266; 2621.155;   23.884;   72.210
556.546;  128.865; -888.121; -675.782
556.825;  273.426; -657.114; -556.794
557.105; 1875.504; -125.128;   17.230
557.384; 2199.384;  122.884;  187.209
557.664;  870.312; -717.116; -508.792
557.943;  121.241; -557.121; -411.782
558.222;  182.494; -345.118; -344.788
558.502;  287.870; -116.115;  -76.793
558.781;  517.890;  194.885;  499.208
559.061;  426.269; -232.118; -227.788
559.340;  321.074;  302.883;  353.211
559.619;  733.029;   93.884;  148.210
559.899; 1081.626; -239.117; -266.789
560.178;  982.319; -778.115; -593.793
560.457; 3282.527; -623.117; -562.790
560.736; 4545.104; -472.111; -482.800
561.015; 3032.852; -500.128; -502.769
561.295;  412.560;  180.893;  215.193
561.574;  354.492;  119.885;  116.207
561.853;  504.844;  274.891;  303.197
562.132;  510.947;  -45.114;  182.206
562.411;  471.061;  396.879;  553.219
562.690;  147.815; -592.115; -458.792
562.969;  149.439;  472.888;  630.203
563.248;  510.133; 2966.878; 2487.219
563.527;  298.529; -290.111; -408.800
563.806;  404.936; -650.127; -521.771
564.085;  448.425; -297.105; -206.810
564.364;  262.654; -594.117; -405.790
564.643;  542.411; -276.121; -223.781
564.922; 1961.438;  221.890;  397.198
565.201; 1995.192; -640.109; -700.803
565.479;  849.164; -297.115; -219.792
565.758;  348.054; -810.128; -712.770
566.037;  504.043; -155.109; -100.803
566.316;  235.134; -286.116;  -28.791
566.595;   47.592;  -17.115;  -12.793
566.873;   96.831; -166.111;  -79.801
567.152;  -49.436; -490.113; -590.797
567.431;   13.555; -113.116;    6.210
567.709;   10.735; -344.107; -212.807
567.988;  277.650; -810.114; -769.794
568.266;  544.841; -160.115;  -68.793
568.545;  405.972; -644.100; -514.819
568.824;  625.963;  160.885;  356.208
569.102;  568.050; -351.114; -235.794
569.381;  244.262; -492.116; -407.792
569.659;  -45.090; -553.113; -553.796
569.938;   42.407; -743.122; -465.780
570.216;  132.421; -225.109; -225.804
570.494;  -22.722; -632.114; -572.795
570.773;   39.440;  202.879;  114.218
571.051;    7.621; -373.123; -357.778
571.330;   66.558; -221.113; -174.796
571.608;   44.490; -181.098; -173.823
571.886;  -54.177; -671.111; -581.799
572.164;  -68.708; -739.121; -621.782
572.443;  -39.271; -562.105; -512.811
572.721;  -19.497; -399.117; -289.790
572.999;  -25.654; -280.117; -168.788
573.277;   96.422;  379.894;  620.191
573.555;  295.524;   94.894;   37.190
573.834; 1419.296;  -86.117; -114.788
574.112; 1662.488;  880.893;  811.193
574.390;  494.205; -143.111;  -96.801
574.668;   16.665;  -91.112;  -61.797
574.946;  -16.400; -165.106; -187.810
575.224;    3.367;   71.891;  -16.803
575.502;  -19.093; -200.116; -204.791
575.780;  -87.334; -767.112; -829.798
576.058;  125.604; 1589.889; 1004.200
576.336;  -11.340; -210.110; -129.801
576.614;  -60.659; -511.112; -340.798
576.891;   50.996; -711.115; -823.794
577.169;  518.579; -158.108; -285.805
577.447;  612.712;  169.893;  202.193
577.725;  272.920;  629.888;  854.201
578.003;   12.543;  -71.112; -371.798
578.280;   87.388; -208.104; -242.812
578.558;   76.020; -450.115; -422.793
578.836;  133.228; -210.114; -145.795
579.114;   36.714; -630.112; -670.797
579.391;   57.623;   -6.117;  -18.789
579.669;  -82.003; -595.114; -704.794
579.947;  167.709; -326.107; -127.806
580.224;  343.509; -692.107; -524.806
580.502;  331.088;  127.893;   76.193
580.779;   32.878;  -42.117;   75.210
581.057;  -70.504; -584.109; -470.804
581.334;  -84.922; -726.102; -695.815
581.612;   43.050;   54.895;  511.190
581.889;  -26.634;  -83.101; -129.818
582.167;  -30.720; -298.099; -190.821
582.444;  -96.415; -845.102; -814.817
582.721;   88.236;  657.899;  715.183
582.999;   51.627; -326.100; -167.821
583.276;  552.875; -812.123; -713.779
583.553;  759.856; -364.102; -294.816
583.831;  247.634; -607.104; -631.812
584.108;   68.927;  349.892;  174.195
584.385;   24.402; -122.102;  -98.815
584.662;  -70.019; -651.111; -828.801
584.940;   34.230;  204.889;  204.199
585.217;   -6.065;  -73.113; -303.796
585.494;   32.564;   71.890;  118.198
585.771;  213.297; -250.109; -354.804
586.048;  518.309; -196.113;  -76.796
586.325;  323.959; -721.110; -773.801
586.602;   96.963;  230.896;  213.188
586.879;  -13.651; -499.100; -580.820
587.156;   48.476; -156.105; -331.810
587.433;  -32.717; -701.102; -667.817
587.710;   66.642;  152.888;  234.202
587.987;  313.606; -264.105; -236.811
588.264;  795.943;  315.888;  387.202
588.541; 1372.116;  -61.104;   26.187
588.818; 2770.574;   72.892;  171.196
589.095; 2365.661; -163.104; -174.812
589.371;  384.620; -459.109; -414.804
589.648;   21.213; -581.107; -437.807
589.925;   28.854; -517.114; -621.795
590.202;   24.866; -741.112; -607.798
590.478;   89.083; -166.105;  -73.811
590.755;  284.630; -241.108; -132.806
591.032; 2565.961; -741.110; -699.802
591.308; 3568.980; -732.094; -790.831
591.585; 1870.160; -573.110; -560.802
591.862;  158.935;-1056.102; -950.817
592.138;   74.628; -475.108; -474.805
592.415;  145.964; -486.104; -495.813
592.691; 1481.262;  460.896;  518.188
592.968; 1924.342; -208.098; -123.824
593.244;  906.906; -695.116; -595.790
593.521;   82.435; -105.102;  -42.817
593.797;  -26.621; -810.122; -720.780
594.074;  357.304; -611.096; -588.826
594.350;  666.865;  828.905;  729.172
594.626;  317.806; -303.111; -283.801
594.903;   99.661; -643.101; -645.817
595.179;  204.068;  243.896;  418.187
595.455;   16.914; -136.107; -150.807
595.731;   -1.606;  -19.103;  -38.814
596.008;  -33.049; -464.111; -434.800
596.284;   37.726; -187.100; -242.820
596.560;   62.336; -501.093; -493.833
596.836;  214.228; -173.105;  -70.810
597.112;  365.578; -582.108; -437.805
597.388;  307.877;  -49.097;  -48.826
597.665;  117.612;  437.887;  530.203
597.941;  -61.410; -572.089; -658.839
598.217;    8.014; -323.110; -293.802
598.493;  272.273;   61.891; -204.804
598.769;  533.271; -175.100;  -50.819
599.045;  324.456; -490.108; -562.806
599.321;   41.475; -193.100; -261.820
599.597;  149.023; -355.109; -476.804
599.872;  499.241;  409.896;  429.187
600.148;  374.154;  -61.097; -172.826
600.424;  304.936;   91.893;  202.193
600.700;  259.213; -170.107; -280.807
600.976;  123.498; -442.097; -464.825
601.252;  260.794; -226.109; -272.803
601.527;  225.516; -833.104; -840.813
601.803;  142.209; -453.105; -404.812
602.079;  206.221; -124.100; -118.819
602.354;  593.771; -620.092; -531.835
602.630;  842.810; -140.113; -482.796
602.906; 2401.116; -910.101; -863.818
603.181; 6938.035; -627.119; -534.786
603.457; 5931.401;   98.903; -278.826
603.733;  868.944; -605.120; -626.783
604.008; 1000.050; -245.106; -164.810
604.284; 3142.512; -636.101; -580.817
604.559; 2743.670;   -3.112;  -42.799
604.835;  507.653; -163.105; -225.810
605.110;  448.530; -732.099; -892.821
605.385;  717.264;  224.907;  267.167
605.661;  677.918; -625.095; -729.829
605.936; 1217.157; -664.108; -737.806
606.211; 1032.126;  -17.103; -170.815
606.487;  208.049; -329.114; -376.794
606.762;   16.836; -791.119; -745.786
607.037;  -21.772; -501.105; -433.810
607.313;  -41.739; -589.096; -574.828
607.588;  -10.450; -375.106; -137.810
607.863;   41.865;  -28.101; -143.818
608.138;  189.188;  513.890;  516.198
608.413;   49.859; -576.099; -592.822
608.688;   55.428; -203.108; -267.805
608.964;  218.744; -509.106; -218.809
609.239;  272.676; -107.105; -212.810
609.514;  267.108;  281.895;  240.188
609.789;  689.088; -187.104; -716.812
610.064;  891.885; -435.096; -609.827
610.339;  910.845; -855.109; -799.804
610.614; 1213.551; -131.100; -315.820
610.889;  686.634;  215.895;  107.188
611.163;   44.809; -407.104; -591.812
611.438;   80.225;   81.886; -167.794
611.713;    4.062; -467.101; -499.817
611.988;   50.914; -144.101; -328.818
612.263;  -21.972; -771.102; -717.815
612.538;  227.359;  385.887;  251.204
612.812;  184.777; -832.100; -911.820
613.087;  133.065; -358.098; -338.823
613.362;  -51.211; -497.107; -557.807
613.637;   37.247;  261.897;  138.186
613.911;  -10.178; -256.092; -345.835
614.186;  127.512; -249.107; -292.807
614.460;  711.415; -842.081; -758.854
614.735;  807.914;  -55.087;  -17.843
615.010;  165.879;   43.912;  -82.841
615.284;  257.677;  360.892;  246.195
615.559;  368.570; -792.092; -955.835
615.833;  296.457;  -76.099;  -87.822
616.108;    3.107; -225.090; -390.837
616.382;  132.115;  274.913;  402.156
616.656;  166.258; -241.090; -232.837
616.931;  498.308; -785.099; -700.822
617.205; 1106.592; -973.104; -979.813
617.480; 1016.405;  -91.125;    6.225
617.754;  163.627; -396.125; -128.774
618.028;    9.898; -369.129; -382.768
618.302;   64.926;   73.892;  -25.805
618.577;  -45.702; -371.103; -518.815
618.851;  -49.434; -399.109; -600.803
619.125;  -39.871; -335.134; -378.759
619.399;  -40.408; -244.104; -374.813
619.673;  -50.712; -330.115; -515.792
619.947;  -36.572; -333.114; -448.795
620.222;  -12.943; -198.110; -204.801
620.496;    2.492;  -47.121;  -96.782
620.770;   26.833; -187.122;  -93.781
621.044;  208.751;  323.895;  346.190
621.318;  751.595; -653.120; -614.783
621.592;  701.267; -430.121; -409.783
621.866;  387.196; -476.112; -572.799
622.140;   18.382; -207.116; -356.791
622.413;   55.025;  138.889;  112.200
622.687;  -27.988; -746.101; -492.817
622.961;   11.876; -130.108; -143.805
623.235;  -60.424; -633.111; -661.800
623.509; -104.117; -816.105; -848.811
623.783;   16.185;  -12.107;   48.193
624.056;  -16.279; -254.120; -280.783
624.330;   51.665;   63.888;   -3.797
624.604;   55.354; -271.116; -355.790
624.877;   76.662;  180.890;   26.198
625.151;   46.573; -249.114; -238.794
625.425;  -32.681; -150.103; -283.814
625.698;  -60.920; -367.119; -374.785
625.972;  -85.811; -799.110; -765.802
626.245;   68.456;  685.884;  484.210
626.519;  -32.875; -426.120; -340.784
626.792;  -46.312; -192.107; -380.807
627.066;  -97.899; -485.122; -662.779
627.339;  -87.015; -736.110; -663.802
627.613;   44.998;  351.880;  148.216
627.886;   51.891;  187.891; -612.803
628.160;   -7.081;  312.880; -161.783
628.433;  -85.467; -695.125; -703.775
628.706;  -83.150; -517.120; -615.784
628.979;   44.339;  296.876;  117.223
629.253;  -83.565; -785.119; -833.786
629.526;  366.142; -334.126; -253.772
629.799;  352.996; -641.123; -479.778
630.072;  172.200; -497.128; -516.769
630.346;  -60.694;-1115.116;-1080.790
630.619;  463.214; -467.107; -545.808
630.892;  643.452;  709.889;  593.200
631.165;  350.417;  790.896;  679.187
631.438;  -72.007;-1092.112;-1055.798
631.711;   41.924;  453.877;  257.221
631.984;  -67.324; -523.117; -624.789
632.257;  -60.477; -636.117; -681.789
632.530;  -34.820; -412.119; -433.785
632.803;   25.821; -109.115;    7.207
633.076;  -75.457; -360.123; -422.777
633.349;    3.904;  173.872;  121.231
633.622;  -28.446; -187.119; -240.785
633.895; -128.180; -903.120; -823.783
634.167;  -66.006; -496.126; -525.773
634.440;   -9.838;  -19.116; -137.792
634.713;  -17.616;  -22.119; -120.786
634.986;   92.468;  593.871;  453.233
635.258;  -78.631; -507.115; -597.793
635.531;   86.919;  742.882; -343.788
635.804;  -31.100; -303.117; -318.789
636.077; -104.317; -830.116; -852.791
636.349;   11.342; -586.115; -474.793
636.622;  380.817; 1695.874; 1392.228
636.894;  258.575; -474.120; -909.784
637.167;  158.336; -836.127; -789.771
637.439;   18.832; -278.128; -213.770
637.712;  -55.832; -312.126; -293.772
637.984;  -93.166; -635.116; -707.791
638.257;  377.193;  515.877;  488.222
638.529;  573.259; -881.125; -924.776
638.802;  233.399; -508.128; -449.769
639.074; -110.567; -927.122; -952.781
639.346; -119.930; -942.135; -930.757
639.619;   -1.594;  -79.142; -319.744
639.891;  -15.724;  -83.122; -168.779
640.163;  -76.622; -689.122; -756.780
640.435;   23.355;  273.878;  103.220
640.708;   15.407;  -72.122; -132.780
640.980;  -29.616; -366.122; -362.781
641.252;  191.911;  -25.121;  -71.781
641.524; 1821.562;  580.879;  573.219
641.796; 1833.389;-1094.121; -907.782
642.068;  320.616; -191.121; -300.782
642.340;  -56.232; -486.121; -566.783
642.613;   51.945;  294.880;  323.217
642.885;  -89.704; -787.120; -878.783
643.157;  -44.602; -810.120; -658.784
643.428;   61.650;  170.880;  218.216
643.700;  -78.448; -498.120; -425.784
643.972;  -28.821;  -16.119; -133.785
644.244;  -93.219; -474.119; -559.785
644.516;  -53.393; -250.119; -114.786
644.788;   52.684;  662.881;  548.214
645.060;  -22.039;  -12.119; -124.786
645.332; -111.537; -525.118; -535.787
645.603;   29.265;  479.882;  342.213
645.875;  -62.783; -334.118; -369.787
646.147;  157.243; 1487.882; 1242.212
646.418;  -56.955; -931.117; -918.788
646.690;  166.872; -714.117; -715.789
646.962;   35.324; -413.117; -451.789
647.233;   -5.949;   15.883;   11.211
647.505; -101.073; -595.117; -475.790
647.776;   34.904;  328.884;  229.210
648.048;    1.231; -248.116; -418.790
648.320;  -68.142; -752.116; -679.791
648.591; -162.265;-1055.116; -958.791
648.862;  -90.763; -505.116; -577.792
649.134;   11.513;  115.885;  198.208
649.405;  -45.835; -661.115; -618.792
649.677;  -54.458; -475.115; -598.793
649.948;    8.394; -181.115; -296.793
650.219;    0.021;  -37.115; -147.793
650.491;  -83.128; -431.114; -520.794
650.762; -131.851; -705.114; -731.794
651.033;  -77.299; -437.114; -424.795
651.304;  -92.947; -743.114; -728.795
651.576;  -68.545; -680.114; -645.795
651.847;  -34.793; -250.113; -140.796
652.118;  -24.742;  -32.113; -189.796
652.389; -109.665; -639.113; -722.796
652.660;  -37.363; -147.113;  -89.797
652.931; -136.761; -897.112; -871.797
653.202;  -91.659; -382.112; -541.798
653.473;  -72.682; -633.112; -533.798
653.744;  149.169; -595.112; -590.798
654.015;  133.946; -356.112; -303.799
654.286;  -70.077; -642.111; -663.799
654.557;  -61.000; -586.111; -521.799
654.828; -154.748;-1114.111;-1088.800
655.099;  -88.222; -404.111; -291.800
655.370;  -97.020; -427.111; -543.801
655.641; -133.818; -656.110; -714.801
655.911;  -97.816; -618.110; -638.801
656.182;   49.986;  437.890;  387.198
656.453;  102.638;  830.890;  746.198
656.724;  -72.561; -466.110; -426.802
656.994;  -93.009; -553.109; -568.803
657.265; -113.082; -862.109; -873.803
657.536;  -77.130; -500.109; -377.804
657.806; -102.153; -561.109; -593.804
658.077; -136.476; -866.109; -950.804
658.347;  -92.775; -523.108; -598.805
658.618; -114.298; -646.108; -694.805
658.888;  -30.021;  -41.108;  112.195
659.159;  -70.369; -432.108; -548.806
659.429;  -14.467; -292.108; -349.806
659.700;   13.009; -435.107; -390.807
659.970;   -5.389; -370.107; -359.807
660.241;   27.288; -754.107; -921.807
660.511;  513.040; -147.107; -174.808
660.781;  109.092; -793.106; -748.808
661.052;  -54.931; -222.106; -381.808
661.322;  -18.780;   21.894;   -9.809
661.592;   14.847;  257.894;  148.191
661.862;  -75.351; -369.106; -382.810
662.133;  -92.324; -551.105; -502.810
662.403; -119.297; -770.105; -676.810
662.673;  -44.670; -256.105; -213.811
662.943;  -92.694; -612.105; -551.811
663.213;  -28.892;  -85.105;  -81.811
663.483;  -73.915; -593.104; -568.812
663.753;  -40.413; -194.104; -152.812
664.023;   -9.336;   68.896;  -32.813
664.293;  -58.760; -319.104; -126.813
664.563; -107.233; -694.104; -648.813
664.833; -121.156; -743.103; -608.814
665.103; -113.179; -730.103; -793.814
665.373; -106.627; -766.103; -806.814
665.643;  -79.550; -863.103; -918.815
665.913;   39.926; -534.103; -714.815
666.182;  132.428; -685.102; -719.816
666.452;  256.480;  -22.102;  -89.816
666.722;  -21.393; -724.102; -784.816
666.992; -131.966; -948.102; -921.817
667.261; -101.039; -824.102; -808.817
667.531;  189.162;  134.899;   45.183
667.801;  530.414; -440.101; -412.818
668.070;  223.766;  714.899;  697.182
668.340; -108.557; -883.101; -840.819
668.609;   87.345;  588.900;  301.181
668.879;  -70.879; -490.100; -558.819
669.149;  -75.377; -539.100; -516.820
669.418; -105.100; -698.100; -726.820
669.688;  -26.948; -482.100; -666.820
669.957;   92.654; -423.099; -546.821
670.226;  -17.419; -268.099; -331.821
670.496;  -96.868; -431.099; -635.822
670.765;  -77.391; -418.099; -501.822
671.034; -141.164; -872.099; -828.822
671.304;   -6.912;   55.902; -111.823
671.573; -150.785;-1085.098; -957.823
671.842;   76.091; -380.098; -294.823
672.112;   20.618; -692.098; -586.824
672.381;    5.370; -239.098; -214.824
672.650; -137.103;-1005.097;-1021.825
672.919;  -89.551; -631.097; -507.825
673.188;  -95.949; -681.097; -878.825
673.457; -151.548;-1101.097;-1143.826
673.726;  -85.646; -579.096; -646.826
673.995;  -52.094; -533.096; -479.826
674.265;  -11.942; -263.096; -333.827
674.534;   23.535; -183.096; -235.827
674.802;   29.337; -618.096; -703.828
675.071; 1035.488; -886.095; -801.828
675.340; 4047.440; -464.095; -339.828
675.609; 1334.592;  103.905;   82.171
675.878;   93.869; -949.095; -893.829
676.147;   18.996;  -26.095;   -8.829
676.416;   91.922; -210.094; -294.830
676.685;  768.924; 1000.906; -622.830
676.953;  120.751; -603.094; -452.831
677.222;  -41.222; -193.094; -273.831
677.491;  -23.845;  -24.094; -127.831
677.759;  -11.018;   11.907;  172.168
678.028;   -5.117; -279.093; -222.832
678.297;   -7.915;   71.907;  197.168
678.565; -146.238; -898.093; -944.833
678.834;  -60.736; -311.093; -268.833
679.102;  -80.409; -411.092; -391.834
679.371; -150.257; -898.092; -727.834
679.639; -129.331; -797.092; -786.834
679.908; -119.554; -794.092; -724.835
680.176; -149.977; -895.091; -941.835
680.445;  -66.125; -346.091; -352.835
680.713;  -18.648;  -58.091;  -23.836
680.982;  -85.872; -523.091; -525.836
681.250; -107.220; -578.091; -507.837
681.518;  -96.693; -534.090; -751.837
681.787;  -16.341; -204.090; -167.837
682.055;  -71.039; -490.090; -422.838
682.323; -130.587; -993.090; -992.838
682.591;   25.714; -216.090; -538.838
682.859;   90.691;    9.911;  -35.839
683.128;    4.568;  232.911;  497.161
683.396; -160.780;-1102.089;-1122.840
683.664;  -24.053; -241.089;   21.160
683.932;    8.049;  144.911;  -76.840
684.200;  -85.400; -576.088; -320.841
684.468;  -15.323;  -73.088; -124.841
684.736;  -30.646; -214.088; -175.841
685.004; -116.444;-1024.088; -982.842
685.272;  -46.492; -880.088; -774.842
685.540;  -71.191; -499.087; -557.843
685.808;  -71.164; -651.087; -682.843
686.076;  -91.162; -894.087; -969.843
686.343;  -67.510; -601.087; -815.844
686.611;   30.467; -195.087; -224.844
686.879;  467.044; -530.086; -553.844
687.147; 3398.270; -483.086; -480.845
687.414;  963.597;  -12.086; -169.845
687.682;    9.999; -658.086; -757.846
687.950;  321.076;  259.915;  263.154
688.217;   24.978; -792.085; -760.846
688.485;   -2.995; -632.085; -636.847
688.753;  552.806;  -11.085; -102.847
689.020;  177.308; -820.085; -851.847
689.288;  -84.965; -853.084; -787.848
689.555;  -26.688; -195.084; -148.848
689.823;  -35.186; -241.084; -345.849
690.090;  -88.510; -546.084; -651.849
690.358; -143.833; -877.084; -897.849
690.625;   16.569;  120.917;   45.150
690.892;  -79.104; -403.083; -369.850
691.160;  -25.002;   72.917;  -35.850
691.427;  -12.450;  141.917;  130.149
691.694; -126.149; -855.083; -929.851
691.962; -152.772;-1177.082;-1060.852
692.229;    0.705;  127.918;   56.148
692.496;   85.432;  130.918;  -49.852
692.763;   14.934; -164.082; -201.853
693.031;  -72.565; -739.082; -716.853
693.298;  -21.838; -509.081; -368.853
693.565;  314.364; -155.081; -163.854
693.832; 1341.991;   -5.081;   -9.854
694.099;  140.993; -643.081; -642.855
694.366;  -75.305; -882.081; -896.855
694.633;  -54.454; -920.080; -633.855
694.900;  736.123; 4367.920; -114.856
695.167;  433.750; -214.080; -380.856
695.434;   86.502; -646.080; -623.856
695.701;  191.279;  121.921;  -61.857
695.968;  476.956; -365.079; -361.857
696.234;  980.882; -415.079; -646.858
696.501;10155.209; -776.079; -614.858
696.768; 5173.136; -554.079; -617.858
697.035;  315.888; -632.078; -667.859
697.302;   23.265; -448.078; -552.859
697.568;   12.266; -458.078; -497.859
697.835;  -44.382; -683.078; -624.860
698.102;  -29.330; -498.078; -407.860
698.368;   74.522;  384.923;  396.139
698.635;  -16.876;  -47.077; -424.861
698.901;  -13.624; -240.077; -348.861
699.168;   73.352; -534.077; -456.862
699.435;   83.779;  -72.077;  -13.862
699.701; -106.269; -868.076; -764.862
699.968;   15.483;  144.924; -441.863
700.234; -108.990; -783.076; -822.863
700.500;  -46.488; -448.076; -539.864
700.767;   -1.787;   -1.075;   26.136
701.033; -127.985;-1015.075; -963.864
701.299;  -45.708; -450.075; -483.865
701.566;  134.669;  950.925;  763.135
701.832;   34.846;  -31.075;  -76.865
702.098; -102.403;-1054.074;-1034.866
702.365;  -84.576;-1098.074;-1030.866
702.631;  -15.799;-1038.074;-1063.867
702.897; 1362.803; -765.074; -676.867
703.163; 2279.880;  348.926;  254.133
703.429;  145.932; -256.073; -273.868
703.695;  -34.992; -796.073; -792.868
703.961;   21.460; -214.073; -210.868
704.227;  -51.463; -630.073; -725.869
704.493;  109.514;  613.927;  510.131
704.759;  -30.209; -565.072; -540.870
705.025;   42.693; -203.072; -194.870
705.291;   -8.606; -666.072; -562.870
705.557;  201.321;  719.928;   34.129
705.823;   30.023; -742.072; -694.871
706.089;  140.050; -307.071; -326.871
706.355;  361.027; -315.071; -244.872
706.620; 5333.603; -776.071; -729.872
706.886; 7629.305; -309.071; -362.873
707.152;  709.007; -818.070; -973.873
707.418;  -15.441;-1153.070;-1186.873
707.683;  -12.689; -550.070; -530.874
707.949;  -44.037; -547.070; -578.874
708.215;   -9.061; -129.070; -207.874
708.480;  -30.584; -520.069; -420.875
708.746;  105.293;   68.931;   28.125
709.011;  -55.380; -578.069; -612.876
709.277;  -73.978; -538.069; -543.876
709.542;  -48.427; -428.069; -387.876
709.808;    0.425;  -59.068;   89.123
710.073;  -82.923; -577.068; -695.877
710.339;  -30.596; -242.068; -228.877
710.604;   82.656; -780.068; -845.878
710.869;  326.108; -277.068; -366.878
711.135;  -75.391; -715.067; -628.879
711.400;  -88.314; -507.067; -608.879
711.665;  -65.737; -404.067; -479.879
711.931;  -92.535; -661.067; -677.880
712.196; -117.208; -876.067; -954.880
712.461;  104.494; -402.066; -490.880
712.726;  146.295; -727.066; -771.881
712.991;  -83.603; -647.066; -664.881
713.256;  -60.501; -350.066; -332.882
713.521;  -61.824; -417.065; -381.882
713.787;  -70.847; -454.065; -472.882
714.052;  -30.096; -214.065; -400.883
714.317; -101.544;-1045.065; -981.883
714.581;  976.908; -374.065; -268.883
714.846; 1364.285; -822.064; -888.884
715.111;  128.337;  261.936;  257.116
715.376;  -20.911;  -86.064; -223.885
715.641;  -18.760; -365.064; -367.885
715.906;  295.867;   15.936; -551.885
716.171;  134.419;  221.937;  209.114
716.436;   41.296;  -78.063; -104.886
716.700; -114.877; -818.063; -692.886
716.965; -123.225; -794.063; -807.887
717.230;  -65.624; -339.063; -392.887
717.494;  -14.772;  -40.062; -134.888
717.759;  -96.745; -784.062; -640.888
718.024;  -11.268;  269.938;  250.112
718.288;   86.934;  685.938;  395.111
718.553; -141.390; -803.062; -977.889
718.817; -134.588; -883.061; -899.889
719.082;  -25.711; -115.061; -125.890
719.346; -141.109;-1000.061; -947.890
719.611;  -45.857; -300.061; -255.891
719.875;  -89.980; -568.060; -537.891
720.140;  -63.179; -453.060; -603.891
720.404;   30.123; -136.060; -249.892
720.668;  876.825; -475.060; -411.892
720.933;  337.752;  146.940;  137.108
721.197;  -88.321; -667.059; -600.893
721.461; -138.619; -851.059; -826.893
721.725;  -12.318;  -21.059; -250.894
721.990;  -53.541; -284.059; -204.894
722.254;  -30.989;  -26.059; -108.894
722.518;  -69.112; -286.058; -442.895
722.782;  -85.985; -743.058; -594.895
723.046;  115.966;  614.942;  570.105
723.310;   24.268;  374.942;  210.104
723.574;  -96.880; -654.058; -614.896
723.838; -108.978; -576.057; -642.897
724.102;  -53.501; -226.057; -239.897
724.366; -134.124;-1032.057; -978.897
724.630;  -96.323; -749.057; -571.898
724.894;  -64.321; -722.057; -514.898
725.158;  -19.069;   38.944; -295.898
725.422;  -63.992; -394.056; -327.899
725.685;  -58.315; -441.056; -349.899
725.949;  -79.938; -566.056; -519.900
726.213;  -84.112; -732.056; -811.900
726.477;  170.290;-1020.055; -933.900
726.740;  145.992; -274.055; -104.901
727.004;  336.744; -384.055; -510.901
727.268; 3210.371; -442.055; -400.901
727.531;  920.222; -961.055; -775.902
727.795;  -37.101; -713.054; -673.902
728.059;  -51.174; -552.054; -557.903
728.322;  -77.472; -841.054; -669.903
728.586;   32.905; -692.054; -701.903
728.849;  -77.418; -695.053; -756.904
729.112; -120.267; -812.053; -912.904
729.376; -131.615; -959.053; -905.904
729.639;  -87.238; -536.053; -536.905
729.903; -101.336; -733.053; -699.905
730.166;  -43.384; -437.052; -399.906
730.429;  -20.758; -317.052; -468.906
730.693;  -64.306; -355.052; -894.906
730.956;  211.896;  810.948;  651.093
731.219;  704.698; -310.052; -103.907
731.482;  113.600;-1003.051; -894.907
731.745;  113.002; -794.051; -935.908
732.009;   -3.172;  -30.051;   50.092
732.272;  -91.220; -904.051; -771.909
732.535;  -29.568; -300.051; -310.909
732.798; -155.966;-1083.050;-1166.909
733.061;  -55.064; -430.050; -456.910
733.324;   -1.887;   31.950; -180.910
733.587;   72.414;  290.950;  365.090
733.850;  -76.209; -973.049;-1050.911
734.113;   30.468;   33.951;   32.089
734.376;   -5.905; -328.049; -447.912
734.639;  222.922; 1188.951; 1011.088
734.901;   90.348; -180.049; -402.912
735.164;  494.900; -883.048; -837.913
735.427; 1328.327; -166.048; -355.913
735.690;  117.204; -205.048; -234.913
735.952;  -28.769; -923.048; -925.914
736.215;  -27.592;-1113.048;-1009.914
736.478;   31.084; -771.047; -774.915
736.740;  226.361;   33.953;  129.085
737.003;  674.113; -658.047; -672.915
737.266; 4144.590;  -94.047;   46.084
737.528;  449.367; -682.047; -660.916
737.791;  292.919; -316.046; -327.916
738.053;  778.495;  465.954;  649.083
738.316;10543.872; -162.046; -136.917
738.578; 7581.324; -770.046; -736.918
738.841;  427.201; -382.046; -446.918
739.103;  171.753; -875.045; -777.918
739.365;  513.679;   79.955;  -69.919
739.628;   -0.219; -884.045; -805.919
739.890;  -20.892; -758.045; -710.919
740.152;  -43.940; -692.044; -754.920
740.414;  -11.113; -408.044; -359.920
740.677;  -45.836; -785.044; -634.921
740.939;  -50.535; -587.044; -487.921
741.201;  269.642; -432.044; -572.921
741.463;   47.019; -689.043; -745.922
741.725;   13.421;  -21.043; -199.922
741.987;   63.398;  220.957;  116.078
742.249;    6.175; -751.043; -859.923
742.511;  224.001; -703.043; -794.923
742.773;   21.753; -546.042; -546.924
743.035;  136.830;  796.958;  533.076
743.297;  -31.693; -963.042;-1013.924
743.559;  762.484; -278.042; -262.925
743.821;   55.410; -735.042; -744.925
744.083;   27.237;  -44.041; -149.925
744.345;  -91.536; -869.041; -892.926
744.607;   41.791;   75.959;  122.074
744.868;  -55.107; -490.041; -554.927
745.130; -111.155; -994.041;-1008.927
745.392;   47.896;   -1.040;  -44.927
745.653;   -7.952; -411.040; -378.928
745.915;  143.000;  896.960;  631.072
746.177;   49.602;   35.960;  -43.928
746.438;   -8.571; -428.040; -543.929
746.700;  -46.394; -947.039; -988.929
746.961;    7.082; -659.039; -740.930
747.223;  134.509; -190.039;  -74.930
747.484;  101.286; -391.039; -471.930
747.746;  151.863;  -23.038; -106.931
748.007;  111.240; -647.038; -689.931
748.269;  303.391; -468.038; -440.931
748.530;  480.393; -852.038; -638.932
748.791;  266.020; -354.038; -420.932
749.053;  453.547;  286.963;  163.067
749.314;  464.499; -236.037; -169.933
749.575;  523.476; -945.037; -905.933
749.836;  857.702; -217.037;   86.066
750.098; 2457.929;  -60.037;  -21.934
750.359;36884.806;  414.964;  555.066
750.620; 9500.258; -121.036; -220.935
750.881; 1061.460; -585.036; -513.935
751.142; 1346.511; -950.036; -938.936
751.403;16505.738; -789.036; -705.936
751.664; 7489.515;-1034.035; -999.936
751.925;  482.542; -175.035; -262.937
752.186;  279.244; -298.035; -278.937
752.447;  141.296; -590.035; -445.937
752.708;   46.897; -532.035; -648.938
752.969;   18.324; -566.034; -576.938
753.230;   -9.549; -777.034; -672.939
753.491;    1.628; -650.034; -631.939
753.751;   71.305;  109.966;   19.061
754.012;   83.757;  258.967;  181.060
754.273;   55.708; -174.033;  -71.940
754.534;    5.535; -487.033; -580.940
754.794;  -97.513; -926.033; -911.941
755.055;  132.614; 1051.967;  881.059
755.316;  -48.259; -700.032; -566.942
755.576;  -18.683; -606.032; -576.942
755.837;  -34.731; -527.032; -695.942
756.097;  -48.004; -530.032; -564.943
756.358;  -75.802; -725.032; -770.943
756.618;  -47.400; -705.031; -641.943
756.879;   13.902; -254.031; -349.944
757.139; -131.497;-1098.031;-1116.944
757.400;  -54.895; -538.031; -553.945
757.660;  -26.443; -365.031; -401.945
757.920;   13.359; -266.030; -228.945
758.181;  -25.389; -468.030; -351.946
758.441;  -85.737; -870.030; -809.946
758.701;  -19.136; -308.030; -215.946
758.961;  -17.184; -220.030; -278.947
759.222;  -48.382; -574.029; -502.947
759.482;  -73.205; -683.029; -723.948
759.742;  -85.853; -706.029; -547.948
760.002;   18.098;  -83.029; -143.948
760.262;   27.825;   50.972;  182.051
760.522;  -47.048; -498.028; -574.949
760.782;  -49.796; -738.028; -612.949
761.042;  -34.869; -618.028; -573.950
761.302;   55.533;   55.972;  -18.950
761.562;   55.684; -164.027; -154.951
761.822;   90.161; -710.027; -551.951
762.082;  -23.287;-1104.027;-1093.951
762.342;   65.440; -328.027; -403.952
762.601;   86.142; -567.027; -506.952
762.861;  363.819; -281.026; -207.952
763.121;  399.795; -406.026; -411.953
763.381; 7214.372; -499.026; -485.953
763.640; 8160.249; -139.026; -307.954
763.900;  354.526; -242.026; -203.954
764.160;   75.153; -458.025; -491.954
764.419;  -19.871; -726.025; -782.955
764.679;  -69.094; -795.025; -726.955
764.939;   -5.117; -124.025; -210.955
765.198;  -70.865; -608.025; -563.956
765.458;  -90.788; -710.024; -612.956
765.717;  -94.261; -454.024; -590.957
765.976;  -65.485; -428.024; -411.957
766.236;  -69.583; -475.024; -610.957
766.495;   10.194;  260.977;   73.042
766.755;  -89.679;-1090.023; -987.958
767.014;    3.023; -594.023; -665.958
767.273;  -54.601; -373.023; -397.959
767.533;  -49.874; -228.023; -307.959
767.792;  -29.347; -151.022; -188.960
768.051;  -61.345; -228.022; -276.960
768.310;  -83.943; -546.022; -650.960
768.569;   -7.941; -161.022;    4.039
768.828;  -34.465; -285.022; -363.961
769.088; -112.863;-1050.021; -942.961
769.347;  -92.736; -755.021; -599.962
769.606; -110.259; -876.021; -857.962
769.865; -133.482;-1016.021;-1033.963
770.124;   -3.055; -411.021; -336.963
770.383;  -51.129; -778.020; -910.963
770.641;   -3.602; -398.020; -400.964
770.900;  -70.650; -953.020; -846.964
771.159;  -60.223; -851.020; -951.964
771.418;  -10.096; -917.020; -779.965
771.677;  114.355; -224.019; -293.965
771.936;  143.757; -794.019; -865.966
772.194; 2058.984; -465.019; -437.966
772.453;10735.611; -213.019; -391.966
772.712;  753.388;  416.982;  329.033
772.970;  117.165;   32.982;   63.033
773.229;   70.641;  -22.018;  102.033
773.488;  -89.657; -814.018; -770.968
773.746;   60.045;  296.982;  335.032
774.005;    4.097;  190.983;  -22.969
774.263;   12.249;  243.983;  177.031
774.522;  -50.149; -422.017; -548.969
774.780;  -79.273; -484.017; -417.970
775.039;  -86.871; -551.017; -531.970
775.297;  -38.144; -135.016; -351.970
775.555; -103.392; -489.016; -612.971
775.814; -118.265; -618.016; -570.971
776.072; -120.889; -749.016; -740.971
776.330; -109.362; -630.016; -520.972
776.589; -125.310; -703.015; -721.972
776.847; -123.033; -645.015; -624.973
777.105; -166.406;-1016.015;-1032.973
777.363;  -88.529; -459.015; -454.973
777.621; -138.678; -660.015; -717.974
777.879;  -32.751;  -42.014;   32.026
778.138;  -88.349; -554.014; -717.974
778.396; -102.047; -585.014; -526.975
778.654; -166.870;-1015.014; -970.975
778.912;  -70.693; -269.014; -371.976
779.170; -133.142; -880.013; -803.976
779.427; -150.140; -922.013; -897.976
779.685; -134.288; -880.013; -832.977
779.943;  -85.611; -654.013; -593.977
780.201; -146.034; -964.012; -883.978
780.459; -124.383; -651.012; -610.978
780.717;  -78.406; -440.012; -390.978
780.974; -106.754; -449.012; -490.979
781.232;  -81.252; -358.012; -338.979
781.490;  -76.650; -551.011; -472.979
781.747;  -84.623; -555.011; -476.980
782.005;   25.228;  462.989;  254.020
782.263; -161.670; -542.011;-1004.981
782.520;  -88.593; -326.011; -501.981
782.778; -164.316;-1013.010;-1051.981
783.035; -164.114; -962.010; -938.982
783.293;  -57.912; -248.010; -206.982
783.550;  -65.986; -134.010; -198.982
783.808; -132.884; -764.010; -776.983
784.065; -165.107; -745.009; -874.983
784.322;  -53.280;   25.991;  -86.984
784.580; -146.328; -915.009; -771.984
784.837;  -86.002; -392.009; -466.984
785.094; -131.750; -783.009; -762.985
785.352;  -62.698; -304.008; -404.985
785.609; -112.046; -934.008; -839.985
785.866;  -83.094; -345.008; -401.986
786.123;  -63.167; -639.008; -583.986
786.380;  -96.291; -665.008; -604.987
786.637;  -48.989; -225.007; -380.987
786.895;  -20.262; -456.007; -543.987
787.152;  -49.610; -135.007; -267.988
787.409;  -39.208; -123.007; -225.988
787.666;  -86.282; -299.006; -378.988
787.923; -114.505; -616.006; -695.989
788.179; -104.828; -551.006; -584.989
788.436; -108.776; -585.006; -585.990
788.693;  -45.349;  -92.006;  -87.990
788.950;  153.953; -125.005; -112.990
789.207;  238.429; -381.005; -372.991
789.464;  -54.044; -161.005; -301.991
789.720;   -6.342;  150.995;  110.009
789.977; -158.615;-1003.005; -671.992
790.234;  -43.038;   44.996;  -66.992
790.490; -153.811; -884.004;-1031.993
790.747;  -27.010;  -85.004;   22.007
791.004;  -24.783; -426.004; -348.993
791.260;  -84.131; -430.004; -560.994
791.517;  -98.454; -843.003; -788.994
791.773;  -36.902; -379.003; -342.994
792.030;  -94.301; -596.003; -660.995
792.286; -107.474; -686.003; -636.995
792.543;   -8.797;  -74.002; -159.995
792.799;  -57.345; -584.002; -382.996
793.055; -151.018;-1179.002;-1210.996
793.312;  -84.591; -827.002; -816.997
793.568;  -56.290; -746.002; -599.997
793.824;   28.412; -226.001; -284.997
794.081;   16.014; -447.001; -508.998
794.337;   44.641; -664.001; -561.998
794.593; 1278.943; -319.001; -271.999
794.849; 6579.995; -746.001; -772.999
795.105;  335.421; -270.000; -261.999
795.361;    6.898; -490.000; -457.000
795.617;  -58.725; -875.000; -945.000
795.873;  -43.550; -360.000; -407.000
796.129;  -28.000; -368.000; -306.000
796.385;  -18.700; -124.000; -156.000
796.641;   65.175;  412.000;  550.000
796.897;  -80.275; -666.000; -635.000
797.153;   64.825;  453.000;  357.000
797.409; -106.425; -785.000; -868.000
797.665;  -83.750; -625.000; -732.000
797.921;  -86.325; -775.000; -762.000
798.176;  -50.075; -744.000; -747.000
798.432;  -57.150; -824.000; -596.000
798.688;  -83.625;-1174.000;-1078.000
798.943;   75.250; -165.000; -147.000
799.199;   -4.375;-1005.000; -959.000
799.455;  237.275;  369.000;  316.000
799.710;  135.775; -813.000; -380.000
799.966;  300.525; -162.000; -160.000
800.221;  470.950; -638.000; -721.000
800.477;10033.075; -743.000; -710.000
800.732; 9259.950; -773.000; -800.000
800.988;  614.350;  205.000;  -19.000
801.243; 1643.150; -454.000; -344.000
801.498; 7382.575; -814.000; -739.000
801.754;  433.675; -289.000; -163.000
802.009;   84.975; -257.000; -335.000
802.264;  -60.750; -967.000;-1033.000
802.520;   25.525;  222.000;   -3.000
802.775;  -40.200; -524.000; -359.000
803.030;   40.950;  395.000;  356.000
803.285; -114.300; -840.000; -903.000
803.540;  -55.200; -686.000; -699.000
803.795;  -57.025; -648.000; -583.000
804.051;  -41.850; -279.000; -346.000
804.306;   28.375;  168.000;  128.000
804.561;  132.075;  451.000;  362.000
804.816;  138.150;  714.000;  861.000
805.071;   10.200; -185.000; -280.000
805.325;  221.200; -257.000; -427.000
805.580;  -99.650; -841.000; -877.000
805.835;  -27.950; -204.000; -297.000
806.090;  -82.250; -760.000; -676.000
806.345;  -16.600; -344.000; -264.000
806.600;  -49.850; -549.000; -632.000
806.854;  -28.700; -408.000; -538.000
807.109;  -16.275; -493.000; -577.000
807.364;    9.650; -407.000; -328.000
807.618;   -0.675; -415.000; -381.000
807.873;   52.300; -470.000; -494.000
808.128;  108.600; -257.000; -518.000
808.382;  116.650; -224.000; -332.000
808.637;   65.650; -440.000; -511.000
808.891;  179.900; -257.000; -180.000
809.146;  104.350; -902.000; -794.000
809.400;  277.050; -848.000; -923.000
809.654;  329.100; -779.000; -551.000
809.909;  505.900; -841.000; -927.000
810.163; 6561.300; -813.000; -651.000
810.418;17544.525; -940.000; -861.000
810.672; 1053.525; -685.000; -690.000
810.926;  703.850; -993.000; -973.000
811.180; 1356.650; -439.000; -372.000
811.434;30638.575;  240.000;  135.000
811.689;12921.300; -231.000; -365.000
811.943;  648.625; -936.000; -953.000
812.197;  311.900; -893.000; -671.000
812.451;  129.125; -379.000; -514.000
812.705;  -23.075; -809.000; -619.000
812.959;    5.125; -263.000; -388.000
813.213;   -5.225; -283.000; -209.000
813.467;   66.200;  470.000;  253.000
813.721; -109.750; -764.000; -792.000
813.975; -113.700; -826.000; -877.000
814.229;   38.750;  430.000;  353.000
814.482;  -73.875; -517.000; -566.000
814.736; -127.050; -766.000; -744.000
814.990; -121.425; -779.000; -872.000
815.244;  -40.950; -228.000; -285.000
815.497;  -83.625; -636.000; -601.000
815.751;  -17.750; -141.000;   82.000
816.005;  -99.250; -470.000; -586.000
816.258;  -67.775; -510.000; -363.000
816.512;  -98.525; -693.000; -610.000
816.766;  -13.175;  121.000;  157.000
817.019;   29.375;  148.000;  149.000
817.273; -118.100;-1000.000; -802.000
817.526;  -35.900; -206.000; -173.000
817.779;  -49.025;-1049.000; -960.000
818.033;  -74.850; -693.000; -807.000
818.286; -126.500; -725.000; -792.000
818.540;  -77.850; -403.000; -403.000
818.793;  -67.500; -402.000; -489.000
819.046; -104.450; -582.000; -520.000
819.299;  -42.375; -157.000; -166.000
819.553; -102.950; -552.000; -592.000
819.806; -171.350;-1016.000; -838.000
820.059;  -58.150; -334.000; -354.000
820.312;   12.100;  152.000;  185.000
820.565;  -25.550;  110.000;  -27.000
820.818;  -63.225;  -59.000; -173.000
821.071; -149.450;-1041.000; -957.000
821.324;  -99.475; -536.000; -540.000
821.577;  -99.225; -457.000; -483.000
821.830;  -68.950; -270.000; -172.000
822.083; -134.800; -733.000; -288.000
822.336;  -45.525; -261.000; -167.000
822.589; -126.725; -805.000; -688.000
822.842; -139.575; -875.000; -770.000
823.094; -174.450;-1076.000;-1114.000
823.347; -133.300; -925.000; -729.000
823.600;   17.625;  402.000;  187.000
823.853;  -61.500; -311.000; -267.000
824.105;  -71.800; -331.000; -575.000
824.358; -110.800; -617.000; -716.000
824.611;   25.025;  234.000;   40.000
824.863;  -52.925; -612.000; -591.000
825.116;   50.325;  -33.000;   27.000
825.368;   79.800; -366.000; -372.000
825.621;  157.100; -186.000; -240.000
825.873;   85.000; -704.000; -737.000
826.126;  558.075; -669.000; -641.000
826.378;11464.325; -389.000; -505.000
826.630; 2929.675; -890.000; -898.000
826.883;   38.925; -754.000; -693.000
827.135;   45.475; -279.000; -270.000
827.387; -118.400; -893.000; -839.000
827.639;  -35.800;  -86.000;   32.000
827.892; -131.500; -742.000; -582.000
828.144; -139.800; -848.000; -804.000
828.396;  -30.575;  104.000;  -80.000
828.648;  -99.650; -440.000; -333.000
828.900; -143.575; -702.000; -795.000
829.152; -121.375; -684.000; -683.000
829.404;  -66.400; -215.000; -267.000
829.656;  -42.175;  321.000;  214.000
829.908;  -29.375;  393.000;  229.000
830.160; -167.250;-1064.000;-1047.000
830.412;  -97.875; -481.000; -430.000
830.664; -106.100; -557.000; -665.000
830.916;  -76.275; -268.000; -206.000
831.167; -180.850;-1073.000; -951.000
831.419; -120.325; -623.000; -566.000
831.671; -153.600; -764.000; -809.000
831.923;  -87.675; -311.000; -447.000
832.174;  -71.050; -273.000; -331.000
832.426; -114.550; -493.000; -582.000
832.678; -185.475;-1043.000;-1091.000
832.929; -166.225; -947.000; -935.000
833.181;  -59.450; -575.000; -677.000
833.432;  -46.875;  -59.000; -186.000
833.684;  -14.975;  112.000;  -27.000
833.935; -118.475; -610.000; -566.000
834.187; -138.275; -829.000; -823.000
834.438;  -48.725;  -58.000;  -25.000
834.689;  -69.175; -255.000; -123.000
834.941;  -58.350; -343.000; -244.000
835.192; -100.475; -590.000; -533.000
835.443;  -97.400; -419.000; -506.000
835.695;   -5.075;  138.000;  -16.000
835.946;  -94.600; -608.000; -378.000
836.197; -108.200; -599.000; -622.000
836.448;  -98.075; -528.000; -395.000
836.699;  -50.100; -253.000; -341.000
836.950;   -8.275;   72.000;    7.000
837.201; -152.450;-1003.000; -987.000
837.452;  -62.325; -356.000; -170.000
837.703; -107.200; -791.000; -737.000
837.954;  -39.100; -205.000; -365.000
838.205;  -78.175;-1029.000;-1008.000
838.456;  165.075; -196.000; -282.000
838.707;   11.425; -423.000; -519.000
838.958;    3.500; -634.000; -647.000
839.209;  277.125;   18.000;   40.000
839.460;  115.275; -439.000; -201.000
839.710;  153.425; -135.000; -297.000
839.961;  412.250;  730.000;  612.000
840.212;  334.475; -382.000; -497.000
840.462; 1093.775; -328.000; -277.000
840.713;17704.325; -571.000; -536.000
840.964; 7488.275;  -62.000; -143.000
841.214;  518.450; -384.000; -624.000
841.465;  568.375; -214.000; -141.000
841.715;  522.975; -417.000; -380.000
841.966;  673.850; -746.000; -685.000
842.216; 9018.975; -330.000; -431.000
842.466;35810.425; -169.000; -313.000
842.717; 2065.300; -964.000; -952.000
842.967;  322.425; -635.000; -641.000
843.217;  290.950;   20.000;   28.000
843.468;   82.700; -104.000; -132.000
843.718;  -38.525; -718.000; -726.000
843.968;  -84.625; -837.000; -765.000
844.218;   14.050; -315.000; -262.000
844.469;  -57.675; -577.000; -561.000
844.719; -127.375; -537.000; -682.000
844.969;  -84.150; -550.000; -580.000
845.219; -147.400; -814.000; -862.000
845.469;  -79.125; -392.000; -342.000
845.719; -132.725; -792.000; -884.000
845.969;   -8.000;  119.000;  174.000
846.219; -117.900; -738.000; -720.000
846.469;    7.700;  464.000;  432.000
846.718;  -60.000; -115.000;   31.000
846.968; -138.200; -827.000; -827.000
847.218;  -61.275; -224.000; -371.000
847.468; -110.400; -586.000; -555.000
847.718; -137.875; -827.000; -798.000
847.967; -134.800; -826.000; -915.000
848.217;  -77.125; -449.000; -569.000
848.467;  -56.950; -405.000; -376.000
848.716; -119.550; -708.000; -725.000
848.966;    2.000; -372.000; -358.000
849.215;  -60.525; -428.000; -419.000
849.465;  -90.925; -785.000; -615.000
849.714; -133.125;-1132.000;-1150.000
849.964;  -65.850; -551.000; -613.000
850.213;  -32.625; -393.000; -355.000
850.463;   68.900;  137.000;  340.000
850.712;   -3.000; -542.000; -567.000
850.961;    2.550; -739.000; -678.000
851.211;  103.200; -513.000; -504.000
851.460;  163.800; -635.000; -650.000
851.709;  553.200;  -25.000;   18.000
851.958;10008.975; -912.000; -750.000
852.208;12844.025; -859.000; -879.000
852.457;  477.550; -181.000;  -13.000
852.706;   50.750; -791.000; -823.000
852.955;   28.800; -507.000; -528.000
853.204;  -81.150; -521.000; -461.000
853.453;  -92.775; -418.000; -458.000
853.702; -123.950; -660.000; -750.000
853.951; -113.425; -532.000; -520.000
854.200; -111.025; -613.000; -562.000
854.449; -139.775; -695.000; -661.000
854.698;  -87.850; -340.000; -279.000
854.946;  -73.325; -181.000; -284.000
855.195; -151.600; -843.000; -868.000
855.444;  -91.325; -395.000; -420.000
855.693; -133.325; -345.000; -432.000
855.941; -110.475; -387.000; -516.000
856.190;  -60.225; -256.000; -382.000
856.439; -127.125; -652.000; -703.000
856.687;  -63.925;  -99.000;  -72.000
856.936; -114.550; -621.000; -323.000
857.184; -170.425;-1067.000;-1020.000
857.433; -108.775; -423.000; -512.000
857.681; -161.700; -989.000; -953.000
857.930;  -78.350; -282.000; -433.000
858.178; -168.150; -856.000; -929.000
858.427; -163.725; -802.000; -781.000
858.675; -119.175; -377.000; -544.000
858.923; -108.825; -527.000; -819.000
859.172; -184.225;-1094.000;-1070.000
859.420;  -82.425; -339.000; -239.000
859.668; -121.275; -624.000; -628.000
859.916;  -14.875;  109.000;  115.000
860.164; -123.600; -699.000; -603.000
860.413;  289.950; -878.000; -696.000
860.661;  244.950; -709.000; -577.000
860.909;  -84.725; -339.000; -325.000
861.157;  -87.625; -277.000; -444.000
861.405; -129.375; -534.000; -670.000
861.653;    6.325;  310.000;  310.000
861.901;  187.300; -543.000; -613.000
862.149;    2.175; -801.000; -824.000
862.396;  -84.175; -297.000; -187.000
862.644;  -80.225; -368.000; -347.000
862.892;  -54.500;   98.000;  138.000
863.140; -107.925; -549.000; -530.000
863.388; -151.925; -815.000; -759.000
863.635; -127.050; -642.000; -601.000
863.883;  -22.575;  231.000;  190.000
864.131; -109.400; -288.000; -357.000
864.378; -140.025; -675.000; -540.000
864.626;  -99.225; -347.000; -415.000
864.873; -115.850; -556.000; -505.000
865.121; -138.575; -714.000; -799.000
865.368;  -52.350; -173.000;   75.000
865.616;  -37.400;  -33.000;  -40.000
865.863;  -70.375; -462.000; -506.000
866.111; -118.500; -795.000; -824.000
866.358;   29.875; -426.000; -420.000
866.605; 2070.850;  -64.000; -804.000
866.853; 2245.475; -621.000; -537.000
867.100;  -47.025; -728.000; -775.000
867.347; -113.825; -672.000; -611.000
867.594;  -83.575; -740.000; -714.000
867.841;   76.200;   97.000;   17.000
868.089; -148.450; -746.000; -698.000
868.336; -111.875; -477.000; -420.000
868.583; -152.025; -637.000; -741.000
868.830;  -52.600; -131.000; -170.000
869.077; -153.625; -859.000; -787.000
869.324; -126.550; -502.000; -458.000
869.571; -127.200; -398.000; -430.000
869.818; -129.075; -485.000; -439.000
870.065; -110.825; -439.000; -513.000
870.311; -129.300; -456.000; -542.000
870.558; -101.925; -332.000; -311.000
870.805;  -85.425; -320.000; -384.000
871.052; -111.625; -494.000; -369.000
871.298;  -72.600; -204.000; -131.000
871.545;  -61.925; -151.000; -185.000
871.792;  -88.925; -173.000; -222.000
872.038;  -81.050;   43.000; -126.000
872.285; -118.275; -496.000; -387.000
872.532;  -96.225; -357.000; -387.000
872.778;    5.975;  556.000;  403.000
873.025;  -99.025; -384.000; -359.000
873.271;   13.025;  501.000;  578.000
873.517;  -26.450; -133.000; -209.000
873.764;  -27.450; -193.000;  -80.000
874.010;  -77.250; -143.000; -230.000
874.257;  -48.500;  123.000;   90.000
874.503; -138.725; -579.000; -479.000
874.749;  -71.875;   31.000;  275.000
874.995;  -62.925;  -80.000;  -20.000
875.242; -125.300; -540.000; -478.000
875.488; -109.800; -414.000; -439.000
875.734;  -61.000; -106.000; -234.000
875.980;  205.425; -872.000;-1032.000
876.226;  378.800; -157.000; -255.000
876.472;    5.350;  343.000;  237.000
876.718;  -44.525;  184.000;  158.000
876.964;  -53.475;   56.000;   55.000
877.210; -141.600; -547.000; -677.000
877.456; -140.375; -630.000; -557.000
877.702; -168.450; -821.000; -832.000
877.948; -117.225; -377.000; -497.000
878.193;    1.375;  361.000;  255.000
878.439;  -85.625; -487.000; -472.000
878.685;  -98.900; -272.000; -343.000
878.931; -118.950; -618.000; -676.000
879.176; -102.625; -201.000; -201.000
879.422; -188.800; -933.000; -820.000
879.668;   21.000;   10.000;   79.000
879.913;  138.750;   53.000;  137.000
880.159;  -69.225; -112.000;  -17.000
880.404;  -60.200; -152.000; -162.000
880.650;  -50.175;   91.000;  141.000
880.895; -168.850; -670.000; -710.000
881.141; -120.975; -454.000; -428.000
881.386; -140.950; -503.000; -658.000
881.631;  -96.950; -311.000; -166.000
881.877;  -45.025;  112.000;  -13.000
882.122; -137.600; -684.000; -600.000
882.367; -101.800; -136.000; -186.000
882.612;  -85.400;  -80.000; -176.000
882.858; -181.725; -877.000; -823.000
883.103; -106.025; -297.000; -267.000
883.348; -153.400; -759.000; -852.000
883.593; -151.050; -677.000; -602.000
883.838;  -46.300; -311.000;  -24.000
884.083;   10.525;  353.000;  288.000
884.328; -101.950; -564.000; -545.000
884.573;  -45.800; -196.000; -143.000
884.818;  178.325; -694.000; -531.000
885.063;  183.400; -348.000; -315.000
885.308;  -90.950; -475.000; -398.000
885.553;  -20.375;  245.000;  325.000
885.797; -121.975; -545.000; -615.000
886.042;  -60.975;    8.000;   58.000
886.287;  -93.900; -253.000; -211.000
886.532;  -58.975;   26.000;  204.000
886.776; -102.800; -407.000; -525.000
887.021; -157.050; -621.000; -574.000
887.265; -153.875; -685.000; -689.000
887.510; -139.150; -557.000; -496.000
887.755;  -85.625; -194.000; -164.000
887.999; -139.425; -552.000; -575.000
888.244;  -53.300;  -58.000;  161.000
888.488;  -18.075;  371.000;  393.000
888.732; -123.325; -368.000; -520.000
888.977; -127.025; -622.000; -567.000
889.221; -152.750; -683.000; -659.000
889.465; -126.325; -422.000; -566.000
889.710;  -82.725;  -56.000; -299.000
889.954;    3.750;  579.000;  467.000
890.198; -145.425; -584.000; -707.000
890.442; -146.200; -716.000; -712.000
890.687; -162.125; -800.000; -753.000
890.931;  -85.750; -273.000; -210.000
891.175; -133.450; -502.000; -500.000
891.419;  -82.975; -105.000; -110.000
891.663;  -87.550; -239.000; -112.000
891.907; -168.800; -801.000; -545.000
892.151; -175.950; -920.000; -815.000
892.395; -117.350; -274.000; -387.000
892.638;  -26.175;  408.000;  291.000
892.882; -192.650; -780.000; -867.000
893.126;   20.850;  758.000;  558.000
893.370;  -98.550; -167.000; -168.000
893.614; -145.575; -714.000; -715.000
893.857; -100.250; -183.000; -197.000
894.101; -132.725; -527.000; -631.000
894.345;  -65.925;  300.000;  150.000
894.588;    8.150;  569.000;  380.000
894.832;  -90.650; -178.000;  -84.000
895.075;  -82.775;   15.000;  -92.000
895.319; -140.000; -552.000; -420.000
895.563; -102.025; -413.000; -353.000
895.806; -149.625; -628.000; -741.000
896.049;  -66.050; -576.000; -368.000
896.293;   92.475;  527.000;  405.000
896.536;  -83.875; -465.000; -468.000
896.779;  -65.000; -149.000;   -1.000
897.023; -137.475; -751.000; -714.000
897.266;  -47.800;  325.000;  269.000
897.509; -188.100; -900.000; -901.000
897.752;  -55.700;  149.000;  171.000
897.996; -192.450; -972.000; -864.000
898.239;  -42.550;  168.000;  102.000
898.482; -130.475; -431.000; -453.000
898.725;  -35.825;  101.000;   53.000
898.968; -157.400; -609.000; -744.000
899.211; -119.150; -513.000; -361.000
899.454; -122.400; -633.000; -539.000
899.697;  -76.000;   90.000;  -43.000
899.940; -157.775; -761.000; -757.000
900.182; -113.475; -335.000; -405.000
900.425; -101.375; -150.000; -298.000
900.668;  -15.650;  491.000;  350.000
900.911; -103.200; -292.000; -345.000
901.154;  -49.900;  141.000;   -3.000
901.396; -137.075; -407.000; -412.000
901.639; -143.300; -430.000; -496.000
901.882; -183.925; -790.000; -809.000
902.124;  -92.400;  -29.000; -143.000
902.367; -113.475; -315.000; -361.000
902.609; -136.225; -476.000; -453.000
902.852;  -85.375; -108.000; -260.000
903.094; -129.275; -458.000; -337.000
903.337;  -64.425;  -26.000;   53.000
903.579; -129.400; -228.000; -441.000
903.821; -147.300; -597.000; -744.000
904.064;  -55.775;   85.000;  127.000
904.306;  -96.825; -126.000; -166.000
904.548; -110.475; -152.000; -366.000
904.790; -106.500; -195.000; -340.000
905.033; -135.750; -625.000; -577.000
905.275; -128.900; -513.000; -524.000
905.517;   19.625;  468.000;  256.000
905.759;  -59.200; -667.000; -761.000
906.001; -102.775; -322.000; -369.000
906.243;  -61.600; -162.000; -224.000
906.485;  114.675; -265.000; -207.000
906.727;  106.100; -499.000; -542.000
906.969;  -39.200;  -30.000; -135.000
907.211;  128.000; -316.000; -382.000
907.453;  277.425; -188.000; -237.000
907.695;    5.500; -158.000; -385.000
907.936;   40.150;  818.000;  706.000
908.178;  -57.950;   92.000; -135.000
908.420;  -82.050; -111.000; -162.000
908.662; -139.325; -633.000; -682.000
908.903;  -87.275; -208.000; -123.000
909.145;  -52.550; -240.000; -305.000
909.386;   -2.150;  315.000;  280.000
909.628;   31.100;  363.000;  397.000
909.870;   -5.925;   29.000;  264.000
910.111;  -91.350; -809.000; -949.000
910.353;    0.075; -123.000; -161.000
910.594;  -10.100; -574.000; -606.000
910.835;   94.325; -265.000; -326.000
911.077;  153.425; -503.000; -604.000
911.318;  274.775; -505.000; -471.000
911.559;  446.900; -577.000; -880.000
911.801; 1321.675; -284.000; -280.000
912.042;10110.000;  -50.000; -159.000
912.283;26817.300;  404.000;  371.000
912.524; 4310.650; -396.000; -457.000
912.765;  473.675; -193.000;   79.000
913.006;  235.525; -307.000; -338.000
913.247;   43.250; -270.000; -290.000
913.488;  -17.300;  -43.000;   30.000
913.729;  -79.200; -373.000; -373.000
913.970;  -70.850;  -96.000; -292.000
914.211;  -70.675; -160.000; -198.000
914.452;  -50.325; -118.000;  -11.000
914.693;    1.475;  510.000;  592.000
914.934;   10.700;  510.000;  440.000
915.175;  -86.075;   53.000;  -95.000
915.415;  -81.125; -137.000;   27.000
915.656;  -61.625;  -28.000;  192.000
915.897;  -98.450; -252.000;  -82.000
916.137;  -79.025;   74.000;   -9.000
916.378; -128.625; -573.000; -517.000
916.619;  -88.075; -159.000;  -63.000
916.859;  -25.850;  303.000;  330.000
917.100;  125.150; 1655.000; 1070.000
917.340;   40.500;  930.000;  728.000
917.581;   29.950;  965.000;  789.000
917.821;  -32.100; -171.000;  143.000
918.061;   18.625; -199.000;  -72.000
918.302;  -53.250; -152.000; -211.000
918.542;  -39.300;  -22.000;    3.000
918.782;   43.650;  369.000;  377.000
919.023;  113.175;  360.000;  427.000
919.263; 1722.125; 8131.000;  202.000
919.503; 1125.275; -137.000;  -54.000
919.743;  651.750;  390.000;  266.000
919.983;  280.425; -134.000;  -26.000
920.223;   74.900;  135.000;   14.000
920.463;  141.000;  631.000;  554.000
920.703;  125.875;   84.000;   39.000
920.943;  165.175; -110.000;   90.000
921.183;  196.650; -414.000; -405.000
921.423;  477.350;  307.000;  546.000
921.663;  706.575; -174.000; -257.000
921.903; 1540.575;  237.000;  173.000
922.143; 8379.050;  372.000;  389.000
922.383;32739.425;  158.000;  115.000
922.622;11487.250; -120.000;  -15.000
922.862; 1200.150;  796.000;  785.000
923.102;  466.075;  -51.000;   33.000
923.341;  190.525;   59.000;   74.000
923.581;   83.425;  450.000;  360.000
923.821;    5.000;  301.000;  398.000
924.060;    5.050;  351.000;  193.000
924.300;  -71.525;  -16.000; -128.000
924.539;  -11.550;  584.000;  473.000
924.779;    5.775;  812.000;  597.000
925.018;  -58.350;  247.000;  353.000
925.257;   -5.450;  595.000;  666.000
925.497;  -32.900;  447.000;  412.000
925.736;  -69.950;  -35.000;  102.000
925.975;    0.175;  687.000;  669.000
926.214;   14.075;  907.000;  850.000
926.454;   17.375;  706.000;  757.000
926.693;  -39.025;  419.000;  543.000
926.932;   38.775; 1021.000;  825.000
927.171;   65.925; 1107.000; 1044.000
927.410;   60.625; 1144.000;  967.000
927.649;   19.450;  924.000;  742.000
927.888;  -25.750;  590.000;  564.000
928.127;   -5.550;  680.000;  678.000
928.366;   21.625;  842.000;  826.000
928.605;   52.225;  831.000;  737.000
928.844;  246.800; 1451.000; 1393.000
929.083;  607.025;  770.000;  613.000
929.321;  345.000; 1335.000; 1359.000
929.560;   78.650; 1158.000; 1122.000
929.799;  -30.925;  574.000;  475.000
930.038;   80.675; 1025.000; 1394.000
930.276;  -47.500;  334.000;  397.000
930.515;   -0.650;  827.000;  681.000
930.753;  -11.600;  614.000;  589.000
930.992;  -27.900;  664.000;  717.000
931.230;    2.400;  847.000;  847.000
931.469;  176.275; 2162.000;  892.000
931.707;   77.700;  840.000;  751.000
931.946;   55.200; 1278.000; 1344.000
932.184;   63.725; 1437.000; 1175.000
932.423;   51.050; 1265.000;  963.000
932.661;   93.925; 1296.000; 1428.000
932.899;   47.125;  987.000;  821.000
933.137;   19.650;  754.000;  564.000
933.376;  140.725; 1664.000; 1335.000
933.614;  175.900; 1759.000; 1196.000
933.852;   43.325; 1357.000; 1171.000
934.090;  130.275; 1722.000; 1747.000
934.328;  100.800; 1252.000; 1457.000
934.566;   85.400; 1431.000; 1110.000
934.804;  128.400; 1263.000; 1309.000
935.042;  438.775; 1861.000; 1850.000
935.280; 1690.625; 2088.000; 2063.000
935.518; 1644.325; 2113.000; 2007.000
935.756;  365.975; 2481.000; 2316.000
935.994;  169.350; 1808.000; 1751.000
936.231;  339.800; 2890.000; 2950.000
936.469;  190.125; 2367.000; 2378.000
936.707;  170.825; 2220.000; 2167.000
936.945;  240.275; 2825.000; 2882.000
937.182;  201.450; 2679.000; 2741.000
937.420;  301.825; 3602.000; 3031.000
937.657;  447.200; 3365.000; 3478.000
937.895;  352.600; 3331.000; 3488.000
938.133;  309.400; 3540.000; 3528.000
938.370;  340.975; 3896.000; 4191.000
938.607;  387.950; 4488.000; 4205.000
938.845;  549.600; 5587.000; 5549.000
939.082;  503.575; 5387.000; 5177.000
939.320;  567.475; 5799.000; 5728.000
939.557;  640.900; 6549.000; 6491.000
939.794;  735.950; 7285.000; 7097.000
940.031;  906.175; 8421.000; 8368.000
940.269; 1099.050; 9552.000; 9107.000
940.506; 1107.575;10901.000;10507.000

