
Integration time [ms]: 100.000
Averaging Nr. [scans]: 40
Smoothing Nr. [pixels]: 0
Data measured with spectrometer [name]: 2101013U2
Wave   ;Sample   ;Dark     ;Reference
[nm]   ;[counts] ;[counts] ;[counts] 

394.013;   55.925; -450.257; -315.536
394.305;  203.373; -461.258; -419.536
394.596; 1121.520; -676.269; -527.514
394.887; 2758.037; -796.268; -654.518
395.178; 1059.517;  145.736;   11.476
395.470;   93.503; -210.263; -356.526
395.761;  200.276;  305.734;  394.479
396.052;  300.920; -545.284; -306.489
396.343;  276.965; -557.276; -454.503
396.634;   94.058; -200.279; -290.497
396.926;  103.534; -618.268; -565.517
397.217;  114.719;   11.725;  -17.504
397.508;   51.785; -366.273; -154.507
397.799;   42.033; -555.279; -571.497
398.090;    3.378; -973.280; -902.495
398.381;  110.820;   11.708;  -11.473
398.672;   -8.354; -585.292; -742.473
398.963;   36.964; -348.279; -373.498
399.254;  109.980;   54.709; -209.475
399.545;  -34.427;-1017.266; -883.520
399.836;   56.979; -407.277; -343.501
400.127;   41.596; -205.295; -209.468
400.418;   63.504; -423.274; -392.506
400.709;   59.565; -359.281; -333.493
401.000;   47.384; -268.291; -309.476
401.290;   95.308;  225.698;  115.545
401.581;   73.253; -166.286; -228.485
401.872;    9.968; -542.298; -486.462
402.163;   63.189; -313.296; -252.467
402.454;  106.581; -123.291; -163.475
402.744;   77.930; -844.297; -813.465
403.035;  427.786; -226.293;  -86.471
403.326;  551.624; -366.292; -384.474
403.617;  356.988;  204.701;  165.539
403.907;  255.251; -593.283; -679.490
404.198; 2449.012; -545.307; -599.446
404.489; 6302.481; -618.283; -588.491
404.779; 2075.062; -618.302; -660.456
405.070;  217.265;  -67.304; -174.451
405.360;  342.363; -259.293; -238.472
405.651;  361.423;  125.699;   98.542
405.942;  168.148;  209.714;  127.516
406.232;  255.012; -432.285; -413.487
406.523;  455.531;  641.706;  758.530
406.813;   94.000; -579.286; -644.484
407.104;  333.369;  261.708;  144.527
407.394;  174.489; -604.299; -591.462
407.685;  147.412;  336.715;  222.513
407.975;   60.104; -400.283; -382.490
408.265;  111.870; -134.289; -190.478
408.556;   61.678; -472.291; -459.475
408.846;  165.257;  474.706;  429.530
409.137;   87.479;   -1.288; -216.480
409.427;   43.487; -193.285; -271.487
409.717;   22.713; -776.273; -692.508
410.007;  139.531;    4.715; -170.486
410.298;   94.649; -360.295; -342.469
410.588;   72.685; -495.285; -510.486
410.878;   12.040; -792.287; -873.482
411.168;  114.671; -481.298; -478.463
411.459;  116.449; -295.283; -242.489
411.749;   57.926; -609.292; -507.474
412.039;   58.427; -755.289; -386.480
412.329;  199.647;   40.722;  132.501
412.619;  192.426;  -62.286; -148.485
412.909;  372.773;  639.711;  594.521
413.199;  331.903; -130.280; -251.495
413.490;  383.789;  521.710;  352.523
413.780;  145.257;-1013.279; -913.496
414.070;  322.491;  -46.276;  235.497
414.360;  359.968; -729.278; -666.498
414.650;  410.886; -726.288; -688.482
414.940;  530.031; -538.280; -441.496
415.230;  940.383;   50.712;   74.519
415.520; 6126.544;  155.730;   66.486
415.809;24336.389; -305.281; -125.493
416.099;18688.206; -388.277; -229.501
416.389; 5277.027;  435.726;  236.494
416.679; 3103.507;   91.738;   85.473
416.969;  521.819; -527.287; -503.483
417.259;  472.334;  341.721;  171.503
417.549;  682.438;  522.718;  318.508
417.838; 1678.461; -205.268; -147.518
418.128; 5558.544;  650.710;  492.522
418.418; 4642.444; -491.272; -579.509
418.708; 3162.802;    9.726;  -48.506
418.997;11837.248; -474.275; -480.505
419.287;12305.559; -733.273; -790.507
419.577;11747.598; -160.283; -123.489
419.866;38705.929; -588.277; -498.501
420.156;39453.090; -242.270;  -55.513
420.446; 7027.749; -112.263;  -26.526
420.735;  854.109; -376.271; -446.512
421.025;  829.017; 1830.722;  315.502
421.314;  657.857; -203.271; -226.512
421.604; 1378.004;   89.732;  233.484
421.893;  799.328; -705.271; -602.511
422.183;  242.674; -487.263; -461.526
422.472;  389.255;  -36.271; -107.511
422.762;  444.054; -416.266; -379.521
423.051;  249.241; -916.276; -916.503
423.341;  327.711; -491.273; -439.507
423.630;  412.535; -121.265;   15.477
423.919;  383.747;   58.725;   49.495
424.209;  365.380;  -31.263;   56.473
424.498;  492.708;   68.732;  161.483
424.787; 1097.340; -535.267; -601.518
425.077; 3377.633;   34.735;   29.478
425.366; 4765.485; -734.262; -744.528
425.655;10108.987;  639.727;  259.493
425.945;22240.664; -313.247; -268.554
426.234;12311.383;  117.741;  300.467
426.523; 5128.938;  -86.259; -350.534
426.812; 7033.500;  107.734;  159.480
427.101;10385.775; -127.269; -323.515
427.390;13147.644;  -55.270;  -86.514
427.680; 2884.883; -624.257; -411.538
427.969;  473.244; -330.255; -301.540
428.258;  322.250; -385.257; -477.536
428.547;  537.124;  449.728;  397.490
428.836; 1223.460; -421.253; -398.543
429.125; 1766.165; -199.259;  -72.534
429.414;  801.632; -330.251; -294.548
429.703; 3186.382; -231.251; -213.548
429.992; 9450.736; -938.250; -828.549
430.281; 6170.292; -397.264; -331.524
430.570;  559.123;  -21.252;   32.454
430.859;  541.088;  279.741;  352.466
431.148;  429.110;  636.752;  631.446
431.437;  294.722;  391.748;  367.454
431.725;  146.426; -544.257; -481.536
432.014;  136.542; -845.253; -756.545
432.303;  390.985; -149.239; -105.569
432.592;  611.624; -460.263; -178.525
432.881; 1055.511; -601.248; -437.554
433.169; 6324.420; -343.255;  -61.540
433.458;12884.119;  445.765;  540.424
433.747; 5319.266; -397.261; -289.529
434.036;  852.436; -275.242; -280.564
434.324; 2086.573; -395.249; -379.551
434.613; 3698.180;   40.757;  159.437
434.902; 1218.976;  333.760;  439.433
435.190;  526.859;   75.761;  295.431
435.479;  305.537;  -52.245;   83.441
435.767;   86.695; -411.244; -427.561
436.056;  200.232; -340.242; -294.563
436.345;  365.203; -372.240; -223.568
436.633;  399.044;   60.750;  383.450
436.922;  225.105;  208.760;  414.432
437.210;  546.009; -194.236;    1.426
437.499; 1766.817; -583.235; -432.576
437.787; 1929.084; -339.236;  -10.574
438.075;  486.340;   56.761;  162.430
438.364;  687.592;  -44.238;  250.429
438.652;  389.222; -286.226; -138.592
438.941;  128.236;    3.770;  269.415
439.229;    2.520; -665.252; -466.545
439.517;   32.726; -160.234;  -85.577
439.806;  -25.012; -501.225; -290.595
440.094;  178.483;  377.766;  650.421
440.382;  160.812; -653.233; -302.580
440.670;  188.717; -361.235; -285.576
440.959;   27.605; -347.223; -170.599
441.247;   76.372; -151.229; -109.587
441.535;   94.149; -266.235;   31.423
441.823;   19.131; -497.234; -305.578
442.111;  175.502;  173.771;  327.412
442.400;  502.361; -628.245; -335.559
442.688; 1307.233; -111.234; -620.579
442.976;  942.792; -786.213; -450.617
443.264;   93.444; -324.224; -364.597
443.552;   93.848; -258.226;   51.408
443.840;  166.448;  602.765;  876.423
444.128;  106.661;  265.767;  269.420
444.416;  -10.596; -694.228; -312.588
444.704;   28.984; -465.219;  -92.605
444.992;   73.426;   -0.226;  240.407
445.280;   46.862; -517.230;  -94.585
445.568;   32.596; -694.212; -396.618
445.856;  332.944; -174.221;  357.398
446.143;  731.881;  -54.220;   -7.604
446.431;  595.508;  -25.228;  625.411
446.719;  232.829;  489.783;  675.391
447.007;  171.906;  481.769;  705.416
447.295;  179.327;  597.777;  871.402
447.583;   77.920; -464.229;  -34.587
447.870;  125.590; -434.221; -202.601
448.158;  401.310; -104.230;  129.415
448.446;  304.957; -800.219; -338.604
448.733;  150.296;   13.776;  269.403
449.021;  250.995;   60.788;  341.382
449.309;  171.560; -296.210;  208.379
449.596;  223.100;  128.783;   59.392
449.884;  167.759; -571.222; -325.600
450.172;  152.863; -756.227; -406.590
450.459;  449.826;  645.786;  780.387
450.747; 2432.823; -411.218; -147.608
451.034; 7840.609;  493.772;  889.411
451.322; 6418.079; -413.214; -170.614
451.609;  547.622;  292.777;  508.403
451.897;  597.373; -550.203; -183.634
452.184; 1815.927; -622.223; -400.598
452.472; 1719.907;   97.792;  269.375
452.759;  333.032;  512.781;  864.395
453.047;  111.143; -407.212; -125.617
453.334;   74.265; -732.219; -216.606
453.621;   76.506; -438.214; -161.615
453.909;  113.465;   13.796;  384.368
454.196;   97.010; -299.199; -123.641
454.483;  192.986;  317.798;  540.364
454.771;  119.635; -215.208;  196.374
455.058;   32.713; -316.207;  102.374
455.345;  124.090;   71.807;  344.347
455.632;   73.816; -128.207;  235.373
455.919;   43.383;  -82.196;  182.354
456.207;  -63.235; -774.198; -450.642
456.494;   -5.252; -475.200;  -66.639
456.781;   -1.768; -399.202; -198.635
457.068;   41.523; -253.206;  -29.628
457.355;   -8.601; -698.206; -401.629
457.642;   -3.246; -552.205; -290.630
457.929;   -3.094; -778.194; -417.651
458.216;   51.293; -575.212; -354.617
458.503;  246.886; -173.193;  -19.652
458.790;  231.083; -864.208; -630.625
459.077;  268.087;  -77.202;  110.364
459.364;  804.424; -350.195; -210.649
459.651; 1718.296;  -46.206;  220.372
459.938;  786.648; -864.209; -665.623
460.225;  131.990;  132.799;  276.363
460.512;  -39.945; -836.197; -688.645
460.799;   99.022;  -32.218;  320.392
461.086;   59.953; -370.200; -251.640
461.372;   23.040; -509.198; -279.642
461.659;   95.409; -165.196;  108.354
461.946;   55.285; -445.193;  -54.651
462.233;  225.425;  842.800;  888.361
462.519;  347.422; -814.201; -464.639
462.806; 1007.456; -768.197; -497.645
463.093;  884.230; -445.191;  -66.656
463.380;  -26.204; -920.186; -824.664
463.666;   49.732; -259.197;  -18.646
463.953;   90.294; -406.195; -243.648
464.239;  197.769; -173.195;  -77.648
464.526;  389.155;  413.806;  743.350
464.813;  336.067; -565.190; -304.658
465.099;  347.511;  606.807;  607.348
465.386;  323.315;  903.807;  921.348
465.672;   16.781; -694.197; -522.645
465.959;   20.210; -598.188; -520.662
466.245;   11.990; -468.193; -359.652
466.532;   81.917; -109.195;   63.352
466.818;   61.296; -357.186; -216.664
467.104;   -0.539; -488.182; -415.672
467.391;  -21.856; -628.189; -459.658
467.677;   19.475; -289.186;    9.335
467.964;   -5.050; -682.189; -471.660
468.250;   52.352; -331.186; -160.665
468.536;   62.495;   90.811;  180.341
468.822;  -27.611; -821.184; -574.668
469.109;  134.942;  351.827;  471.311
469.395;  187.899;  729.808;  787.346
469.681;  183.498;   46.811;  156.341
469.967; 1262.478; -699.188; -382.660
470.254; 2758.961; -494.188; -306.662
470.540; 1744.183; -601.196; -476.646
470.826;  253.772; -488.181; -397.675
471.112;  303.368;  288.816;  113.331
471.398;   80.472; -253.183;  -58.670
471.684;   37.350; -626.177; -447.680
471.970;   -8.899; -918.180; -981.675
472.256;   21.723; -521.192; -441.654
472.542;   20.377; -499.171; -434.691
472.828;   11.732; -743.182; -607.672
473.114;   32.221; -380.166; -283.700
473.400;   -2.958; -504.175; -293.684
473.686;   32.277; -452.166; -400.701
473.972;   52.556; -230.174; -131.687
474.258;  -43.308; -925.173; -843.689
474.544;  206.417; -183.178;   -2.679
474.830;  340.669;  -65.175;   45.316
475.116;  498.943; -123.190; -196.658
475.401;  698.953; -558.180; -467.676
475.687;  183.352; -725.180; -718.676
475.973;   -4.885; -673.181; -770.673
476.259;  245.246;  736.825;  764.315
476.544;  364.983; -539.176; -437.682
476.830;  846.949; -398.172; -322.690
477.116;  749.032; -430.177; -336.682
477.401;  129.553;  346.820;  358.324
477.687;  -24.758; -289.175; -405.684
477.973;   36.769;   21.819;   28.326
478.258;  -12.478; -448.163; -348.706
478.544;   48.208;   21.815;   61.334
478.829;  -63.517; -818.171; -738.692
479.115;  -47.352; -749.172; -651.690
479.401;  -30.098; -444.174; -449.686
479.686;   28.427; -253.180;  -74.676
479.972;  -35.703; -886.178; -776.680
480.257;   32.747; -258.166;  -65.700
480.542;   -4.213; -614.170; -469.693
480.828;  225.865; 1288.824; 1392.317
481.113;  -34.812; -464.176; -426.683
481.399;   -9.904; -236.161; -202.711
481.684;  -47.203; -620.166; -462.700
481.969;   31.035; -158.159;  -73.713
482.255;  -11.427; -439.169; -285.695
482.540;    0.598; -569.178; -441.680
482.825;   14.016; -395.187; -404.663
483.110;   79.226;  -85.169; -105.696
483.396;  199.881; -840.157; -652.718
483.681;  491.532;  543.826;  730.313
483.966;  157.679; -696.160; -700.712
484.251;    8.456; -404.174; -310.687
484.536;    3.032; -356.165; -378.703
484.822;   24.884; -205.173; -218.687
485.107;  -24.806; -599.152; -502.726
485.392;  124.563;  662.836;  541.296
485.677;   77.336;  354.832;  163.302
485.962;   95.004;  160.843;  270.283
486.247;   87.530;  -14.162;   -8.707
486.532;   37.523; -178.166; -325.701
486.817;  158.516;  381.839;  431.291
487.102;  109.302; -453.154; -514.722
487.387;  687.008; -637.156; -652.718
487.672; 1231.193; -154.164;  -38.705
487.957;  762.548; -394.160; -286.711
488.241;  194.486; -290.150; -314.729
488.526;  740.720; -280.152; -148.726
488.811; 1208.149; -881.177; -818.680
489.096;  929.630; -666.154; -702.723
489.381;  509.767;    3.847;  162.275
489.666;  385.396; -428.161; -510.710
489.950;  163.408;  558.846;  627.277
490.235;  -45.594; -480.151; -458.728
490.520;  -41.680; -756.161; -723.710
490.804;  -59.840; -827.156; -736.719
491.089;    9.526; -469.149; -299.732
491.374;   23.367; -132.164;  -75.704
491.658;  -21.962; -817.147; -717.735
491.943;  165.575; -657.152; -609.727
492.227;  230.198; -178.155;  -38.721
492.512;   48.578; -294.157; -341.717
492.797;  -66.180; -713.149; -716.731
493.081;  -46.084; -588.147; -598.735
493.366;  -48.204; -751.161; -635.711
493.650;  194.768;  831.859;  917.254
493.935;   29.412; -648.147; -447.734
494.219;  -26.594; -778.142; -687.743
494.503;  -34.585; -585.150; -487.730
494.788;   38.495;   46.842;   74.285
495.072;  103.887;  184.850;  434.271
495.356;  186.930; -463.148; -343.733
495.641;  472.722; -812.146; -736.736
495.925;  442.990; -976.156; -903.719
496.209;   27.226; -599.149; -451.732
496.494;  -51.669; -763.142; -544.744
496.778;   -2.723; -364.154; -360.722
497.062;  -62.336; -819.156; -627.719
497.346;  -33.601; -869.160; -640.711
497.631;  154.783;  580.852;  560.266
497.915;   68.233;  -64.145;  175.261
498.199;   49.106; -341.157; -277.718
498.483;   40.069; -562.152; -508.725
498.767;  186.863;  301.850;  300.271
499.051;  187.774; -126.149; -100.732
499.335;   26.047; -693.149; -739.731
499.619;  -28.281; -381.129; -423.767
499.903;   18.272; -272.155;  -65.721
500.187;   31.909; -588.153; -316.724
500.471;    7.974; -796.152; -595.727
500.755;  109.020;   62.839;  -96.710
501.039;    9.422; -270.155; -357.721
501.323;   81.620;  -21.141;  264.254
501.607;   25.423; -447.163; -503.706
501.891;  -10.842; -607.156; -512.718
502.174;  -37.906; -726.144; -585.741
502.458;   82.928;   89.849;  370.273
502.742;   40.369; -180.138; -191.751
503.026;  110.837; -412.147; -254.734
503.310;  173.808; -437.159; -375.713
503.593;  111.138; -464.147; -325.735
503.877;  110.384; -232.133; -156.760
504.161;  173.487;    2.847;  -50.724
504.444;  124.447; -841.158; -710.716
504.728;  464.341; -487.164; -522.704
505.012;  731.010; -257.150;  -76.729
505.295;  539.046; -417.161; -212.711
505.579;  543.239; -256.156; -496.719
505.862;  778.904; -555.145; -333.738
506.146;  768.711; -681.159; -758.714
506.429;  399.911;  568.841;  461.286
506.713;   60.432; -732.151; -667.728
506.996;  335.502;   90.846;  295.278
507.280;  350.236; -633.165; -474.703
507.563;  228.895; -469.155; -261.721
507.847;  120.035; -423.153; -112.724
508.130;   87.747; -665.161; -456.711
508.413;  114.743; -758.167; -577.700
508.697;  257.343; -151.167;   12.300
508.980;  154.462; -422.153; -312.724
509.263;   -3.283; -466.155; -450.720
509.547;   42.185; -124.150;   82.271
509.830;   41.299; -172.160;  140.289
510.113;   69.314;  128.844;  298.281
510.396;   32.642; -530.152; -300.725
510.680;  155.130; -818.145; -812.738
510.963;  606.581;  184.846;  180.277
511.246;  509.442; -493.150; -357.730
511.529;  258.410; -482.145;  -83.739
511.812;  382.756; -250.134;   10.241
512.095;  278.929; -740.151; -396.728
512.378;   74.767; -317.147; -245.736
512.661;   31.802; -703.137; -623.753
512.944;   22.133; -750.142; -637.744
513.227;   70.299; -170.137; -171.752
513.510;   26.419; -479.144; -671.741
513.793;   16.424; -485.140; -435.747
514.076;  131.865;  -43.127;  -39.771
514.359;  109.377; -294.149; -135.732
514.642;   87.261; -442.142; -567.744
514.925;  770.648;  581.860;  561.253
515.208; 1036.977; -498.134; -443.758
515.491;  674.166; -276.133; -182.761
515.773;  374.447; -410.143; -337.742
516.056; 2170.558;  249.864;  409.246
516.339; 2904.462; -754.136; -652.755
516.622; 1889.515; -518.150; -488.730
516.904; 1204.204;  882.857;  975.257
517.187;  555.447; -730.138; -523.752
517.470;  414.728; -568.143; -510.743
517.752;  440.790; -624.136; -470.756
518.035;  371.085; -708.139; -725.749
518.318;  389.662; -799.136; -744.755
518.600; 2509.669; -300.132; -325.762
518.883; 3466.635;  310.858;   88.256
519.165; 1677.015; -585.138; -426.751
519.448;  399.644;  -61.132;  -19.762
519.730;  201.272; -573.126; -415.773
520.013;  296.162;  588.867;  664.240
520.295;  773.957;  -94.134;  -15.759
520.578; 1780.907; -335.131; -305.764
520.860; 2027.544; -254.132;   56.238
521.143; 1055.567; -763.135; -584.756
521.425;  487.835; -251.125; -279.775
521.707;  701.865; -622.127; -380.771
521.990; 1822.416; -199.127;  167.229
522.272; 2085.826; -116.140;   -4.748
522.554;  930.223; -237.143; -157.742
522.836;  359.855;  -24.134;   99.241
523.119;  234.611; -496.148; -189.734
523.401;  143.764; -448.130; -314.766
523.683;   85.902; -865.137; -693.753
523.965;  292.270;  408.862;  260.248
524.247;  273.631;   54.878;  170.220
524.529;  206.057; -451.134; -367.759
524.812;  366.766;   -3.130;  191.234
525.094;  877.570; -773.138; -631.751
525.376; 1408.194; -143.124;   78.223
525.658;  863.134; -441.136; -339.754
525.940;   26.254; -805.131; -671.764
526.222;   33.463; -188.136;  -88.755
526.504;  117.527; -190.131;   32.237
526.786;  178.560; -960.133; -647.760
527.068;  305.900; -124.123;  -67.778
527.349;  103.481; -865.137; -774.754
527.631;  131.269; -137.132;   22.238
527.913;  140.264; -664.127; -450.771
528.195;  169.328; -761.125; -639.774
528.477;  256.602;  -93.134;  -30.758
528.759;  149.116; -648.130; -522.766
529.040;   53.623; -569.123; -293.778
529.322;   63.756; -235.125;  -10.774
529.604;  134.693;  -47.130;   93.233
529.886;  134.372; -546.126; -302.773
530.167;  126.535;  232.870;  192.235
530.449;   30.467;    1.853;   63.265
530.731;   38.755; -572.122; -459.779
531.012;   76.976; -513.120; -216.784
531.294;   76.115; -118.116;  -43.792
531.575;  138.210;  290.875;  538.225
531.857;   55.697; -548.135; -266.757
532.138;   94.944; -113.141;   40.254
532.420;  178.543;  294.865;  403.244
532.701;  204.387; -722.133; -751.760
532.983;  339.315;  232.867;  182.239
533.264;  112.220; -243.126;  175.228
533.546;  -19.788; -491.136; -508.755
533.827;   35.184;  173.867;   -1.759
534.109;   33.322; -352.135;  -80.757
534.390;   88.748; -725.132; -582.762
534.671;  250.168; -270.135;  -82.756
534.953;  146.351; -751.123; -611.779
535.234;   24.750; -426.117; -255.789
535.515;  -84.066; -891.119; -735.785
535.796;  -12.590; -431.128; -193.770
536.078; -112.756;-1050.124; -904.777
536.359;   -3.898;  -22.123;    3.221
536.640;  -23.870; -480.125; -197.774
536.921;  156.323;  225.871;  143.232
537.202;  383.842;  -87.138;  -16.751
537.483;  461.031;  251.869;  377.236
537.764;  175.035;   17.870;   98.235
538.045;  -42.024; -543.134; -371.758
538.326;  -27.325; -596.129; -447.768
538.607;   18.516; -686.127; -476.771
538.888;  170.867;   98.879;    5.218
539.169;  184.087; -704.122; -535.781
539.450;  335.572;  236.871;   16.233
539.731;  219.546; -361.121; -182.783
540.012;  129.176;  199.880;  412.216
540.293;   80.389;   82.876;  158.224
540.574;    4.861; -895.113; -717.796
540.855;  442.595;  435.879;  377.218
541.136;  528.659;   47.878;  139.220
541.416;  266.591; -161.130; -220.766
541.697;  206.027; -274.131; -170.763
541.978; 1055.170; -270.135; -315.757
542.259; 1318.191; -211.127; -236.771
542.539;  630.634; -191.116; -186.790
542.820;  178.660;  461.875;  480.225
543.101;  142.507;  -52.145;  -77.738
543.381;   26.966; -638.127; -591.771
543.662;  279.038;  159.873; -254.771
543.942;  591.811; -751.127; -830.770
544.223; 1074.886;  193.878;  161.219
544.504;  690.644; -275.124; -182.777
544.784;  593.647; -592.126; -408.773
545.065; 1661.963;  104.884; -254.791
545.345; 2008.210;  227.881;   14.215
545.626; 1314.535;  -14.113; -108.796
545.906;  906.334;   77.869;   98.235
546.186;  375.677;   92.874;  -95.773
546.467;  198.496;   99.877;  -95.778
546.747;  334.084;  264.884;  327.210
547.027;  355.542;   91.876;  111.223
547.308;  336.436; -376.127; -530.770
547.588;  406.400;  299.871;  371.232
547.868;  213.785;  458.870;  588.235
548.149;  199.120;  609.885;  593.207
548.429;  127.014; -347.127; -299.771
548.709;  197.776; -645.120; -461.784
548.989;  492.869;   84.882;   88.213
549.269; 2170.117;   10.868;  139.239
549.550; 4956.500;  215.877;  117.222
549.830; 4479.028; -758.111; -556.799
550.110;  882.585; -468.110; -320.801
550.390;  853.806; -128.122;  -56.779
550.670; 1159.531; -868.114; -783.795
550.950;  835.769; -509.121; -471.782
551.230;  198.765;  549.879;  460.218
551.510;   -3.782; -381.121; -326.782
551.790;   36.118; -173.109; -127.803
552.070;  264.521;  940.877; 1181.223
552.350;  412.938; -492.119; -377.786
552.630;  580.338;   -2.121;   77.219
552.909;  377.763;  181.884;   73.209
553.189;  235.199;  -49.132;   33.237
553.469;  191.738; -703.119; -514.786
553.749;  195.417; -469.127; -357.772
554.029;  155.579;   33.883;  -24.790
554.308;  145.124; -154.115;  -37.794
554.588;   73.434; -196.128; -204.770
554.868;   65.995; -366.121;  -47.782
555.147;  147.421; -114.115;  -46.793
555.427;  613.090; -260.116; -250.792
555.707; 4002.444; -284.115; -200.793
555.986; 4866.931; -719.111; -538.800
556.266; 2575.757;   23.884;   72.210
556.546;  112.443; -888.121; -675.782
556.825;  262.028; -657.114; -556.794
557.105; 1824.707; -125.128;   17.230
557.384; 2165.537;  122.884;  187.209
557.664;  852.790; -717.116; -508.792
557.943;  120.594; -557.121; -411.782
558.222;  178.547; -345.118; -344.788
558.502;  281.098; -116.115;  -76.793
558.781;  503.168;  194.885;  499.208
559.061;  413.197; -232.118; -227.788
559.340;  318.652;  302.883;  353.211
559.619;  745.007;   93.884;  148.210
559.899; 1061.379; -239.117; -266.789
560.178;  983.547; -778.115; -593.793
560.457; 3232.130; -623.117; -562.790
560.736; 4504.757; -472.111; -482.800
561.015; 3017.930; -500.128; -502.769
561.295;  404.813;  180.893;  215.193
561.574;  349.195;  119.885;  116.207
561.853;  514.097;  274.891;  303.197
562.132;  492.225;  -45.114;  182.206
562.411;  460.364;  396.879;  553.219
562.690;  139.993; -592.115; -458.792
562.969;  145.292;  472.888;  630.203
563.248;  475.686; 2966.878; 2487.219
563.527;  282.631; -290.111; -408.800
563.806;  388.314; -650.127; -521.771
564.085;  440.153; -297.105; -206.810
564.364;  242.107; -594.117; -405.790
564.643;  510.739; -276.121; -223.781
564.922; 1961.866;  221.890;  397.198
565.201; 1942.495; -640.109; -700.803
565.479;  857.017; -297.115; -219.792
565.758;  330.483; -810.128; -712.770
566.037;  476.971; -155.109; -100.803
566.316;  237.962; -286.116;  -28.791
566.595;   38.519;  -17.115;  -12.793
566.873;   98.908; -166.111;  -79.801
567.152;  -62.084; -490.113; -590.797
567.431;    6.383; -113.116;    6.210
567.709;   13.438; -344.107; -212.807
567.988;  248.003; -810.114; -769.794
568.266;  544.469; -160.115;  -68.793
568.545;  385.849; -644.100; -514.819
568.824;  602.191;  160.885;  356.208
569.102;  567.503; -351.114; -235.794
569.381;  242.115; -492.116; -407.792
569.659;  -30.737; -553.113; -553.796
569.938;   35.635; -743.122; -465.780
570.216;  121.373; -225.109; -225.804
570.494;  -24.019; -632.114; -572.795
570.773;   33.018;  202.879;  114.218
571.051;    2.024; -373.123; -357.778
571.330;   60.735; -221.113; -174.796
571.608;   53.517; -181.098; -173.823
571.886;  -74.149; -671.111; -581.799
572.164;  -55.780; -739.121; -621.782
572.443;  -39.869; -562.105; -512.811
572.721;  -40.795; -399.117; -289.790
572.999;  -34.526; -280.117; -168.788
573.277;   92.050;  379.894;  620.191
573.555;  302.802;   94.894;   37.190
573.834; 1394.124;  -86.117; -114.788
574.112; 1648.865;  880.893;  811.193
574.390;  486.258; -143.111;  -96.801
574.668;   -4.282;  -91.112;  -61.797
574.946;   -5.223; -165.106; -187.810
575.224;   -3.830;   71.891;  -16.803
575.502;  -19.465; -200.116; -204.791
575.780;  -91.531; -767.112; -829.798
576.058;  133.082; 1589.889; 1004.200
576.336;  -22.563; -210.110; -129.801
576.614;  -43.756; -511.112; -340.798
576.891;   50.924; -711.115; -823.794
577.169;  504.131; -158.108; -285.805
577.447;  589.515;  169.893;  202.193
577.725;  266.173;  629.888;  854.201
578.003;    8.396;  -71.112; -371.798
578.280;   91.840; -208.104; -242.812
578.558;   73.823; -450.115; -422.793
578.836;  116.706; -210.114; -145.795
579.114;   41.442; -630.112; -670.797
579.391;   61.750;   -6.117;  -18.789
579.669;  -81.400; -595.114; -704.794
579.947;  183.561; -326.107; -127.806
580.224;  343.286; -692.107; -524.806
580.502;  323.265;  127.893;   76.193
580.779;   18.381;  -42.117;   75.210
581.057;  -75.401; -584.109; -470.804
581.334; -100.345; -726.102; -695.815
581.612;   30.678;   54.895;  511.190
581.889;  -25.532;  -83.101; -129.818
582.167;  -35.443; -298.099; -190.821
582.444;  -99.687; -845.102; -814.817
582.721;   93.389;  657.899;  715.183
582.999;   50.455; -326.100; -167.821
583.276;  551.153; -812.123; -713.779
583.553;  721.433; -364.102; -294.816
583.831;  224.812; -607.104; -631.812
584.108;   54.554;  349.892;  174.195
584.385;   -0.945; -122.102;  -98.815
584.662;  -67.041; -651.111; -828.801
584.940;   23.158;  204.889;  204.199
585.217;  -33.613;  -73.113; -303.796
585.494;   37.992;   71.890;  118.198
585.771;  217.800; -250.109; -354.804
586.048;  519.587; -196.113;  -76.796
586.325;  314.836; -721.110; -773.801
586.602;   78.591;  230.896;  213.188
586.879;  -16.824; -499.100; -580.820
587.156;   56.404; -156.105; -331.810
587.433;  -42.839; -701.102; -667.817
587.710;   69.019;  152.888;  234.202
587.987;  306.534; -264.105; -236.811
588.264;  813.246;  315.888;  387.202
588.541; 1369.543;  -61.104;   26.187
588.818; 2680.477;   72.892;  171.196
589.095; 2330.689; -163.104; -174.812
589.371;  378.923; -459.109; -414.804
589.648;   13.115; -581.107; -437.807
589.925;   22.707; -517.114; -621.795
590.202;   17.394; -741.112; -607.798
590.478;  104.011; -166.105;  -73.811
590.755;  265.958; -241.108; -132.806
591.032; 2536.214; -741.110; -699.802
591.308; 3518.807; -732.094; -790.831
591.585; 1817.613; -573.110; -560.802
591.862;  154.737;-1056.102; -950.817
592.138;   56.555; -475.108; -474.805
592.415;  149.092; -486.104; -495.813
592.691; 1475.089;  460.896;  518.188
592.968; 1920.669; -208.098; -123.824
593.244;  904.709; -695.116; -595.790
593.521;   72.663; -105.102;  -42.817
593.797;  -22.518; -810.122; -720.780
594.074;  335.182; -611.096; -588.826
594.350;  659.093;  828.905;  729.172
594.626;  317.234; -303.111; -283.801
594.903;  122.788; -643.101; -645.817
595.179;  198.870;  243.896;  418.187
595.455;    3.741; -136.107; -150.807
595.731;    1.672;  -19.103;  -38.814
596.008;  -34.572; -464.111; -434.800
596.284;   27.779; -187.100; -242.820
596.560;   52.163; -501.093; -493.833
596.836;  197.931; -173.105;  -70.810
597.112;  341.456; -582.108; -437.805
597.388;  291.505;  -49.097;  -48.826
597.665;  114.740;  437.887;  530.203
597.941;  -61.432; -572.089; -658.839
598.217;   23.967; -323.110; -293.802
598.493;  265.426;   61.891; -204.804
598.769;  518.498; -175.100;  -50.819
599.045;  306.684; -490.108; -562.806
599.321;   54.703; -193.100; -261.820
599.597;  138.950; -355.109; -476.804
599.872;  471.668;  409.896;  429.187
600.148;  370.006;  -61.097; -172.826
600.424;  296.289;   91.893;  202.193
600.700;  230.166; -170.107; -280.807
600.976;  125.800; -442.097; -464.825
601.252;  259.497; -226.109; -272.803
601.527;  209.919; -833.104; -840.813
601.803;  148.586; -453.105; -404.812
602.079;  177.498; -124.100; -118.819
602.354;  579.123; -620.092; -531.835
602.630;  835.212; -140.113; -482.796
602.906; 2367.168; -910.101; -863.818
603.181; 6884.313; -627.119; -534.786
603.457; 5867.179;   98.903; -278.826
603.733;  860.722; -605.120; -626.783
604.008;  990.328; -245.106; -164.810
604.284; 3103.590; -636.101; -580.817
604.559; 2652.073;   -3.112;  -42.799
604.835;  482.256; -163.105; -225.810
605.110;  412.183; -732.099; -892.821
605.385;  693.491;  224.907;  267.167
605.661;  658.745; -625.095; -729.829
605.936; 1196.209; -664.108; -737.806
606.211; 1023.128;  -17.103; -170.815
606.487;  206.627; -329.114; -376.794
606.762;   11.789; -791.119; -745.786
607.037;  -28.369; -501.105; -433.810
607.313;  -47.611; -589.096; -574.828
607.588;  -12.548; -375.106; -137.810
607.863;   34.068;  -28.101; -143.818
608.138;  175.715;  513.890;  516.198
608.413;   16.037; -576.099; -592.822
608.688;   44.706; -203.108; -267.805
608.964;  218.547; -509.106; -218.809
609.239;  267.153; -107.105; -212.810
609.514;  258.661;  281.895;  240.188
609.789;  671.065; -187.104; -716.812
610.064;  881.013; -435.096; -609.827
610.339;  894.598; -855.109; -799.804
610.614; 1191.753; -131.100; -315.820
610.889;  665.311;  215.895;  107.188
611.163;   38.462; -407.104; -591.812
611.438;   74.003;   81.886; -167.794
611.713;   -0.485; -467.101; -499.817
611.988;   43.317; -144.101; -328.818
612.263;  -31.120; -771.102; -717.815
612.538;  215.862;  385.887;  251.204
612.812;  186.704; -832.100; -911.820
613.087;  143.667; -358.098; -338.823
613.362;  -64.084; -497.107; -557.807
613.637;   37.300;  261.897;  138.186
613.911;  -18.151; -256.092; -345.835
614.186;  134.465; -249.107; -292.807
614.460;  708.467; -842.081; -758.854
614.735;  802.191;  -55.087;  -17.843
615.010;  153.631;   43.912;  -82.841
615.284;  257.330;  360.892;  246.195
615.559;  377.673; -792.092; -955.835
615.833;  288.935;  -76.099;  -87.822
616.108;   13.534; -225.090; -390.837
616.382;  124.167;  274.913;  402.156
616.656;  169.760; -241.090; -232.837
616.931;  494.210; -785.099; -700.822
617.205; 1079.619; -973.104; -979.813
617.480;  994.333;  -91.125;    6.225
617.754;  160.931; -396.125; -128.774
618.028;   14.751; -369.129; -382.768
618.302;   50.679;   73.892;  -25.805
618.577;  -52.849; -371.103; -518.815
618.851;  -68.281; -399.109; -600.803
619.125;  -52.768; -335.134; -378.759
619.399;  -17.155; -244.104; -374.813
619.673;  -48.434; -330.115; -515.792
619.947;  -30.019; -333.114; -448.795
620.222;  -19.765; -198.110; -204.801
620.496;   -9.330;  -47.121;  -96.782
620.770;   18.936; -187.122;  -93.781
621.044;  195.079;  323.895;  346.190
621.318;  740.498; -653.120; -614.783
621.592;  690.520; -430.121; -409.783
621.866;  371.374; -476.112; -572.799
622.140;   10.985; -207.116; -356.791
622.413;   60.128;  138.889;  112.200
622.687;  -62.935; -746.101; -492.817
622.961;   20.754; -130.108; -143.805
623.235;  -57.271; -633.111; -661.800
623.509; -109.739; -816.105; -848.811
623.783;    5.362;  -12.107;   48.193
624.056;  -22.351; -254.120; -280.783
624.330;   38.218;   63.888;   -3.797
624.604;   56.207; -271.116; -355.790
624.877;   68.839;  180.890;   26.198
625.151;   43.925; -249.114; -238.794
625.425;  -45.103; -150.103; -283.814
625.698;  -74.742; -367.119; -374.785
625.972;  -94.683; -799.110; -765.802
626.245;   68.534;  685.884;  484.210
626.519;  -61.447; -426.120; -340.784
626.792;  -41.209; -192.107; -380.807
627.066;  -90.321; -485.122; -662.779
627.339; -112.337; -736.110; -663.802
627.613;   39.276;  351.880;  148.216
627.886;   46.844;  187.891; -612.803
628.160;  -19.053;  312.880; -161.783
628.433;  -83.214; -695.125; -703.775
628.706;  -85.397; -517.120; -615.784
628.979;   34.467;  296.876;  117.223
629.253;  -87.987; -785.119; -833.786
629.526;  356.070; -334.126; -253.772
629.799;  364.974; -641.123; -479.778
630.072;  167.128; -497.128; -516.769
630.346;  -58.991;-1115.116;-1080.790
630.619;  451.892; -467.107; -545.808
630.892;  638.780;  709.889;  593.200
631.165;  346.970;  790.896;  679.187
631.438;  -89.804;-1092.112;-1055.798
631.711;   53.877;  453.877;  257.221
631.984;  -57.371; -523.117; -624.789
632.257;  -67.025; -636.117; -681.789
632.530;  -37.992; -412.119; -433.785
632.803;   20.198; -109.115;    7.207
633.076;  -68.779; -360.123; -422.777
633.349;    8.357;  173.872;  121.231
633.622;  -41.643; -187.119; -240.785
633.895; -118.052; -903.120; -823.783
634.167;  -73.678; -496.126; -525.773
634.440;  -13.310;  -19.116; -137.792
634.713;   -2.888;  -22.119; -120.786
634.986;   75.172;  593.871;  453.233
635.258;  -73.928; -507.115; -597.793
635.531;   91.996;  742.882; -343.788
635.804;  -30.072; -303.117; -318.789
636.077; -104.714; -830.116; -852.791
636.349;   -3.855; -586.115; -474.793
636.622;  385.820; 1695.874; 1392.228
636.894;  243.403; -474.120; -909.784
637.167;  150.689; -836.127; -789.771
637.439;   31.285; -278.128; -213.770
637.712;  -41.904; -312.126; -293.772
637.984;  -88.188; -635.116; -707.791
638.257;  358.246;  515.877;  488.222
638.529;  567.512; -881.125; -924.776
638.802;  235.678; -508.128; -449.769
639.074; -112.514; -927.122; -952.781
639.346; -132.151; -942.135; -930.757
639.619;   -2.391;  -79.142; -319.744
639.891;  -11.771;  -83.122; -168.779
640.163;  -91.719; -689.122; -756.780
640.435;   29.033;  273.878;  103.220
640.708;   -0.015;  -72.122; -132.780
640.980;  -27.238; -366.122; -362.781
641.252;  186.564;  -25.121;  -71.781
641.524; 1808.115;  580.879;  573.219
641.796; 1841.792;-1094.121; -907.782
642.068;  329.719; -191.121; -300.782
642.340;  -55.129; -486.121; -566.783
642.613;   39.473;  294.880;  323.217
642.885; -113.951; -787.120; -878.783
643.157;  -52.399; -810.120; -658.784
643.428;   57.678;  170.880;  218.216
643.700;  -70.795; -498.120; -425.784
643.972;  -41.418;  -16.119; -133.785
644.244;  -98.316; -474.119; -559.785
644.516;  -57.590; -250.119; -114.786
644.788;   57.987;  662.881;  548.214
645.060;  -26.561;  -12.119; -124.786
645.332;  -95.559; -525.118; -535.787
645.603;   27.018;  479.882;  342.213
645.875;  -67.681; -334.118; -369.787
646.147;  155.496; 1487.882; 1242.212
646.418;  -79.477; -931.117; -918.788
646.690;  154.575; -714.117; -715.789
646.962;   25.052; -413.117; -451.789
647.233;   -2.646;   15.883;   11.211
647.505; -109.095; -595.117; -475.790
647.776;   18.507;  328.884;  229.210
648.048;    0.134; -248.116; -418.790
648.320;  -71.214; -752.116; -679.791
648.591; -152.637;-1055.116; -958.791
648.862;  -97.936; -505.116; -577.792
649.134;   26.616;  115.885;  198.208
649.405;  -38.607; -661.115; -618.792
649.677;  -62.405; -475.115; -598.793
649.948;  -11.328; -181.115; -296.793
650.219;  -20.601;  -37.115; -147.793
650.491;  -87.300; -431.114; -520.794
650.762; -116.598; -705.114; -731.794
651.033; -104.146; -437.114; -424.795
651.304;  -97.969; -743.114; -728.795
651.576;  -68.717; -680.114; -645.795
651.847;  -34.966; -250.113; -140.796
652.118;  -32.339;  -32.113; -189.796
652.389; -110.187; -639.113; -722.796
652.660;  -26.935; -147.113;  -89.797
652.931; -129.733; -897.112; -871.797
653.202;  -82.107; -382.112; -541.798
653.473;  -72.255; -633.112; -533.798
653.744;  143.272; -595.112; -590.798
654.015;  131.499; -356.112; -303.799
654.286;  -70.799; -642.111; -663.799
654.557;  -56.322; -586.111; -521.799
654.828; -153.796;-1114.111;-1088.800
655.099;  -86.144; -404.111; -291.800
655.370;  -87.742; -427.111; -543.801
655.641; -121.190; -656.110; -714.801
655.911; -104.563; -618.110; -638.801
656.182;   42.288;  437.890;  387.198
656.453;   71.890;  830.890;  746.198
656.724;  -75.733; -466.110; -426.802
656.994;  -97.056; -553.109; -568.803
657.265; -106.179; -862.109; -873.803
657.536;  -81.027; -500.109; -377.804
657.806; -101.226; -561.109; -593.804
658.077; -136.674; -866.109; -950.804
658.347;  -96.972; -523.108; -598.805
658.618; -108.970; -646.108; -694.805
658.888;  -43.843;  -41.108;  112.195
659.159;  -81.817; -432.108; -548.806
659.429;  -33.115; -292.108; -349.806
659.700;   10.962; -435.107; -390.807
659.970;  -12.336; -370.107; -359.807
660.241;   17.316; -754.107; -921.807
660.511;  496.068; -147.107; -174.808
660.781;   86.419; -793.106; -748.808
661.052;  -52.129; -222.106; -381.808
661.322;  -18.952;   21.894;   -9.809
661.592;   13.975;  257.894;  148.191
661.862;  -79.148; -369.106; -382.810
662.133;  -91.997; -551.105; -502.810
662.403; -122.245; -770.105; -676.810
662.673;  -67.343; -256.105; -213.811
662.943; -104.166; -612.105; -551.811
663.213;   -8.739;  -85.105;  -81.811
663.483;  -71.512; -593.104; -568.812
663.753;  -47.436; -194.104; -152.812
664.023;  -16.109;   68.896;  -32.813
664.293;  -66.957; -319.104; -126.813
664.563; -116.655; -694.104; -648.813
664.833; -128.528; -743.103; -608.814
665.103; -140.102; -730.103; -793.814
665.373; -118.000; -766.103; -806.814
665.643;  -77.698; -863.103; -918.815
665.913;   33.629; -534.103; -714.815
666.182;  124.981; -685.102; -719.816
666.452;  269.258;  -22.102;  -89.816
666.722;  -37.141; -724.102; -784.816
666.992; -138.889; -948.102; -921.817
667.261;  -98.962; -824.102; -808.817
667.531;  221.915;  134.899;   45.183
667.801;  523.992; -440.101; -412.818
668.070;  240.268;  714.899;  697.182
668.340; -104.805; -883.101; -840.819
668.609;   85.972;  588.900;  301.181
668.879;  -71.801; -490.100; -558.819
669.149;  -82.024; -539.100; -516.820
669.418; -112.497; -698.100; -726.820
669.688;  -20.996; -482.100; -666.820
669.957;   89.606; -423.099; -546.821
670.226;  -29.667; -268.099; -331.821
670.496;  -96.290; -431.099; -635.822
670.765;  -81.888; -418.099; -501.822
671.034; -130.812; -872.099; -828.822
671.304;  -20.460;   55.902; -111.823
671.573; -162.533;-1085.098; -957.823
671.842;   63.569; -380.098; -294.823
672.112;   31.971; -692.098; -586.824
672.381;    3.048; -239.098; -214.824
672.650; -130.476;-1005.097;-1021.825
672.919;  -96.324; -631.097; -507.825
673.188;  -99.622; -681.097; -878.825
673.457; -153.095;-1101.097;-1143.826
673.726;  -82.418; -579.096; -646.826
673.995;  -39.917; -533.096; -479.826
674.265;  -18.465; -263.096; -333.827
674.534;    2.337; -183.096; -235.827
674.802;   14.189; -618.096; -703.828
675.071; 1018.841; -886.095; -801.828
675.340; 4001.693; -464.095; -339.828
675.609; 1330.719;  103.905;   82.171
675.878;   61.596; -949.095; -893.829
676.147;   44.298;  -26.095;   -8.829
676.416;   99.175; -210.094; -294.830
676.685;  741.127; 1000.906; -622.830
676.953;  101.278; -603.094; -452.831
677.222;  -26.295; -193.094; -273.831
677.491;  -26.368;  -24.094; -127.831
677.759;  -24.991;   11.907;  172.168
678.028;  -15.939; -279.093; -222.832
678.297;  -20.987;   71.907;  197.168
678.565; -145.361; -898.093; -944.833
678.834;  -53.159; -311.093; -268.833
679.102;  -84.732; -411.092; -391.834
679.371; -151.730; -898.092; -727.834
679.639; -137.853; -797.092; -786.834
679.908; -110.702; -794.092; -724.835
680.176; -156.675; -895.091; -941.835
680.445;  -62.998; -346.091; -352.835
680.713;  -24.746;  -58.091;  -23.836
680.982; -100.544; -523.091; -525.836
681.250; -115.042; -578.091; -507.837
681.518; -101.666; -534.090; -751.837
681.787;  -14.139; -204.090; -167.837
682.055;  -74.237; -490.090; -422.838
682.323; -153.535; -993.090; -992.838
682.591;   32.192; -216.090; -538.838
682.859;   75.893;    9.911;  -35.839
683.128;   12.445;  232.911;  497.161
683.396; -164.878;-1102.089;-1122.840
683.664;  -49.051; -241.089;   21.160
683.932;   -3.374;  144.911;  -76.840
684.200;  -84.747; -576.088; -320.841
684.468;  -25.946;  -73.088; -124.841
684.736;  -39.094; -214.088; -175.841
685.004; -123.217;-1024.088; -982.842
685.272;  -55.840; -880.088; -774.842
685.540;  -68.363; -499.087; -557.843
685.808;  -82.187; -651.087; -682.843
686.076; -101.960; -894.087; -969.843
686.343;  -58.608; -601.087; -815.844
686.611;   37.444; -195.087; -224.844
686.879;  480.421; -530.086; -553.844
687.147; 3358.398; -483.086; -480.845
687.414;  932.774;  -12.086; -169.845
687.682;   13.201; -658.086; -757.846
687.950;  321.253;  259.915;  263.154
688.217;   10.380; -792.085; -760.846
688.485;  -15.168; -632.085; -636.847
688.753;  545.183;  -11.085; -102.847
689.020;  171.385; -820.085; -851.847
689.288; -102.113; -853.084; -787.848
689.555;  -24.486; -195.084; -148.848
689.823;  -57.509; -241.084; -345.849
690.090;  -72.707; -546.084; -651.849
690.358; -152.881; -877.084; -897.849
690.625;   -6.454;  120.917;   45.150
690.892;  -84.702; -403.083; -369.850
691.160;  -26.375;   72.917;  -35.850
691.427;   -8.998;  141.917;  130.149
691.694; -123.597; -855.083; -929.851
691.962; -140.245;-1177.082;-1060.852
692.229;   23.782;  127.918;   56.148
692.496;   81.709;  130.918;  -49.852
692.763;    8.611; -164.082; -201.853
693.031;  -71.512; -739.082; -716.853
693.298;  -30.586; -509.081; -368.853
693.565;  313.166; -155.081; -163.854
693.832; 1307.293;   -5.081;   -9.854
694.099;  152.545; -643.081; -642.855
694.366;  -62.178; -882.081; -896.855
694.633;  -60.027; -920.080; -633.855
694.900;  738.600; 4367.920; -114.856
695.167;  421.702; -214.080; -380.856
695.434;   82.479; -646.080; -623.856
695.701;  176.606;  121.921;  -61.857
695.968;  464.057; -365.079; -361.857
696.234;  956.609; -415.079; -646.858
696.501;10241.711; -776.079; -614.858
696.768; 5214.263; -554.079; -617.858
697.035;  295.865; -632.078; -667.859
697.302;   25.367; -448.078; -552.859
697.568;   14.218; -458.078; -497.859
697.835;  -41.655; -683.078; -624.860
698.102;  -13.753; -498.078; -407.860
698.368;   71.074;  384.923;  396.139
698.635;  -33.724;  -47.077; -424.861
698.901;  -10.323; -240.077; -348.861
699.168;   73.029; -534.077; -456.862
699.435;   74.781;  -72.077;  -13.862
699.701; -117.717; -868.076; -764.862
699.968;   -1.140;  144.924; -441.863
700.234;  -94.113; -783.076; -822.863
700.500;  -60.687; -448.076; -539.864
700.767;   -3.960;   -1.075;   26.136
701.033; -134.233;-1015.075; -963.864
701.299;  -51.906; -450.075; -483.865
701.566;  119.446;  950.925;  763.135
701.832;   20.147;  -31.075;  -76.865
702.098; -103.176;-1054.074;-1034.866
702.365;  -80.699;-1098.074;-1030.866
702.631;  -41.897;-1038.074;-1063.867
702.897; 1344.605; -765.074; -676.867
703.163; 2244.607;  348.926;  254.133
703.429;  154.358; -256.073; -273.868
703.695;  -11.915; -796.073; -792.868
703.961;   16.337; -214.073; -210.868
704.227;  -59.186; -630.073; -725.869
704.493;  116.391;  613.927;  510.131
704.759;  -23.858; -565.072; -540.870
705.025;   14.219; -203.072; -194.870
705.291;  -24.779; -666.072; -562.870
705.557;  197.023;  719.928;   34.129
705.823;   34.750; -742.072; -694.871
706.089;  133.427; -307.071; -326.871
706.355;  337.553; -315.071; -244.872
706.620; 5373.105; -776.071; -729.872
706.886; 7643.407; -309.071; -362.873
707.152;  722.259; -818.070; -973.873
707.418;  -36.914;-1153.070;-1186.873
707.683;    2.812; -550.070; -530.874
707.949;  -49.186; -547.070; -578.874
708.215;    5.341; -129.070; -207.874
708.480;  -20.807; -520.069; -420.875
708.746;   90.320;   68.931;   28.125
709.011;  -61.553; -578.069; -612.876
709.277;  -89.152; -538.069; -543.876
709.542;  -41.775; -428.069; -387.876
709.808;   -1.773;  -59.068;   89.123
710.073;  -95.646; -577.068; -695.877
710.339;  -28.944; -242.068; -228.877
710.604;   75.957; -780.068; -845.878
710.869;  319.109; -277.068; -366.878
711.135;  -70.914; -715.067; -628.879
711.400;  -84.262; -507.067; -608.879
711.665;  -73.110; -404.067; -479.879
711.931; -104.733; -661.067; -677.880
712.196; -133.007; -876.067; -954.880
712.461;   94.170; -402.066; -490.880
712.726;  132.197; -727.066; -771.881
712.991;  -77.026; -647.066; -664.881
713.256;  -49.799; -350.066; -332.882
713.521;  -63.523; -417.065; -381.882
713.787;  -65.721; -454.065; -472.882
714.052;  -32.919; -214.065; -400.883
714.317;  -99.342;-1045.065; -981.883
714.581;  994.735; -374.065; -268.883
714.846; 1368.087; -822.064; -888.884
715.111;  121.888;  261.936;  257.116
715.376;  -23.160;  -86.064; -223.885
715.641;  -15.283; -365.064; -367.885
715.906;  275.194;   15.936; -551.885
716.171;  144.571;  221.937;  209.114
716.436;   18.722;  -78.063; -104.886
716.700; -107.851; -818.063; -692.886
716.965; -123.624; -794.063; -807.887
717.230;  -68.022; -339.063; -392.887
717.494;  -39.420;  -40.062; -134.888
717.759; -107.668; -784.062; -640.888
718.024;    2.808;  269.938;  250.112
718.288;   82.335;  685.938;  395.111
718.553; -144.563; -803.062; -977.889
718.817; -151.761; -883.061; -899.889
719.082;  -41.809; -115.061; -125.890
719.346; -142.458;-1000.061; -947.890
719.611;  -44.231; -300.061; -255.891
719.875;  -85.304; -568.060; -537.891
720.140;  -72.552; -453.060; -603.891
720.404;   40.375; -136.060; -249.892
720.668;  875.927; -475.060; -411.892
720.933;  329.353;  146.940;  137.108
721.197;  -97.070; -667.059; -600.893
721.461; -137.293; -851.059; -826.893
721.725;  -30.216;  -21.059; -250.894
721.990;  -51.589; -284.059; -204.894
722.254;  -34.013;  -26.059; -108.894
722.518;  -77.261; -286.058; -442.895
722.782; -103.259; -743.058; -594.895
723.046;  114.793;  614.942;  570.105
723.310;   31.870;  374.942;  210.104
723.574; -104.553; -654.058; -614.896
723.838;  -97.627; -576.057; -642.897
724.102;  -38.750; -226.057; -239.897
724.366; -141.198;-1032.057; -978.897
724.630;  -92.671; -749.057; -571.898
724.894;  -85.894; -722.057; -514.898
725.158;  -15.293;   38.944; -295.898
725.422;  -64.966; -394.056; -327.899
725.685;  -69.189; -441.056; -349.899
725.949;  -78.037; -566.056; -519.900
726.213;  -77.135; -732.056; -811.900
726.477;  171.292;-1020.055; -933.900
726.740;  138.318; -274.055; -104.901
727.004;  319.770; -384.055; -510.901
727.268; 3279.947; -442.055; -400.901
727.531;  878.849; -961.055; -775.902
727.795;  -48.849; -713.054; -673.902
728.059;  -67.198; -552.054; -557.903
728.322;  -76.271; -841.054; -669.903
728.586;   38.456; -692.054; -701.903
728.849;  -80.967; -695.053; -756.904
729.112; -117.690; -812.053; -912.904
729.376; -116.563; -959.053; -905.904
729.639;  -70.737; -536.053; -536.905
729.903; -125.885; -733.053; -699.905
730.166;  -62.258; -437.052; -399.906
730.429;  -25.006; -317.052; -468.906
730.693;  -59.854; -355.052; -894.906
730.956;  197.747;  810.948;  651.093
731.219;  725.299; -310.052; -103.907
731.482;  115.901;-1003.051; -894.907
731.745;   92.653; -794.051; -935.908
732.009;   26.280;  -30.051;   50.092
732.272;  -98.868; -904.051; -771.909
732.535;  -43.842; -300.051; -310.909
732.798; -155.240;-1083.050;-1166.909
733.061;  -71.988; -430.050; -456.910
733.324;    0.389;   31.950; -180.910
733.587;   49.441;  290.950;  365.090
733.850;  -76.033; -973.049;-1050.911
734.113;   19.394;   33.951;   32.089
734.376;   -6.429; -328.049; -447.912
734.639;  221.548; 1188.951; 1011.088
734.901;   67.350; -180.049; -402.912
735.164;  517.101; -883.048; -837.913
735.427; 1341.553; -166.048; -355.913
735.690;  125.130; -205.048; -234.913
735.952;  -22.918; -923.048; -925.914
736.215;  -17.141;-1113.048;-1009.914
736.478;   39.511; -771.047; -774.915
736.740;  206.537;   33.953;  129.085
737.003;  676.889; -658.047; -672.915
737.266; 4150.441;  -94.047;   46.084
737.528;  440.793; -682.047; -660.916
737.791;  309.520; -316.046; -327.916
738.053;  788.871;  465.954;  649.083
738.316;10654.098; -162.046; -136.917
738.578; 7568.925; -770.046; -736.918
738.841;  421.177; -382.046; -446.918
739.103;  183.479; -875.045; -777.918
739.365;  498.831;   79.955;  -69.919
739.628;  -10.593; -884.045; -805.919
739.890;  -27.591; -758.045; -710.919
740.152;  -56.714; -692.044; -754.920
740.414;  -16.612; -408.044; -359.920
740.677;  -40.435; -785.044; -634.921
740.939;  -49.659; -587.044; -487.921
741.201;  273.918; -432.044; -572.921
741.463;   32.745; -689.043; -745.922
741.725;   12.947;  -21.043; -199.922
741.987;   50.674;  220.957;  116.078
742.249;    4.551; -751.043; -859.923
742.511;  225.027; -703.043; -794.923
742.773;    7.904; -546.042; -546.924
743.035;  132.906;  796.958;  533.076
743.297;  -35.467; -963.042;-1013.924
743.559;  761.310; -278.042; -262.925
743.821;   78.811; -735.042; -744.925
744.083;   10.238;  -44.041; -149.925
744.345;  -91.010; -869.041; -892.926
744.607;   37.442;   75.959;  122.074
744.868;  -70.631; -490.041; -554.927
745.130; -109.154; -994.041;-1008.927
745.392;   35.072;   -1.040;  -44.927
745.653;  -18.776; -411.040; -378.928
745.915;  135.301;  896.960;  631.072
746.177;   54.928;   35.960;  -43.928
746.438;   -0.895; -428.040; -543.929
746.700;  -40.094; -947.039; -988.929
746.961;    6.883; -659.039; -740.930
747.223;  141.835; -190.039;  -74.930
747.484;   79.462; -391.039; -471.930
747.746;  135.664;  -23.038; -106.931
748.007;   98.766; -647.038; -689.931
748.269;  287.242; -468.038; -440.931
748.530;  486.394; -852.038; -638.932
748.791;  256.521; -354.038; -420.932
749.053;  420.273;  286.963;  163.067
749.314;  471.225; -236.037; -169.933
749.575;  516.026; -945.037; -905.933
749.836;  843.428; -217.037;   86.066
750.098; 2447.705;  -60.037;  -21.934
750.359;36783.357;  414.964;  555.066
750.620; 9494.709; -121.036; -220.935
750.881; 1046.886; -585.036; -513.935
751.142; 1354.262; -950.036; -938.936
751.403;16604.389; -789.036; -705.936
751.664; 7472.191;-1034.035; -999.936
751.925;  483.993; -175.035; -262.937
752.186;  291.920; -298.035; -278.937
752.447;  135.096; -590.035; -445.937
752.708;   42.448; -532.035; -648.938
752.969;   -9.375; -566.034; -576.938
753.230;   -3.948; -777.034; -672.939
753.491;    5.629; -650.034; -631.939
753.751;   58.881;  109.966;   19.061
754.012;   96.982;  258.967;  181.060
754.273;   64.184; -174.033;  -71.940
754.534;    8.161; -487.033; -580.940
754.794;  -86.712; -926.033; -911.941
755.055;  140.490; 1051.967;  881.059
755.316;  -50.084; -700.032; -566.942
755.576;  -21.632; -606.032; -576.942
755.837;  -60.755; -527.032; -695.942
756.097;  -44.503; -530.032; -564.943
756.358;  -68.551; -725.032; -770.943
756.618;  -39.749; -705.031; -641.943
756.879;   11.177; -254.031; -349.944
757.139; -120.196;-1098.031;-1116.944
757.400;  -45.019; -538.031; -553.945
757.660;  -34.592; -365.031; -401.945
757.920;    3.810; -266.030; -228.945
758.181;  -14.564; -468.030; -351.946
758.441;  -82.412; -870.030; -809.946
758.701;  -33.910; -308.030; -215.946
758.961;  -34.758; -220.030; -278.947
759.222;  -40.081; -574.029; -502.947
759.482;  -88.504; -683.029; -723.948
759.742;  -82.028; -706.029; -547.948
760.002;   -4.601;  -83.029; -143.948
760.262;   20.126;   50.972;  182.051
760.522;  -59.197; -498.028; -574.949
760.782;  -60.145; -738.028; -612.949
761.042;  -35.994; -618.028; -573.950
761.302;   35.983;   55.972;  -18.950
761.562;   37.260; -164.027; -154.951
761.822;   91.987; -710.027; -551.951
762.082;  -39.911;-1104.027;-1093.951
762.342;   59.216; -328.027; -403.952
762.601;   80.192; -567.027; -506.952
762.861;  368.619; -281.026; -207.952
763.121;  398.946; -406.026; -411.953
763.381; 7336.248; -499.026; -485.953
763.640; 8130.625; -139.026; -307.954
763.900;  345.576; -242.026; -203.954
764.160;   92.853; -458.025; -491.954
764.419;  -24.695; -726.025; -782.955
764.679;  -78.768; -795.025; -726.955
764.939;  -15.041; -124.025; -210.955
765.198;  -75.814; -608.025; -563.956
765.458;  -87.238; -710.024; -612.956
765.717;  -86.936; -454.024; -590.957
765.976;  -53.734; -428.024; -411.957
766.236;  -75.332; -475.024; -610.957
766.495;   19.595;  260.977;   73.042
766.755;  -87.029;-1090.023; -987.958
767.014;   -3.277; -594.023; -665.958
767.273;  -60.400; -373.023; -397.959
767.533;  -46.073; -228.023; -307.959
767.792;  -34.296; -151.022; -188.960
768.051;  -62.694; -228.022; -276.960
768.310;  -82.143; -546.022; -650.960
768.569;   -6.116; -161.022;    4.039
768.828;  -45.114; -285.022; -363.961
769.088; -119.087;-1050.021; -942.961
769.347;  -82.885; -755.021; -599.962
769.606;  -95.359; -876.021; -857.962
769.865; -104.932;-1016.021;-1033.963
770.124;  -15.455; -411.021; -336.963
770.383;  -53.728; -778.020; -910.963
770.641;  -20.726; -398.020; -400.964
770.900;  -63.899; -953.020; -846.964
771.159;  -53.448; -851.020; -951.964
771.418;  -25.621; -917.020; -779.965
771.677;  101.556; -224.019; -293.965
771.936;  122.633; -794.019; -865.966
772.194; 2100.760; -465.019; -437.966
772.453;10880.886; -213.019; -391.966
772.712;  757.388;  416.982;  329.033
772.970;  103.940;   32.982;   63.033
773.229;   76.792;  -22.018;  102.033
773.488;  -93.581; -814.018; -770.968
773.746;   59.346;  296.982;  335.032
774.005;   10.572;  190.983;  -22.969
774.263;    5.324;  243.983;  177.031
774.522;  -51.924; -422.017; -548.969
774.780;  -83.547; -484.017; -417.970
775.039;  -92.120; -551.017; -531.970
775.297;  -25.944; -135.016; -351.970
775.555; -108.692; -489.016; -612.971
775.814; -115.465; -618.016; -570.971
776.072; -121.313; -749.016; -740.971
776.330; -108.936; -630.016; -520.972
776.589; -118.185; -703.015; -721.972
776.847; -133.158; -645.015; -624.973
777.105; -171.931;-1016.015;-1032.973
777.363;  -84.679; -459.015; -454.973
777.621; -155.002; -660.015; -717.974
777.879;  -25.400;  -42.014;   32.026
778.138; -104.799; -554.014; -717.974
778.396;  -96.722; -585.014; -526.975
778.654; -162.245;-1015.014; -970.975
778.912;  -66.268; -269.014; -371.976
779.170; -140.491; -880.013; -803.976
779.427; -163.665; -922.013; -897.976
779.685; -131.988; -880.013; -832.977
779.943;  -93.211; -654.013; -593.977
780.201; -161.084; -964.012; -883.978
780.459; -122.082; -651.012; -610.978
780.717;  -82.955; -440.012; -390.978
780.974;  -97.129; -449.012; -490.979
781.232;  -75.952; -358.012; -338.979
781.490;  -73.200; -551.011; -472.979
781.747; -106.223; -555.011; -476.980
782.005;   30.004;  462.989;  254.020
782.263; -171.420; -542.011;-1004.981
782.520;  -88.793; -326.011; -501.981
782.778; -168.641;-1013.010;-1051.981
783.035; -168.239; -962.010; -938.982
783.293;  -63.037; -248.010; -206.982
783.550;  -61.460; -134.010; -198.982
783.808; -140.459; -764.010; -776.983
784.065; -150.707; -745.009; -874.983
784.322;  -45.780;   25.991;  -86.984
784.580; -145.653; -915.009; -771.984
784.837;  -94.901; -392.009; -466.984
785.094; -144.700; -783.009; -762.985
785.352;  -73.798; -304.008; -404.985
785.609; -101.646; -934.008; -839.985
785.866;  -96.894; -345.008; -401.986
786.123;  -67.417; -639.008; -583.986
786.380; -100.515; -665.008; -604.987
786.637;  -49.964; -225.007; -380.987
786.895;  -17.537; -456.007; -543.987
787.152;  -37.910; -135.007; -267.988
787.409;  -57.608; -123.007; -225.988
787.666;  -81.006; -299.006; -378.988
787.923; -115.580; -616.006; -695.989
788.179; -104.728; -551.006; -584.989
788.436; -100.951; -585.006; -585.990
788.693;  -39.424;  -92.006;  -87.990
788.950;  138.903; -125.005; -112.990
789.207;  230.630; -381.005; -372.991
789.464;  -45.269; -161.005; -301.991
789.720;  -18.417;  150.995;  110.009
789.977; -180.215;-1003.005; -671.992
790.234;  -25.988;   44.996;  -66.992
790.490; -146.736; -884.004;-1031.993
790.747;  -29.860;  -85.004;   22.007
791.004;  -39.483; -426.004; -348.993
791.260;  -80.881; -430.004; -560.994
791.517;  -99.479; -843.003; -788.994
791.773;  -56.202; -379.003; -342.994
792.030; -110.750; -596.003; -660.995
792.286; -120.249; -686.003; -636.995
792.543;  -22.097;  -74.002; -159.995
792.799;  -59.870; -584.002; -382.996
793.055; -158.968;-1179.002;-1210.996
793.312;  -86.041; -827.002; -816.997
793.568;  -55.190; -746.002; -599.997
793.824;  -11.538; -226.001; -284.997
794.081;   13.539; -447.001; -508.998
794.337;   59.641; -664.001; -561.998
794.593; 1280.368; -319.001; -271.999
794.849; 6563.070; -746.001; -772.999
795.105;  353.296; -270.000; -261.999
795.361;   20.523; -490.000; -457.000
795.617;  -60.000; -875.000; -945.000
795.873;  -37.225; -360.000; -407.000
796.129;  -42.275; -368.000; -306.000
796.385;   -9.200; -124.000; -156.000
796.641;   76.400;  412.000;  550.000
796.897;  -88.400; -666.000; -635.000
797.153;   58.275;  453.000;  357.000
797.409; -108.025; -785.000; -868.000
797.665;  -81.775; -625.000; -732.000
797.921;  -91.175; -775.000; -762.000
798.176;  -56.450; -744.000; -747.000
798.432;  -59.875; -824.000; -596.000
798.688;  -88.175;-1174.000;-1078.000
798.943;   77.650; -165.000; -147.000
799.199;  -27.525;-1005.000; -959.000
799.455;  218.125;  369.000;  316.000
799.710;  114.925; -813.000; -380.000
799.966;  285.525; -162.000; -160.000
800.221;  467.900; -638.000; -721.000
800.477;10234.825; -743.000; -710.000
800.732; 9328.950; -773.000; -800.000
800.988;  616.850;  205.000;  -19.000
801.243; 1703.375; -454.000; -344.000
801.498; 7513.675; -814.000; -739.000
801.754;  420.200; -289.000; -163.000
802.009;   67.250; -257.000; -335.000
802.264;  -57.775; -967.000;-1033.000
802.520;    5.275;  222.000;   -3.000
802.775;  -42.775; -524.000; -359.000
803.030;   46.325;  395.000;  356.000
803.285; -125.975; -840.000; -903.000
803.540;  -54.000; -686.000; -699.000
803.795;  -34.325; -648.000; -583.000
804.051;  -41.200; -279.000; -346.000
804.306;   10.050;  168.000;  128.000
804.561;  142.450;  451.000;  362.000
804.816;  133.900;  714.000;  861.000
805.071;   -9.300; -185.000; -280.000
805.325;  212.325; -257.000; -427.000
805.580;  -91.350; -841.000; -877.000
805.835;  -14.125; -204.000; -297.000
806.090;  -77.800; -760.000; -676.000
806.345;  -30.675; -344.000; -264.000
806.600;  -19.750; -549.000; -632.000
806.854;  -28.050; -408.000; -538.000
807.109;  -13.625; -493.000; -577.000
807.364;    9.850; -407.000; -328.000
807.618;    1.375; -415.000; -381.000
807.873;   60.700; -470.000; -494.000
808.128;   90.175; -257.000; -518.000
808.382;  110.725; -224.000; -332.000
808.637;   66.150; -440.000; -511.000
808.891;  166.350; -257.000; -180.000
809.146;   94.775; -902.000; -794.000
809.400;  258.500; -848.000; -923.000
809.654;  338.125; -779.000; -551.000
809.909;  499.200; -841.000; -927.000
810.163; 6562.075; -813.000; -651.000
810.418;17424.950; -940.000; -861.000
810.672; 1036.400; -685.000; -690.000
810.926;  710.275; -993.000; -973.000
811.180; 1351.300; -439.000; -372.000
811.434;31001.725;  240.000;  135.000
811.689;12819.275; -231.000; -365.000
811.943;  630.575; -936.000; -953.000
812.197;  323.725; -893.000; -671.000
812.451;  115.650; -379.000; -514.000
812.705;  -10.950; -809.000; -619.000
812.959;    3.250; -263.000; -388.000
813.213;   -4.875; -283.000; -209.000
813.467;   61.975;  470.000;  253.000
813.721;  -94.775; -764.000; -792.000
813.975; -115.700; -826.000; -877.000
814.229;   47.500;  430.000;  353.000
814.482;  -75.475; -517.000; -566.000
814.736; -114.150; -766.000; -744.000
814.990; -125.150; -779.000; -872.000
815.244;  -52.025; -228.000; -285.000
815.497;  -92.625; -636.000; -601.000
815.751;  -33.375; -141.000;   82.000
816.005;  -90.625; -470.000; -586.000
816.258;  -79.150; -510.000; -363.000
816.512; -116.200; -693.000; -610.000
816.766;    3.050;  121.000;  157.000
817.019;   18.125;  148.000;  149.000
817.273; -118.650;-1000.000; -802.000
817.526;  -32.475; -206.000; -173.000
817.779;  -35.600;-1049.000; -960.000
818.033;  -69.475; -693.000; -807.000
818.286; -114.525; -725.000; -792.000
818.540;  -81.775; -403.000; -403.000
818.793;  -84.725; -402.000; -489.000
819.046; -101.825; -582.000; -520.000
819.299;  -49.275; -157.000; -166.000
819.553; -134.875; -552.000; -592.000
819.806; -180.325;-1016.000; -838.000
820.059;  -57.650; -334.000; -354.000
820.312;   12.000;  152.000;  185.000
820.565;  -25.300;  110.000;  -27.000
820.818;  -57.950;  -59.000; -173.000
821.071; -169.825;-1041.000; -957.000
821.324; -101.775; -536.000; -540.000
821.577; -104.850; -457.000; -483.000
821.830;  -68.525; -270.000; -172.000
822.083; -140.425; -733.000; -288.000
822.336;  -62.725; -261.000; -167.000
822.589; -127.525; -805.000; -688.000
822.842; -157.500; -875.000; -770.000
823.094; -175.575;-1076.000;-1114.000
823.347; -147.125; -925.000; -729.000
823.600;   13.275;  402.000;  187.000
823.853;  -52.650; -311.000; -267.000
824.105;  -90.275; -331.000; -575.000
824.358; -112.350; -617.000; -716.000
824.611;   16.050;  234.000;   40.000
824.863;  -42.700; -612.000; -591.000
825.116;   49.950;  -33.000;   27.000
825.368;   80.600; -366.000; -372.000
825.621;  136.175; -186.000; -240.000
825.873;   83.625; -704.000; -737.000
826.126;  565.575; -669.000; -641.000
826.378;11529.200; -389.000; -505.000
826.630; 2891.425; -890.000; -898.000
826.883;   38.975; -754.000; -693.000
827.135;   51.150; -279.000; -270.000
827.387; -108.300; -893.000; -839.000
827.639;  -22.800;  -86.000;   32.000
827.892; -125.425; -742.000; -582.000
828.144; -146.450; -848.000; -804.000
828.396;  -50.825;  104.000;  -80.000
828.648;  -97.850; -440.000; -333.000
828.900; -150.550; -702.000; -795.000
829.152; -117.625; -684.000; -683.000
829.404;  -68.875; -215.000; -267.000
829.656;  -44.250;  321.000;  214.000
829.908;  -24.975;  393.000;  229.000
830.160; -175.650;-1064.000;-1047.000
830.412;  -96.575; -481.000; -430.000
830.664; -132.350; -557.000; -665.000
830.916;  -84.750; -268.000; -206.000
831.167; -179.875;-1073.000; -951.000
831.419; -114.175; -623.000; -566.000
831.671; -147.575; -764.000; -809.000
831.923;  -98.225; -311.000; -447.000
832.174;  -76.750; -273.000; -331.000
832.426; -102.150; -493.000; -582.000
832.678; -178.050;-1043.000;-1091.000
832.929; -175.025; -947.000; -935.000
833.181;  -79.925; -575.000; -677.000
833.432;  -70.275;  -59.000; -186.000
833.684;  -24.950;  112.000;  -27.000
833.935; -111.275; -610.000; -566.000
834.187; -132.675; -829.000; -823.000
834.438;  -52.400;  -58.000;  -25.000
834.689;  -59.900; -255.000; -123.000
834.941;  -63.825; -343.000; -244.000
835.192;  -93.850; -590.000; -533.000
835.443; -104.650; -419.000; -506.000
835.695;   -8.425;  138.000;  -16.000
835.946; -111.325; -608.000; -378.000
836.197; -108.325; -599.000; -622.000
836.448;  -93.100; -528.000; -395.000
836.699;  -62.400; -253.000; -341.000
836.950;   -6.725;   72.000;    7.000
837.201; -140.425;-1003.000; -987.000
837.452;  -63.350; -356.000; -170.000
837.703; -124.475; -791.000; -737.000
837.954;  -37.475; -205.000; -365.000
838.205;  -90.275;-1029.000;-1008.000
838.456;  157.525; -196.000; -282.000
838.707;    7.475; -423.000; -519.000
838.958;    6.825; -634.000; -647.000
839.209;  286.025;   18.000;   40.000
839.460;  105.650; -439.000; -201.000
839.710;  173.400; -135.000; -297.000
839.961;  425.100;  730.000;  612.000
840.212;  335.425; -382.000; -497.000
840.462; 1116.450; -328.000; -277.000
840.713;17734.750; -571.000; -536.000
840.964; 7379.150;  -62.000; -143.000
841.214;  501.800; -384.000; -624.000
841.465;  586.125; -214.000; -141.000
841.715;  516.225; -417.000; -380.000
841.966;  658.225; -746.000; -685.000
842.216; 8984.125; -330.000; -431.000
842.466;35464.900; -169.000; -313.000
842.717; 2022.825; -964.000; -952.000
842.967;  323.600; -635.000; -641.000
843.217;  272.050;   20.000;   28.000
843.468;   81.600; -104.000; -132.000
843.718;  -39.075; -718.000; -726.000
843.968;  -96.950; -837.000; -765.000
844.218;   25.000; -315.000; -262.000
844.469;  -46.450; -577.000; -561.000
844.719; -105.250; -537.000; -682.000
844.969; -105.625; -550.000; -580.000
845.219; -142.375; -814.000; -862.000
845.469;  -69.475; -392.000; -342.000
845.719; -148.075; -792.000; -884.000
845.969;  -18.300;  119.000;  174.000
846.219; -110.700; -738.000; -720.000
846.469;   17.075;  464.000;  432.000
846.718;  -56.900; -115.000;   31.000
846.968; -134.675; -827.000; -827.000
847.218;  -59.625; -224.000; -371.000
847.468;    3.575; -586.000; -555.000
847.718; -142.300; -827.000; -798.000
847.967; -140.475; -826.000; -915.000
848.217;  -68.100; -449.000; -569.000
848.467;  -62.275; -405.000; -376.000
848.716; -102.250; -708.000; -725.000
848.966;   -0.725; -372.000; -358.000
849.215;  -78.925; -428.000; -419.000
849.465;  -92.300; -785.000; -615.000
849.714; -137.050;-1132.000;-1150.000
849.964;  -64.675; -551.000; -613.000
850.213;  -42.950; -393.000; -355.000
850.463;   78.825;  137.000;  340.000
850.712;    6.825; -542.000; -567.000
850.961;   11.075; -739.000; -678.000
851.211;  105.500; -513.000; -504.000
851.460;  157.325; -635.000; -650.000
851.709;  555.325;  -25.000;   18.000
851.958;10131.900; -912.000; -750.000
852.208;12897.950; -859.000; -879.000
852.457;  473.275; -181.000;  -13.000
852.706;   55.000; -791.000; -823.000
852.955;   12.775; -507.000; -528.000
853.204;  -76.425; -521.000; -461.000
853.453;  -95.050; -418.000; -458.000
853.702; -127.375; -660.000; -750.000
853.951; -103.225; -532.000; -520.000
854.200; -108.125; -613.000; -562.000
854.449; -137.275; -695.000; -661.000
854.698; -103.450; -340.000; -279.000
854.946;  -66.450; -181.000; -284.000
855.195; -151.175; -843.000; -868.000
855.444; -100.450; -395.000; -420.000
855.693; -120.300; -345.000; -432.000
855.941; -115.875; -387.000; -516.000
856.190;  -53.500; -256.000; -382.000
856.439; -121.375; -652.000; -703.000
856.687;  -77.675;  -99.000;  -72.000
856.936; -132.900; -621.000; -323.000
857.184; -192.050;-1067.000;-1020.000
857.433; -103.450; -423.000; -512.000
857.681; -166.675; -989.000; -953.000
857.930;  -84.600; -282.000; -433.000
858.178; -172.650; -856.000; -929.000
858.427; -151.275; -802.000; -781.000
858.675; -130.300; -377.000; -544.000
858.923; -110.800; -527.000; -819.000
859.172; -187.250;-1094.000;-1070.000
859.420;  -99.900; -339.000; -239.000
859.668; -138.675; -624.000; -628.000
859.916;  -23.200;  109.000;  115.000
860.164; -114.625; -699.000; -603.000
860.413;  294.325; -878.000; -696.000
860.661;  221.500; -709.000; -577.000
860.909;  -86.950; -339.000; -325.000
861.157;  -89.300; -277.000; -444.000
861.405; -131.000; -534.000; -670.000
861.653;   13.350;  310.000;  310.000
861.901;  158.725; -543.000; -613.000
862.149;   -0.350; -801.000; -824.000
862.396;  -86.250; -297.000; -187.000
862.644;  -98.475; -368.000; -347.000
862.892;  -43.725;   98.000;  138.000
863.140; -126.125; -549.000; -530.000
863.388; -166.350; -815.000; -759.000
863.635; -127.350; -642.000; -601.000
863.883;  -27.550;  231.000;  190.000
864.131;  -94.750; -288.000; -357.000
864.378; -142.000; -675.000; -540.000
864.626;  -97.325; -347.000; -415.000
864.873; -128.150; -556.000; -505.000
865.121; -152.775; -714.000; -799.000
865.368;  -57.300; -173.000;   75.000
865.616;  -32.775;  -33.000;  -40.000
865.863;  -84.600; -462.000; -506.000
866.111; -116.950; -795.000; -824.000
866.358;   19.975; -426.000; -420.000
866.605; 2153.075;  -64.000; -804.000
866.853; 2236.000; -621.000; -537.000
867.100;  -42.900; -728.000; -775.000
867.347;  -98.525; -672.000; -611.000
867.594;  -96.900; -740.000; -714.000
867.841;  105.400;   97.000;   17.000
868.089; -169.400; -746.000; -698.000
868.336; -113.925; -477.000; -420.000
868.583; -144.525; -637.000; -741.000
868.830;  -58.725; -131.000; -170.000
869.077; -162.625; -859.000; -787.000
869.324; -133.175; -502.000; -458.000
869.571; -123.450; -398.000; -430.000
869.818; -118.450; -485.000; -439.000
870.065; -101.625; -439.000; -513.000
870.311; -115.800; -456.000; -542.000
870.558; -107.475; -332.000; -311.000
870.805;  -96.225; -320.000; -384.000
871.052; -113.425; -494.000; -369.000
871.298;  -51.975; -204.000; -131.000
871.545;  -76.050; -151.000; -185.000
871.792;  -97.800; -173.000; -222.000
872.038;  -78.125;   43.000; -126.000
872.285; -128.700; -496.000; -387.000
872.532; -107.625; -357.000; -387.000
872.778;    6.500;  556.000;  403.000
873.025;  -96.500; -384.000; -359.000
873.271;   17.450;  501.000;  578.000
873.517;  -34.625; -133.000; -209.000
873.764;  -34.675; -193.000;  -80.000
874.010;  -84.325; -143.000; -230.000
874.257;  -49.125;  123.000;   90.000
874.503; -141.350; -579.000; -479.000
874.749;  -73.100;   31.000;  275.000
874.995;  -69.725;  -80.000;  -20.000
875.242; -130.575; -540.000; -478.000
875.488; -107.950; -414.000; -439.000
875.734;  -69.150; -106.000; -234.000
875.980;  176.775; -872.000;-1032.000
876.226;  363.250; -157.000; -255.000
876.472;   -9.775;  343.000;  237.000
876.718;  -48.250;  184.000;  158.000
876.964;  -48.725;   56.000;   55.000
877.210; -152.675; -547.000; -677.000
877.456; -146.700; -630.000; -557.000
877.702; -175.850; -821.000; -832.000
877.948; -119.575; -377.000; -497.000
878.193;    5.675;  361.000;  255.000
878.439; -101.450; -487.000; -472.000
878.685; -103.775; -272.000; -343.000
878.931; -131.525; -618.000; -676.000
879.176;  -90.125; -201.000; -201.000
879.422; -180.975; -933.000; -820.000
879.668;   22.700;   10.000;   79.000
879.913;  139.725;   53.000;  137.000
880.159;  -56.675; -112.000;  -17.000
880.404;  -58.900; -152.000; -162.000
880.650;  -57.925;   91.000;  141.000
880.895; -169.950; -670.000; -710.000
881.141; -132.475; -454.000; -428.000
881.386; -156.600; -503.000; -658.000
881.631;  -97.450; -311.000; -166.000
881.877;  -48.475;  112.000;  -13.000
882.122; -135.075; -684.000; -600.000
882.367;  -94.375; -136.000; -186.000
882.612;  -82.750;  -80.000; -176.000
882.858; -184.300; -877.000; -823.000
883.103; -100.575; -297.000; -267.000
883.348; -159.350; -759.000; -852.000
883.593; -151.175; -677.000; -602.000
883.838;  -53.300; -311.000;  -24.000
884.083;   22.850;  353.000;  288.000
884.328; -102.650; -564.000; -545.000
884.573;  -60.775; -196.000; -143.000
884.818;  201.100; -694.000; -531.000
885.063;  183.325; -348.000; -315.000
885.308; -102.000; -475.000; -398.000
885.553;   -8.400;  245.000;  325.000
885.797; -133.400; -545.000; -615.000
886.042;  -58.300;    8.000;   58.000
886.287;  -95.775; -253.000; -211.000
886.532;  -57.625;   26.000;  204.000
886.776; -114.075; -407.000; -525.000
887.021; -139.700; -621.000; -574.000
887.265; -163.750; -685.000; -689.000
887.510; -145.275; -557.000; -496.000
887.755;  -96.225; -194.000; -164.000
887.999; -145.625; -552.000; -575.000
888.244;  -62.075;  -58.000;  161.000
888.488;  -12.050;  371.000;  393.000
888.732; -139.950; -368.000; -520.000
888.977; -133.125; -622.000; -567.000
889.221; -156.825; -683.000; -659.000
889.465; -134.300; -422.000; -566.000
889.710;  -86.125;  -56.000; -299.000
889.954;  -10.375;  579.000;  467.000
890.198; -153.600; -584.000; -707.000
890.442; -160.325; -716.000; -712.000
890.687; -179.175; -800.000; -753.000
890.931; -104.950; -273.000; -210.000
891.175; -139.225; -502.000; -500.000
891.419;  -77.600; -105.000; -110.000
891.663; -104.025; -239.000; -112.000
891.907; -176.025; -801.000; -545.000
892.151; -196.925; -920.000; -815.000
892.395; -115.775; -274.000; -387.000
892.638;  -34.475;  408.000;  291.000
892.882; -171.950; -780.000; -867.000
893.126;    6.625;  758.000;  558.000
893.370;  -89.575; -167.000; -168.000
893.614; -153.650; -714.000; -715.000
893.857; -108.225; -183.000; -197.000
894.101; -161.475; -527.000; -631.000
894.345;  -67.900;  300.000;  150.000
894.588;   -5.325;  569.000;  380.000
894.832;  -91.250; -178.000;  -84.000
895.075;  -88.050;   15.000;  -92.000
895.319; -141.000; -552.000; -420.000
895.563; -123.050; -413.000; -353.000
895.806; -155.750; -628.000; -741.000
896.049;  -65.400; -576.000; -368.000
896.293;   87.750;  527.000;  405.000
896.536;  -82.950; -465.000; -468.000
896.779;  -64.375; -149.000;   -1.000
897.023; -161.325; -751.000; -714.000
897.266;  -27.150;  325.000;  269.000
897.509; -179.975; -900.000; -901.000
897.752;  -55.600;  149.000;  171.000
897.996; -183.800; -972.000; -864.000
898.239;  -47.525;  168.000;  102.000
898.482; -125.200; -431.000; -453.000
898.725;  -32.250;  101.000;   53.000
898.968; -165.800; -609.000; -744.000
899.211; -120.500; -513.000; -361.000
899.454; -139.800; -633.000; -539.000
899.697;  -78.850;   90.000;  -43.000
899.940; -175.800; -761.000; -757.000
900.182;  -99.475; -335.000; -405.000
900.425; -100.100; -150.000; -298.000
900.668;  -35.225;  491.000;  350.000
900.911; -113.800; -292.000; -345.000
901.154;  -54.550;  141.000;   -3.000
901.396; -126.250; -407.000; -412.000
901.639; -138.800; -430.000; -496.000
901.882; -185.050; -790.000; -809.000
902.124;  -83.125;  -29.000; -143.000
902.367; -116.875; -315.000; -361.000
902.609; -142.650; -476.000; -453.000
902.852;  -96.950; -108.000; -260.000
903.094; -136.025; -458.000; -337.000
903.337;  -73.500;  -26.000;   53.000
903.579; -114.950; -228.000; -441.000
903.821; -167.300; -597.000; -744.000
904.064;  -51.450;   85.000;  127.000
904.306;  -91.675; -126.000; -166.000
904.548; -110.150; -152.000; -366.000
904.790; -104.900; -195.000; -340.000
905.033; -140.550; -625.000; -577.000
905.275; -136.650; -513.000; -524.000
905.517;   37.375;  468.000;  256.000
905.759;  -65.750; -667.000; -761.000
906.001; -110.625; -322.000; -369.000
906.243;  -67.775; -162.000; -224.000
906.485;  109.150; -265.000; -207.000
906.727;  101.475; -499.000; -542.000
906.969;  -38.850;  -30.000; -135.000
907.211;  112.450; -316.000; -382.000
907.453;  297.725; -188.000; -237.000
907.695;   -5.225; -158.000; -385.000
907.936;   44.850;  818.000;  706.000
908.178;  -76.675;   92.000; -135.000
908.420;  -72.200; -111.000; -162.000
908.662; -145.000; -633.000; -682.000
908.903;  -93.400; -208.000; -123.000
909.145;  -83.975; -240.000; -305.000
909.386;   -3.700;  315.000;  280.000
909.628;   30.025;  363.000;  397.000
909.870;   -7.200;   29.000;  264.000
910.111; -107.400; -809.000; -949.000
910.353;    2.375; -123.000; -161.000
910.594;    5.450; -574.000; -606.000
910.835;   58.425; -265.000; -326.000
911.077;  121.900; -503.000; -604.000
911.318;  279.675; -505.000; -471.000
911.559;  447.350; -577.000; -880.000
911.801; 1318.650; -284.000; -280.000
912.042;10192.450;  -50.000; -159.000
912.283;26856.925;  404.000;  371.000
912.524; 4182.100; -396.000; -457.000
912.765;  475.800; -193.000;   79.000
913.006;  214.275; -307.000; -338.000
913.247;   50.850; -270.000; -290.000
913.488;    1.350;  -43.000;   30.000
913.729;  -83.975; -373.000; -373.000
913.970;  -66.150;  -96.000; -292.000
914.211;  -83.275; -160.000; -198.000
914.452;  -78.725; -118.000;  -11.000
914.693;   -1.650;  510.000;  592.000
914.934;   -4.425;  510.000;  440.000
915.175;  -71.675;   53.000;  -95.000
915.415;  -71.450; -137.000;   27.000
915.656;  -68.850;  -28.000;  192.000
915.897;  -97.200; -252.000;  -82.000
916.137;  -82.725;   74.000;   -9.000
916.378; -143.575; -573.000; -517.000
916.619;  -84.675; -159.000;  -63.000
916.859;  -34.525;  303.000;  330.000
917.100;  109.400; 1655.000; 1070.000
917.340;   36.825;  930.000;  728.000
917.581;   60.275;  965.000;  789.000
917.821;  -20.250; -171.000;  143.000
918.061;   -5.600; -199.000;  -72.000
918.302;  -48.950; -152.000; -211.000
918.542;  -31.700;  -22.000;    3.000
918.782;   27.100;  369.000;  377.000
919.023;  119.550;  360.000;  427.000
919.263; 1711.400; 8131.000;  202.000
919.503; 1135.675; -137.000;  -54.000
919.743;  633.050;  390.000;  266.000
919.983;  274.400; -134.000;  -26.000
920.223;   80.400;  135.000;   14.000
920.463;  135.300;  631.000;  554.000
920.703;  117.450;   84.000;   39.000
920.943;  146.275; -110.000;   90.000
921.183;  196.275; -414.000; -405.000
921.423;  482.675;  307.000;  546.000
921.663;  716.025; -174.000; -257.000
921.903; 1557.125;  237.000;  173.000
922.143; 8460.100;  372.000;  389.000
922.383;33105.975;  158.000;  115.000
922.622;11413.150; -120.000;  -15.000
922.862; 1191.650;  796.000;  785.000
923.102;  457.350;  -51.000;   33.000
923.341;  188.175;   59.000;   74.000
923.581;   87.925;  450.000;  360.000
923.821;   26.000;  301.000;  398.000
924.060;    6.050;  351.000;  193.000
924.300;  -51.750;  -16.000; -128.000
924.539;  -25.100;  584.000;  473.000
924.779;   10.025;  812.000;  597.000
925.018;  -46.100;  247.000;  353.000
925.257;   -2.100;  595.000;  666.000
925.497;  -53.725;  447.000;  412.000
925.736;  -71.850;  -35.000;  102.000
925.975;    3.150;  687.000;  669.000
926.214;   21.275;  907.000;  850.000
926.454;    2.375;  706.000;  757.000
926.693;  -37.625;  419.000;  543.000
926.932;   30.850; 1021.000;  825.000
927.171;   61.300; 1107.000; 1044.000
927.410;   49.925; 1144.000;  967.000
927.649;    0.850;  924.000;  742.000
927.888;   -8.675;  590.000;  564.000
928.127;  -12.150;  680.000;  678.000
928.366;   23.775;  842.000;  826.000
928.605;   19.675;  831.000;  737.000
928.844;  242.525; 1451.000; 1393.000
929.083;  590.450;  770.000;  613.000
929.321;  317.625; 1335.000; 1359.000
929.560;   88.075; 1158.000; 1122.000
929.799;  -35.650;  574.000;  475.000
930.038;   72.525; 1025.000; 1394.000
930.276;  -58.650;  334.000;  397.000
930.515;  -11.450;  827.000;  681.000
930.753;  -17.950;  614.000;  589.000
930.992;  -20.100;  664.000;  717.000
931.230;   -7.650;  847.000;  847.000
931.469;  172.350; 2162.000;  892.000
931.707;   68.975;  840.000;  751.000
931.946;   52.525; 1278.000; 1344.000
932.184;   56.125; 1437.000; 1175.000
932.423;   30.575; 1265.000;  963.000
932.661;   84.100; 1296.000; 1428.000
932.899;   24.000;  987.000;  821.000
933.137;    2.625;  754.000;  564.000
933.376;  146.525; 1664.000; 1335.000
933.614;  159.575; 1759.000; 1196.000
933.852;   45.600; 1357.000; 1171.000
934.090;  109.525; 1722.000; 1747.000
934.328;   97.025; 1252.000; 1457.000
934.566;   90.850; 1431.000; 1110.000
934.804;  127.950; 1263.000; 1309.000
935.042;  454.400; 1861.000; 1850.000
935.280; 1717.700; 2088.000; 2063.000
935.518; 1639.875; 2113.000; 2007.000
935.756;  361.850; 2481.000; 2316.000
935.994;  156.675; 1808.000; 1751.000
936.231;  333.900; 2890.000; 2950.000
936.469;  181.300; 2367.000; 2378.000
936.707;  161.650; 2220.000; 2167.000
936.945;  227.625; 2825.000; 2882.000
937.182;  205.975; 2679.000; 2741.000
937.420;  293.625; 3602.000; 3031.000
937.657;  419.400; 3365.000; 3478.000
937.895;  364.425; 3331.000; 3488.000
938.133;  314.825; 3540.000; 3528.000
938.370;  328.500; 3896.000; 4191.000
938.607;  387.525; 4488.000; 4205.000
938.845;  544.525; 5587.000; 5549.000
939.082;  477.675; 5387.000; 5177.000
939.320;  530.450; 5799.000; 5728.000
939.557;  637.200; 6549.000; 6491.000
939.794;  723.250; 7285.000; 7097.000
940.031;  901.375; 8421.000; 8368.000
940.269; 1121.825; 9552.000; 9107.000
940.506; 1151.700;10901.000;10507.000

