
Integration time [ms]: 200.000
Averaging Nr. [scans]: 10
Smoothing Nr. [pixels]: 0
Data measured with spectrometer [name]: 2101013U2
Wave   ;Sample   ;Dark     ;Reference
[nm]   ;[counts] ;[counts] ;[counts] 

394.013;   57.048; -450.257; -315.536
394.305;  199.546; -461.258; -419.536
394.596;  808.348; -676.269; -527.514
394.887; 1660.364; -796.268; -654.518
395.178;  786.893;  145.736;   11.476
395.470;   31.104; -210.263; -356.526
395.761;  298.078;  305.734;  394.479
396.052;  504.029; -545.284; -306.489
396.343;  464.295; -557.276; -454.503
396.634;   74.365; -200.279; -290.497
396.926;   77.661; -618.268; -565.517
397.217;  105.699;   11.725;  -17.504
397.508;   30.915; -366.273; -154.507
397.799;    2.665; -555.279; -571.497
398.090;  -96.140; -973.280; -902.495
398.381;  150.457;   11.708;  -11.473
398.672;  -70.842; -585.292; -742.473
398.963;   -5.429; -348.279; -373.498
399.254;  147.467;   54.709; -209.475
399.545; -158.225;-1017.266; -883.520
399.836;   20.785; -407.277; -343.501
400.127;   50.934; -205.295; -209.468
400.418;   48.909; -423.274; -392.506
400.709;   37.348; -359.281; -333.493
401.000;   65.170; -268.291; -309.476
401.290;  123.474;  225.698;  115.545
401.581;   94.212; -166.286; -228.485
401.872;  -23.592; -542.298; -486.462
402.163;   76.227; -313.296; -252.467
402.454;  121.467; -123.291; -163.475
402.744;   17.019; -844.297; -813.465
403.035;  448.749; -226.293;  -86.471
403.326;  653.461; -366.292; -384.474
403.617;  454.702;  204.701;  165.539
403.907;  142.134; -593.283; -679.490
404.198; 1625.930; -545.307; -599.446
404.489; 4261.839; -618.283; -588.491
404.779; 1566.177; -618.302; -660.456
405.070;  252.457;  -67.304; -174.451
405.360;  225.650; -259.293; -238.472
405.651;  346.488;  125.699;   98.542
405.942;  239.007;  209.714;  127.516
406.232;  276.221; -432.285; -413.487
406.523;  626.844;  641.706;  758.530
406.813;   57.010; -579.286; -644.484
407.104;  429.556;  261.708;  144.527
407.394;  147.103; -604.299; -591.462
407.685;  202.421;  336.715;  222.513
407.975;   31.537; -400.283; -382.490
408.265;  140.081; -134.289; -190.478
408.556;   10.864; -472.291; -459.475
408.846;  261.444;  474.706;  429.530
409.137;  102.989;   -1.288; -216.480
409.427;   36.121; -193.285; -271.487
409.717;  -40.082; -776.273; -692.508
410.007;  162.715;    4.715; -170.486
410.298;   96.437; -360.295; -342.469
410.588;   23.419; -495.285; -510.486
410.878;  -80.600; -792.287; -873.482
411.168;   68.310; -481.298; -478.463
411.459;   86.532; -295.283; -242.489
411.749;   -2.537; -609.292; -507.474
412.039;  -18.513; -755.289; -386.480
412.329;  251.878;   40.722;  132.501
412.619;  162.510;  -62.286; -148.485
412.909;  420.284;  639.711;  594.521
413.199;  321.860; -130.280; -251.495
413.490;  484.575;  521.710;  352.523
413.780;   -2.636;-1013.279; -913.496
414.070;  303.696;  -46.276;  235.497
414.360;  282.974; -729.278; -666.498
414.650;  241.696; -726.288; -688.482
414.940;  335.563; -538.280; -441.496
415.230;  656.193;   50.712;   74.519
415.520; 4507.447;  155.730;   66.486
415.809;16692.447; -305.281; -125.493
416.099;13222.587; -388.277; -229.501
416.389; 3636.407;  435.726;  236.494
416.679; 2189.607;   91.738;   85.473
416.969;  403.204; -527.287; -503.483
417.259;  559.966;  341.721;  171.503
417.549;  639.146;  522.718;  318.508
417.838; 1209.663; -205.268; -147.518
418.128; 3702.080;  650.710;  492.522
418.418; 3047.224; -491.272; -579.509
418.708; 2223.207;    9.726;  -48.506
418.997; 7688.703; -474.275; -480.505
419.287; 7894.314; -733.273; -790.507
419.577; 7593.231; -160.283; -123.489
419.866;24701.385; -588.277; -498.501
420.156;26434.143; -242.270;  -55.513
420.446; 5339.000; -112.263;  -26.526
420.735;  865.838; -376.271; -446.512
421.025; 1154.074; 1830.722;  315.502
421.314;  823.636; -203.271; -226.512
421.604; 1937.256;   89.732;  233.484
421.893; 1058.732; -705.271; -602.511
422.183;  173.100; -487.263; -461.526
422.472;  409.834;  -36.271; -107.511
422.762;  431.381; -416.266; -379.521
423.051;  129.097; -916.276; -916.503
423.341;  266.216; -491.273; -439.507
423.630;  424.386; -121.265;   15.477
423.919;  341.403;   58.725;   49.495
424.209;  309.305;  -31.263;   56.473
424.498;  418.561;   68.732;  161.483
424.787;  797.367; -535.267; -601.518
425.077; 2627.785;   34.735;   29.478
425.366; 4188.311; -734.262; -744.528
425.655; 7498.616;  639.727;  259.493
425.945;13087.234; -313.247; -268.554
426.234; 7765.732;  117.741;  300.467
426.523; 3605.037;  -86.259; -350.534
426.812; 4975.377;  107.734;  159.480
427.101; 7287.953; -127.269; -323.515
427.390; 9587.947;  -55.270;  -86.514
427.680; 2870.756; -624.257; -411.538
427.969;  511.266; -330.255; -301.540
428.258;  278.248; -385.257; -477.536
428.547;  632.128;  449.728;  397.490
428.836; 1401.282; -421.253; -398.543
429.125; 2087.839; -199.259;  -72.534
429.414;  816.003; -330.251; -294.548
429.703; 2255.503; -231.251; -213.548
429.992; 6222.907; -938.250; -828.549
430.281; 4294.893; -397.264; -331.524
430.570;  625.094;  -21.252;   32.454
430.859;  700.437;  279.741;  352.466
431.148;  618.830;  636.752;  631.446
431.437;  431.194;  391.748;  367.454
431.725;  113.950; -544.257; -481.536
432.014;  -20.811; -845.253; -756.545
432.303;  353.902; -149.239; -105.569
432.592;  527.200; -460.263; -178.525
432.881;  743.631; -601.248; -437.554
433.169; 4023.167; -343.255;  -61.540
433.458; 8222.934;  445.765;  540.424
433.747; 3583.616; -397.261; -289.529
434.036;  819.879; -275.242; -280.564
434.324; 1523.719; -395.249; -379.551
434.613; 2605.973;   40.757;  159.437
434.902; 1113.293;  333.760;  439.433
435.190;  745.201;   75.761;  295.431
435.479;  413.755;  -52.245;   83.441
435.767;   81.863; -411.244; -427.561
436.056;  183.175; -340.242; -294.563
436.345;  292.795; -372.240; -223.568
436.633;  434.514;   60.750;  383.450
436.922;  387.397;  208.760;  414.432
437.210;  851.625; -194.236;    1.426
437.499; 2790.232; -583.235; -432.576
437.787; 3072.124; -339.236;  -10.574
438.075;  722.506;   56.761;  162.430
438.364;  890.609;  -44.238;  250.429
438.652;  535.908; -286.226; -138.592
438.941;  216.974;    3.770;  269.415
439.229;  -39.308; -665.252; -466.545
439.517;   28.240; -160.234;  -85.577
439.806;  -46.577; -501.225; -290.595
440.094;  249.948;  377.766;  650.421
440.382;  167.651; -653.233; -302.580
440.670;  203.732; -361.235; -285.576
440.959;   15.140; -347.223; -170.599
441.247;   90.085; -151.229; -109.587
441.535;  141.639; -266.235;   31.423
441.823;  -12.355; -497.234; -305.578
442.111;  276.489;  173.771;  327.412
442.400;  650.555; -628.245; -335.559
442.688; 1941.447; -111.234; -620.579
442.976; 1360.124; -786.213; -450.617
443.264;  132.930; -324.224; -364.597
443.552;  149.909; -258.226;   51.408
443.840;  307.438;  602.765;  876.423
444.128;  172.350;  265.767;  269.420
444.416;  -41.408; -694.228; -312.588
444.704;    6.768; -465.219;  -92.605
444.992;   94.812;   -0.226;  240.407
445.280;   48.475; -517.230;  -94.585
445.568;  -30.173; -694.212; -396.618
445.856;  445.953; -174.221;  357.398
446.143; 1012.165;  -54.220;   -7.604
446.431;  880.995;  -25.228;  625.411
446.719;  428.787;  489.783;  675.391
447.007;  248.069;  481.769;  705.416
447.295;  292.637;  597.777;  871.402
447.583;   32.283; -464.229;  -34.587
447.870;  172.650; -434.221; -202.601
448.158;  536.274; -104.230;  129.415
448.446;  345.166; -800.219; -338.604
448.733;  200.531;   13.776;  269.403
449.021;  333.427;   60.788;  341.382
449.309;  189.141; -296.210;  208.379
449.596;  268.783;  128.783;   59.392
449.884;   46.144; -571.222; -325.600
450.172;   13.000; -756.227; -406.590
450.459;  427.908;  645.786;  780.387
450.747; 1563.882; -411.218; -147.608
451.034; 4857.896;  493.772;  889.411
451.322; 3973.611; -413.214; -170.614
451.609;  456.233;  292.777;  508.403
451.897;  369.901; -550.203; -183.634
452.184; 1126.637; -622.223; -400.598
452.472; 1209.061;   97.792;  269.375
452.759;  442.466;  512.781;  864.395
453.047;   83.624; -407.212; -125.617
453.334;   12.774; -732.219; -216.606
453.621;   76.413; -438.214; -161.615
453.909;  182.293;   13.796;  384.368
454.196;  135.437; -299.199; -123.641
454.483;  266.013;  317.798;  540.364
454.771;  152.064; -215.208;  196.374
455.058;   63.167; -316.207;  102.374
455.345;  171.789;   71.807;  344.347
455.632;   53.970; -128.207;  235.373
455.919;  123.158;  -82.196;  182.354
456.207; -154.059; -774.198; -450.642
456.494;  -44.875; -475.200;  -66.639
456.781;  -14.391; -399.202; -198.635
457.068;   69.377; -253.206;  -29.628
457.355;  -70.222; -698.206; -401.629
457.642;  -43.817; -552.205; -290.630
457.929;  -77.419; -778.194; -417.651
458.216;   17.625; -575.212; -354.617
458.503;  191.885; -173.193;  -19.652
458.790;  100.762; -864.208; -630.625
459.077;  204.214;  -77.202;  110.364
459.364;  502.474; -350.195; -210.649
459.651; 1173.875;  -46.206;  220.372
459.938;  493.953; -864.209; -665.623
460.225;  172.517;  132.799;  276.363
460.512; -158.745; -836.197; -688.645
460.799;  139.280;  -32.218;  320.392
461.086;   59.329; -370.200; -251.640
461.372;  -18.059; -509.198; -279.642
461.659;  144.659; -165.196;  108.354
461.946;   18.484; -445.193;  -54.651
462.233;  367.027;  842.800;  888.361
462.519;  194.524; -814.201; -464.639
462.806;  581.656; -768.197; -497.645
463.093;  589.103; -445.191;  -66.656
463.380; -132.257; -920.186; -824.664
463.666;   70.258; -259.197;  -18.646
463.953;   88.169; -406.195; -243.648
464.239;  162.469; -173.195;  -77.648
464.526;  489.879;  413.806;  743.350
464.813;  291.214; -565.190; -304.658
465.099;  482.285;  606.807;  607.348
465.386;  488.888;  903.807;  921.348
465.672;  -30.844; -694.197; -522.645
465.959;  -13.868; -598.188; -520.662
466.245;   17.989; -468.193; -359.652
466.532;  112.067; -109.195;   63.352
466.818;   51.542; -357.186; -216.664
467.104;  -32.519; -488.182; -415.672
467.391;  -45.584; -628.189; -459.658
467.677;   25.346; -289.186;    9.335
467.964;  -24.777; -682.189; -471.660
468.250;   95.548; -331.186; -160.665
468.536;  145.917;   90.811;  180.341
468.822;  -73.040; -821.184; -574.668
469.109;  244.558;  351.827;  471.311
469.395;  319.198;  729.808;  787.346
469.681;  236.920;   46.811;  156.341
469.967;  820.825; -699.188; -382.660
470.254; 1759.132; -494.188; -306.662
470.540; 1187.958; -601.196; -476.646
470.826;  144.091; -488.181; -397.675
471.112;  317.063;  288.816;  113.331
471.398;  139.668; -253.183;  -58.670
471.684;  -19.682; -626.177; -447.680
471.970; -132.105; -918.180; -981.675
472.256;   -0.403; -521.192; -441.654
472.542;  -51.732; -499.171; -434.691
472.828;  -26.023; -743.182; -607.672
473.114;   25.210; -380.166; -283.700
473.400;   -1.466; -504.175; -293.684
473.686;   35.916; -452.166; -400.701
473.972;   82.548; -230.174; -131.687
474.258; -146.642; -925.173; -843.689
474.544;  161.010; -183.178;   -2.679
474.830;  297.336;  -65.175;   45.316
475.116;  373.716; -123.190; -196.658
475.401;  440.797; -558.180; -467.676
475.687;  106.396; -725.180; -718.676
475.973;  -25.515; -673.181; -770.673
476.259;  383.738;  736.825;  764.315
476.544;  285.626; -539.176; -437.682
476.830;  601.664; -398.172; -322.690
477.116;  482.525; -430.177; -336.682
477.401;  218.197;  346.820;  358.324
477.687;   -3.266; -289.175; -405.684
477.973;   55.888;   21.819;   28.326
478.258;   -8.165; -448.163; -348.706
478.544;   97.454;   21.815;   61.334
478.829;  -94.527; -818.171; -738.692
479.115; -111.536; -749.172; -651.690
479.401;  -24.256; -444.174; -449.686
479.686;   35.796; -253.180;  -74.676
479.972; -122.485; -886.178; -776.680
480.257;   53.611; -258.166;  -65.700
480.542;  -14.823; -614.170; -469.693
480.828;  461.332; 1288.824; 1392.317
481.113;  -26.070; -464.176; -426.683
481.399;   -9.442; -236.161; -202.711
481.684;  -86.590; -620.166; -462.700
481.969;   75.770; -158.159;  -73.713
482.255;   -6.113; -439.169; -285.695
482.540;  -23.984; -569.178; -441.680
482.825;    7.438; -395.187; -404.663
483.110;   99.090;  -85.169; -105.696
483.396;  101.291; -840.157; -652.718
483.681;  550.748;  543.826;  730.313
483.966;   61.365; -696.160; -700.712
484.251;   12.347; -404.174; -310.687
484.536;   18.121; -356.165; -378.703
484.822;  -27.650; -205.173; -218.687
485.107;  -61.373; -599.152; -502.726
485.392;  212.126;  662.836;  541.296
485.677;  157.800;  354.832;  163.302
485.962;  160.689;  160.843;  270.283
486.247;  170.143;  -14.162;   -8.707
486.532;   31.412; -178.166; -325.701
486.817;  246.352;  381.839;  431.291
487.102;   56.311; -453.154; -514.722
487.387;  491.693; -637.156; -652.718
487.672;  847.331; -154.164;  -38.705
487.957;  588.859; -394.160; -286.711
488.241;  159.443; -290.150; -314.729
488.526;  603.129; -280.152; -148.726
488.811;  764.617; -881.177; -818.680
489.096;  599.014; -666.154; -702.723
489.381;  438.125;    3.847;  162.275
489.666;  226.957; -428.161; -510.710
489.950;  274.917;  558.846;  627.277
490.235;  -58.661; -480.151; -458.728
490.520;  -97.344; -756.161; -723.710
490.804; -108.005; -827.156; -736.719
491.089;  -31.742; -469.149; -299.732
491.374;   38.130; -132.164;  -75.704
491.658;  -77.231; -817.147; -717.735
491.943;   96.133; -657.152; -609.727
492.227;  239.007; -178.155;  -38.721
492.512;   58.088; -294.157; -341.717
492.797; -148.248; -713.149; -716.731
493.081;  -85.328; -588.147; -598.735
493.366; -131.642; -751.161; -635.711
493.650;  363.422;  831.859;  917.254
493.935;  -46.231; -648.147; -447.734
494.219; -106.590; -778.142; -687.743
494.503; -107.352; -585.150; -487.730
494.788;   87.580;   46.842;   74.285
495.072;  155.444;  184.850;  434.271
495.356;  118.961; -463.148; -343.733
495.641;  326.778; -812.146; -736.736
495.925;  313.699; -976.156; -903.719
496.209;   -6.542; -599.149; -451.732
496.494; -103.389; -763.142; -544.744
496.778;  -18.389; -364.154; -360.722
497.062; -124.001; -819.156; -627.719
497.346; -100.239; -869.160; -640.711
497.631;  241.465;  580.852;  560.266
497.915;  124.488;  -64.145;  175.261
498.199;   25.791; -341.157; -277.718
498.483;   12.927; -562.152; -508.725
498.767;  286.746;  301.850;  300.271
499.051;  132.556; -126.149; -100.732
499.335;  -71.246; -693.149; -739.731
499.619;  -69.381; -381.129; -423.767
499.903;   33.306; -272.155;  -65.721
500.187;  -13.382; -588.153; -316.724
500.471;  -59.568; -796.152; -595.727
500.755;  115.757;   62.839;  -96.710
501.039;   36.806; -270.155; -357.721
501.323;  126.924;  -21.141;  264.254
501.607;   34.935; -447.163; -503.706
501.891;  -34.608; -607.156; -512.718
502.174;  -90.701; -726.144; -585.741
502.458;  121.236;   89.849;  370.273
502.742;   62.247; -180.138; -191.751
503.026;   59.068; -412.147; -254.734
503.310;  107.469; -437.159; -375.713
503.593;   63.870; -464.147; -325.735
503.877;  129.685; -232.133; -156.760
504.161;  191.920;    2.847;  -50.724
504.444;   14.682; -841.158; -710.716
504.728;  235.929; -487.164; -522.704
505.012;  572.643; -257.150;  -76.729
505.295;  407.358; -417.161; -212.711
505.579;  423.099; -256.156; -496.719
505.862;  547.285; -555.145; -333.738
506.146;  468.872; -681.159; -758.714
506.429;  472.372;  568.841;  461.286
506.713;   29.340; -732.151; -667.728
506.996;  309.411;   90.846;  295.278
507.280;  234.224; -633.165; -474.703
507.563;  174.905; -469.155; -261.721
507.847;   65.719; -423.153; -112.724
508.130;   11.258; -665.161; -456.711
508.413;   74.207; -758.167; -577.700
508.697;  205.207; -151.167;   12.300
508.980;   74.620; -422.153; -312.724
509.263;  -58.699; -466.155; -450.720
509.547;   68.642; -124.150;   82.271
509.830;   57.760; -172.160;  140.289
510.113;  148.199;  128.844;  298.281
510.396;  -20.474; -530.152; -300.725
510.680;  172.486; -818.145; -812.738
510.963;  991.415;  184.846;  180.277
511.246;  799.650; -493.150; -357.730
511.529;  276.491; -482.145;  -83.739
511.812;  318.582; -250.134;   10.241
512.095;  121.937; -740.151; -396.728
512.378;   60.674; -317.147; -245.736
512.661;  -62.846; -703.137; -623.753
512.944;  -54.488; -750.142; -637.744
513.227;   40.951; -170.137; -171.752
513.510;   -6.501; -479.144; -671.741
513.793;  -29.172; -485.140; -435.747
514.076;  155.438;  -43.127;  -39.771
514.359;   59.959; -294.149; -135.732
514.642;   12.215; -442.142; -567.744
514.925;  625.627;  581.860;  561.253
515.208;  630.578; -498.134; -443.758
515.491;  415.692; -276.133; -182.761
515.773;  258.902; -410.143; -337.742
516.056; 1567.660;  249.864;  409.246
516.339; 1969.964; -754.136; -652.755
516.622; 1882.847; -518.150; -488.730
516.904; 1813.209;  882.857;  975.257
517.187;  712.050; -730.138; -523.752
517.470;  384.508; -568.143; -510.743
517.752;  293.267; -624.136; -470.756
518.035;  175.238; -708.139; -725.749
518.318;  174.364; -799.136; -744.755
518.600; 1595.095; -300.132; -325.762
518.883; 2130.614;  310.858;   88.256
519.165; 1072.943; -585.138; -426.751
519.448;  401.295;  -61.132;  -19.762
519.730;  134.946; -573.126; -415.773
520.013;  475.388;  588.867;  664.240
520.295; 1047.483;  -94.134;  -15.759
520.578; 2244.807; -335.131; -305.764
520.860; 2561.295; -254.132;   56.238
521.143; 1153.769; -763.135; -584.756
521.425;  471.058; -251.125; -279.775
521.707;  533.939; -622.127; -380.771
521.990; 1444.239; -199.127;  167.229
522.272; 1481.930; -116.140;   -4.748
522.554;  821.503; -237.143; -157.742
522.836;  381.281;  -24.134;   99.241
523.119;  210.167; -496.148; -189.734
523.401;  113.214; -448.130; -314.766
523.683;   -1.146; -865.137; -693.753
523.965;  264.448;  408.862;  260.248
524.247;  273.178;   54.878;  170.220
524.529;  166.083; -451.134; -367.759
524.812;  386.915;   -3.130;  191.234
525.094;  590.848; -773.138; -631.751
525.376; 1046.167; -143.124;   78.223
525.658;  560.061; -441.136; -339.754
525.940;  -83.896; -805.131; -671.764
526.222;   47.265; -188.136;  -88.755
526.504;  169.302; -190.131;   32.237
526.786;  162.186; -960.133; -647.760
527.068;  382.672; -124.123;  -67.778
527.349;  105.358; -865.137; -774.754
527.631;  147.294; -137.132;   22.238
527.913;   24.938; -664.127; -450.771
528.195;   51.951; -761.125; -639.774
528.477;  214.479;  -93.134;  -30.758
528.759;   27.615; -648.130; -522.766
529.040;  -30.129; -569.123; -293.778
529.322;   56.654; -235.125;  -10.774
529.604;  171.317;  -47.130;   93.233
529.886;  100.145; -546.126; -302.773
530.167;  141.909;  232.870;  192.235
530.449;   90.873;    1.853;   63.265
530.731;  -56.423; -572.122; -459.779
531.012;   -6.403; -513.120; -216.784
531.294;   57.234; -118.116;  -43.792
531.575;  237.358;  290.875;  538.225
531.857;  -32.326; -548.135; -266.757
532.138;  126.823; -113.141;   40.254
532.420;  237.870;  294.865;  403.244
532.701;  178.088; -722.133; -751.760
532.983;  444.391;  232.867;  182.239
533.264;  196.843; -243.126;  175.228
533.546;  -61.236; -491.136; -508.755
533.827;   98.785;  173.867;   -1.759
534.109;   40.174; -352.135;  -80.757
534.390;   26.198; -725.132; -582.762
534.671;  237.870; -270.135;  -82.756
534.953;   62.673; -751.123; -611.779
535.234;  -26.480; -426.117; -255.789
535.515; -151.695; -891.119; -735.785
535.796;  -60.166; -431.128; -193.770
536.078; -204.934;-1050.124; -904.777
536.359;   20.674;  -22.123;    3.221
536.640;  -52.347; -480.125; -197.774
536.921;  210.722;  225.871;  143.232
537.202;  319.845;  -87.138;  -16.751
537.483;  405.207;  251.869;  377.236
537.764;  196.510;   17.870;   98.235
538.045; -108.722; -543.134; -371.758
538.326;  -94.676; -596.129; -447.768
538.607;  -82.460; -686.127; -476.771
538.888;  196.588;   98.879;    5.218
539.169;   76.883; -704.122; -535.781
539.450;  392.221;  236.871;   16.233
539.731;  172.692; -361.121; -182.783
540.012;  173.597;  199.880;  412.216
540.293;   70.761;   82.876;  158.224
540.574;  -75.946; -895.113; -717.796
540.855;  520.891;  435.879;  377.218
541.136;  462.381;   47.878;  139.220
541.416;  164.316; -161.130; -220.766
541.697;  111.602; -274.131; -170.763
541.978;  734.472; -270.135; -315.757
542.259;  864.739; -211.127; -236.771
542.539;  428.828; -191.116; -186.790
542.820;  273.958;  461.875;  480.225
543.101;  113.487;  -52.145;  -77.738
543.381;  -51.761; -638.127; -591.771
543.662;  225.337;  159.873; -254.771
543.942;  285.735; -751.127; -830.770
544.223;  834.182;  193.878;  161.219
544.504;  489.666; -275.124; -182.777
544.784;  380.345; -592.126; -408.773
545.065; 1109.232;  104.884; -254.791
545.345; 1383.705;  227.881;   14.215
545.626;  984.953;  -14.113; -108.796
545.906;  683.209;   77.869;   98.235
546.186;  253.650;   92.874;  -95.773
546.467;  162.668;   99.877;  -95.778
546.747;  358.928;  264.884;  327.210
547.027;  293.665;   91.876;  111.223
547.308;  157.134; -376.127; -530.770
547.588;  339.725;  299.871;  371.232
547.868;  241.310;  458.870;  588.235
548.149;  267.039;  609.885;  593.207
548.429;   44.538; -347.127; -299.771
548.709;   53.897; -645.120; -461.784
548.989;  394.414;   84.882;   88.213
549.269; 1551.993;   10.868;  139.239
549.550; 3393.272;  215.877;  117.222
549.830; 2834.270; -758.111; -556.799
550.110;  593.577; -468.110; -320.801
550.390;  669.478; -128.122;  -56.779
550.670;  720.949; -868.114; -783.795
550.950;  564.190; -509.121; -471.782
551.230;  305.787;  549.879;  460.218
551.510;  -32.811; -381.121; -326.782
551.790;   26.985; -173.109; -127.803
552.070;  383.468;  940.877; 1181.223
552.350;  209.809; -492.119; -377.786
552.630;  427.785;   -2.121;   77.219
552.909;  312.832;  181.884;   73.209
553.189;  196.099;  -49.132;   33.237
553.469;   56.509; -703.119; -514.786
553.749;   77.641; -469.127; -357.772
554.029;  144.524;   33.883;  -24.790
554.308;  111.443; -154.115;  -37.794
554.588;   23.333; -196.128; -204.770
554.868;   26.091; -366.121;  -47.782
555.147;   73.440; -114.115;  -46.793
555.427;  366.735; -260.116; -250.792
555.707; 2693.438; -284.115; -200.793
555.986; 2917.673; -719.111; -538.800
556.266; 1757.427;   23.884;   72.210
556.546;  -26.011; -888.121; -675.782
556.825;   90.347; -657.114; -556.794
557.105; 1264.231; -125.128;   17.230
557.384; 1425.331;  122.884;  187.209
557.664;  446.934; -717.116; -508.792
557.943;   29.691; -557.121; -411.782
558.222;   60.517; -345.118; -344.788
558.502;  193.442; -116.115;  -76.793
558.781;  433.337;  194.885;  499.208
559.061;  274.517; -232.118; -227.788
559.340;  253.422;  302.883;  353.211
559.619;  592.327;   93.884;  148.210
559.899;  732.923; -239.117; -266.789
560.178;  596.141; -778.115; -593.793
560.457; 2239.525; -623.117; -562.790
560.736; 2859.375; -472.111; -482.800
561.015; 1920.329; -500.128; -502.769
561.295;  379.104;  180.893;  215.193
561.574;  307.139;  119.885;  116.207
561.853;  479.989;  274.891;  303.197
562.132;  342.844;  -45.114;  182.206
562.411;  416.285;  396.879;  553.219
562.690;    9.437; -592.115; -458.792
562.969;  216.760;  472.888;  630.203
563.248;  834.883; 2966.878; 2487.219
563.527;  191.174; -290.111; -408.800
563.806;  181.738; -650.127; -521.771
564.085;  330.518; -297.105; -206.810
564.364;   80.626; -594.117; -405.790
564.643;  386.885; -276.121; -223.781
564.922; 1279.683;  221.890;  397.198
565.201; 1016.887; -640.109; -700.803
565.479;  457.636; -297.115; -219.792
565.758;  152.932; -810.128; -712.770
566.037;  308.688; -155.109; -100.803
566.316;  196.732; -286.116;  -28.791
566.595;   10.038;  -17.115;  -12.793
566.873;  184.676; -166.111;  -79.801
567.152; -100.641; -490.113; -590.797
567.431;   39.728; -113.116;    6.210
567.709;  -23.896; -344.107; -212.807
567.988;   67.947; -810.114; -769.794
568.266;  316.638; -160.115;  -68.793
568.545;  205.363; -644.100; -514.819
568.824;  503.735;  160.885;  356.208
569.102;  377.346; -351.114; -235.794
569.381;   92.234; -492.116; -407.792
569.659;  -84.444; -553.113; -553.796
569.938;  -96.319; -743.122; -465.780
570.216;   35.790; -225.109; -225.804
570.494; -105.050; -632.114; -572.795
570.773;  103.089;  202.879;  114.218
571.051;  -44.829; -373.123; -357.778
571.330;   57.454; -221.113; -174.796
571.608;    2.280; -181.098; -173.823
571.886; -149.932; -671.111; -581.799
572.164; -179.409; -739.121; -621.782
572.443; -120.778; -562.105; -512.811
572.721; -101.975; -399.117; -289.790
572.999;  -79.781; -280.117; -168.788
573.277;  163.716;  379.894;  620.191
573.555;  216.617;   94.894;   37.190
573.834;  861.219;  -86.117; -114.788
574.112; 1222.706;  880.893;  811.193
574.390;  286.175; -143.111;  -96.801
574.668;  -20.939;  -91.112;  -61.797
574.946;  -16.082; -165.106; -187.810
575.224;    4.386;   71.891;  -16.803
575.502;  -65.971; -200.116; -204.791
575.780; -154.338; -767.112; -829.798
576.058;  478.074; 1589.889; 1004.200
576.336;  -33.221; -210.110; -129.801
576.614; -134.338; -511.112; -340.798
576.891;  -75.757; -711.115; -823.794
577.169;  296.798; -158.108; -285.805
577.447;  437.606;  169.893;  202.193
577.725;  296.666;  629.888;  854.201
578.003;   -3.336;  -71.112; -371.798
578.280;   31.330; -208.104; -242.812
578.558;  -14.958; -450.115; -422.793
578.836;  114.249; -210.114; -145.795
579.114;  -31.340; -630.112; -670.797
579.391;   87.120;   -6.117;  -18.789
579.669; -136.057; -595.114; -704.794
579.947;   90.503; -326.107; -127.806
580.224;   90.502; -692.107; -524.806
580.502;  226.106;  127.893;   76.193
580.779;   12.226;  -42.117;   75.210
581.057; -153.310; -584.109; -470.804
581.334; -189.656; -726.102; -695.815
581.612;   64.318;   54.895;  511.190
581.889;  -30.043;  -83.101; -129.818
582.167;  -66.530; -298.099; -190.821
582.444; -171.748; -845.102; -814.817
582.721;  183.552;  657.899;  715.183
582.999;   23.968; -326.100; -167.821
583.276;  201.375; -812.123; -713.779
583.553;  395.247; -364.102; -294.816
583.831;   30.727; -607.104; -631.812
584.108;   73.596;  349.892;  174.195
584.385;  -10.556; -122.102;  -98.815
584.662; -148.724; -651.111; -828.801
584.940;   55.275;  204.889;  204.199
585.217;  -42.744;  -73.113; -303.796
585.494;   39.384;   71.890;  118.198
585.771;   80.791; -250.109; -354.804
586.048;  286.655; -196.113;  -76.796
586.325;  126.579; -721.110; -773.801
586.602;  110.231;  230.896;  213.188
586.879; -137.235; -499.100; -580.820
587.156;   20.519; -156.105; -331.810
587.433; -131.250; -701.102; -667.817
587.710;   58.862;  152.888;  234.202
587.987;  182.524; -264.105; -236.811
588.264;  583.364;  315.888;  387.202
588.541;  956.633;  -61.104;   26.187
588.818; 1840.893;   72.892;  171.196
589.095; 1500.229; -163.104; -174.812
589.371;  168.789; -459.109; -414.804
589.648;  -62.994; -581.107; -437.807
589.925;  -58.350; -517.114; -621.795
590.202;  -65.838; -741.112; -607.798
590.478;   43.526; -166.105;  -73.811
590.755;  203.299; -241.108; -132.806
591.032; 1667.781; -741.110; -699.802
591.308; 2087.118; -732.094; -790.831
591.585; 1149.380; -573.110; -560.802
591.862;  -39.549;-1056.102; -950.817
592.138;  -68.903; -475.108; -474.805
592.415;   56.331; -486.104; -495.813
592.691; 1217.929;  460.896;  518.188
592.968; 1257.982; -208.098; -123.824
593.244;  520.328; -695.116; -595.790
593.521;   20.452; -105.102;  -42.817
593.797; -126.821; -810.122; -720.780
594.074;  126.594; -611.096; -588.826
594.350;  556.704;  828.905;  729.172
594.626;  199.976; -303.111; -283.801
594.903;  -47.248; -643.101; -645.817
595.179;  198.335;  243.896;  418.187
595.455;  -25.693; -136.107; -150.807
595.731;    8.236;  -19.103;  -38.814
596.008; -123.629; -464.111; -434.800
596.284;  -14.033; -187.100; -242.820
596.560;  -57.476; -501.093; -493.833
596.836;  136.921; -173.105;  -70.810
597.112;  144.697; -582.108; -437.805
597.388;  178.092;  -49.097;  -48.826
597.665;  154.358;  437.887;  530.203
597.941; -143.948; -572.089; -658.839
598.217;  -45.416; -323.110; -293.802
598.493;  172.393;   61.891; -204.804
598.769;  310.661; -175.100;  -50.819
599.045;  114.300; -490.108; -562.806
599.321;  -42.734; -193.100; -261.820
599.597;   53.792; -355.109; -476.804
599.872;  403.733;  409.896;  429.187
600.148;  256.493;  -61.097; -172.826
600.424;  273.105;   91.893;  202.193
600.700;  153.407; -170.107; -280.807
600.976;   27.788; -442.097; -464.825
601.252;  138.989; -226.109; -272.803
601.527;  -21.566; -833.104; -840.813
601.803;   57.626; -453.105; -404.812
602.079;   97.461; -124.100; -118.819
602.354;  322.633; -620.092; -531.835
602.630;  521.056; -140.113; -482.796
602.906; 1593.857; -910.101; -863.818
603.181; 4333.809; -627.119; -534.786
603.457; 3768.591;   98.903; -278.826
603.733;  484.693; -605.120; -626.783
604.008;  737.118; -245.106; -164.810
604.284; 1921.153; -636.101; -580.817
604.559; 1861.866;   -3.112;  -42.799
604.835;  302.621; -163.105; -225.810
605.110;  153.271; -732.099; -892.821
605.385;  504.027;  224.907;  267.167
605.661;  363.207; -625.095; -729.829
605.936;  550.500; -664.108; -737.806
606.211;  610.543;  -17.103; -170.815
606.487;   30.745; -329.114; -376.794
606.762;  -91.691; -791.119; -745.786
607.037;  -81.179; -501.105; -433.810
607.313; -133.900; -589.096; -574.828
607.588;  -59.282; -375.106; -137.810
607.863;   37.456;  -28.101; -143.818
608.138;  183.282;  513.890;  516.198
608.413;  -72.725; -576.099; -592.822
608.688;  -28.203; -203.108; -267.805
608.964;  109.912; -509.106; -218.809
609.239;  143.119; -107.105; -212.810
609.514;  299.326;  281.895;  240.188
609.789;  356.530; -187.104; -716.812
610.064;  545.199; -435.096; -609.827
610.339;  432.089; -855.109; -799.804
610.614;  681.666; -131.100; -315.820
610.889;  454.626;  215.895;  107.188
611.163;  -63.173; -407.104; -591.812
611.438;    0.047;   81.886; -167.794
611.713;  -72.347; -467.101; -499.817
611.988;   -3.744; -144.101; -328.818
612.263; -148.656; -771.102; -717.815
612.538;  240.555;  385.887;  251.204
612.812;   -2.733; -832.100; -911.820
613.087;    1.880; -358.098; -338.823
613.362; -121.693; -497.107; -557.807
613.637;   67.639;  261.897;  138.186
613.911;  -25.766; -256.092; -345.835
614.186;   21.206; -249.107; -292.807
614.460;  346.023; -842.081; -758.854
614.735;  490.474;  -55.087;  -17.843
615.010;  147.264;   43.912;  -82.841
615.284;  248.996;  360.892;  246.195
615.559;   64.333; -792.092; -955.835
615.833;  200.973;  -76.099;  -87.822
616.108;  -31.556; -225.090; -390.837
616.382;  145.276;  274.913;  402.156
616.656;   83.944; -241.090; -232.837
616.931;  178.673; -785.099; -700.822
617.205;  585.034; -973.104; -979.813
617.480;  672.656;  -91.125;    6.225
617.754;   69.353; -396.125; -128.774
618.028;  -85.075; -369.129; -382.768
618.302;   99.295;   73.892;  -25.805
618.577; -149.260; -371.103; -518.815
618.851; -132.714; -399.109; -600.803
619.125; -116.817; -335.134; -378.759
619.399;  -61.766; -244.104; -374.813
619.673; -124.165; -330.115; -515.792
619.947; -106.451; -333.114; -448.795
620.222;  -41.423; -198.110; -204.801
620.496;  -21.409;  -47.121;  -96.782
620.770;  -35.617; -187.122;  -93.781
621.044;  214.819;  323.895;  346.190
621.318;  424.394; -653.120; -614.783
621.592;  406.292; -430.121; -409.783
621.866;   81.067; -476.112; -572.799
622.140;  -33.671; -207.116; -356.791
622.413;   68.171;  138.889;  112.200
622.687;  -82.746; -746.101; -492.817
622.961;   -6.805; -130.108; -143.805
623.235; -148.828; -633.111; -661.800
623.509; -239.474; -816.105; -848.811
623.783;   17.603;  -12.107;   48.193
624.056;  -69.305; -254.120; -280.783
624.330;   90.961;   63.888;   -3.797
624.604;  -13.974; -271.116; -355.790
624.877;   52.681;  180.890;   26.198
625.151;  -54.256; -249.114; -238.794
625.425;  -71.964; -150.103; -283.814
625.698; -112.196; -367.119; -374.785
625.972; -179.716; -799.110; -765.802
626.245;  114.628;  685.884;  484.210
626.519;  -93.202; -426.120; -340.784
626.792;  -63.593; -192.107; -380.807
627.066; -169.024; -485.122; -662.779
627.339; -177.920; -736.110; -663.802
627.613;   80.097;  351.880;  148.216
627.886;   88.385;  187.891; -612.803
628.160;  -28.107;  312.880; -161.783
628.433; -220.442; -695.125; -703.775
628.706; -127.702; -517.120; -615.784
628.979;   82.565;  296.876;  117.223
629.253; -214.592; -785.119; -833.786
629.526;  203.444; -334.126; -253.772
629.799;  136.171; -641.123; -479.778
630.072;    4.727; -497.128; -516.769
630.346; -224.472;-1115.116;-1080.790
630.619;  198.408; -467.107; -545.808
630.892;  480.972;  709.889;  593.200
631.165;  319.734;  790.896;  679.187
631.438; -253.836;-1092.112;-1055.798
631.711;  109.374;  453.877;  257.221
631.984; -152.276; -523.117; -624.789
632.257; -161.480; -636.117; -681.789
632.530;  -71.196; -412.119; -433.785
632.803;   62.342; -109.115;    7.207
633.076; -112.632; -360.123; -422.777
633.349;   17.531;  173.872;  121.231
633.622;  -74.797; -187.119; -240.785
633.895; -262.105; -903.120; -823.783
634.167; -133.554; -496.126; -525.773
634.440;  -17.266;  -19.116; -137.792
634.713;   23.607;  -22.119; -120.786
634.986;  160.421;  593.871;  453.233
635.258; -156.559; -507.115; -597.793
635.531;  172.216;  742.882; -343.788
635.804;  -51.778; -303.117; -318.789
636.077; -194.770; -830.116; -852.791
636.349; -137.761; -586.115; -474.793
636.622;  564.043; 1695.874; 1392.228
636.894;   89.899; -474.120; -909.784
637.167;  -59.563; -836.127; -789.771
637.439;    6.134; -278.128; -213.770
637.712; -122.755; -312.126; -293.772
637.984; -184.069; -635.116; -707.791
638.257;  381.569;  515.877;  488.222
638.529;  230.359; -881.125; -924.776
638.802;   90.727; -508.128; -449.769
639.074; -229.318; -927.122; -952.781
639.346; -246.525; -942.135; -930.757
639.619;    4.513;  -79.142; -319.744
639.891;    4.076;  -83.122; -168.779
640.163; -144.722; -689.122; -756.780
640.435;   69.880;  273.878;  103.220
640.708;   22.482;  -72.122; -132.780
640.980;  -91.817; -366.122; -362.781
641.252;  178.685;  -25.121;  -71.781
641.524; 1389.387;  580.879;  573.219
641.796; 1103.288;-1094.121; -907.782
642.068;  196.390; -191.121; -300.782
642.340; -124.408; -486.121; -566.783
642.613;   90.694;  294.880;  323.217
642.885; -181.305; -787.120; -878.783
643.157; -180.903; -810.120; -658.784
643.428;   97.299;  170.880;  218.216
643.700; -131.999; -498.120; -425.784
643.972;  -74.798;  -16.119; -133.785
644.244; -144.396; -474.119; -559.785
644.516;  -80.494; -250.119; -114.786
644.788;  142.508;  662.881;  548.214
645.060;   -8.091;  -12.119; -124.786
645.332; -183.589; -525.118; -535.787
645.603;  104.713;  479.882;  342.213
645.875; -141.985; -334.118; -369.787
646.147;  343.916; 1487.882; 1242.212
646.418; -202.982; -931.117; -918.788
646.690;   -4.580; -714.117; -715.789
646.962;  -52.279; -413.117; -451.789
647.233;   25.623;   15.883;   11.211
647.505; -189.075; -595.117; -475.790
647.776;   83.527;  328.884;  229.210
648.048;  -60.672; -248.116; -418.790
648.320; -167.170; -752.116; -679.791
648.591; -288.768;-1055.116; -958.791
648.862; -119.466; -505.116; -577.792
649.134;   16.935;  115.885;  198.208
649.405;  -97.763; -661.115; -618.792
649.677; -114.661; -475.115; -598.793
649.948;  -22.859; -181.115; -296.793
650.219;    7.142;  -37.115; -147.793
650.491;  -96.256; -431.114; -520.794
650.762; -191.254; -705.114; -731.794
651.033; -159.052; -437.114; -424.795
651.304; -208.851; -743.114; -728.795
651.576; -190.549; -680.114; -645.795
651.847;  -53.247; -250.113; -140.796
652.118;   -8.245;  -32.113; -189.796
652.389; -166.444; -639.113; -722.796
652.660;  -26.342; -147.113;  -89.797
652.931; -270.740; -897.112; -871.797
653.202; -149.939; -382.112; -541.798
653.473; -142.037; -633.112; -533.798
653.744;   40.265; -595.112; -590.798
654.015;   17.167; -356.112; -303.799
654.286; -138.232; -642.111; -663.799
654.557; -120.230; -586.111; -521.799
654.828; -303.728;-1114.111;-1088.800
655.099; -118.826; -404.111; -291.800
655.370; -127.125; -427.111; -543.801
655.641; -180.523; -656.110; -714.801
655.911; -175.721; -618.110; -638.801
656.182;  128.781;  437.890;  387.198
656.453;  264.682;  830.890;  746.198
656.724; -134.116; -466.110; -426.802
656.994; -131.314; -553.109; -568.803
657.265; -211.712; -862.109; -873.803
657.536; -138.611; -500.109; -377.804
657.806; -173.109; -561.109; -593.804
658.077; -232.907; -866.109; -950.804
658.347; -152.406; -523.108; -598.805
658.618; -185.204; -646.108; -694.805
658.888;  -16.002;  -41.108;  112.195
659.159; -129.800; -432.108; -548.806
659.429;  -58.599; -292.108; -349.806
659.700;  -44.097; -435.107; -390.807
659.970;  -97.195; -370.107; -359.807
660.241; -126.493; -754.107; -921.807
660.511;  290.808; -147.107; -174.808
660.781;  -18.790; -793.106; -748.808
661.052;  -88.688; -222.106; -381.808
661.322;   -4.186;   21.894;   -9.809
661.592;   52.915;  257.894;  148.191
661.862; -113.983; -369.106; -382.810
662.133; -161.981; -551.105; -502.810
662.403; -202.679; -770.105; -676.810
662.673;  -54.278; -256.105; -213.811
662.943; -169.576; -612.105; -551.811
663.213;    4.326;  -85.105;  -81.811
663.483; -139.772; -593.104; -568.812
663.753;  -99.271; -194.104; -152.812
664.023;   28.331;   68.896;  -32.813
664.293;  -75.667; -319.104; -126.813
664.563; -162.766; -694.104; -648.813
664.833; -212.764; -743.103; -608.814
665.103; -266.662; -730.103; -793.814
665.373; -250.660; -766.103; -806.814
665.643; -220.959; -863.103; -918.815
665.913;  -74.857; -534.103; -714.815
666.182;  -59.555; -685.102; -719.816
666.452;  123.047;  -22.102;  -89.816
666.722; -133.052; -724.102; -784.816
666.992; -262.850; -948.102; -921.817
667.261; -204.848; -824.102; -808.817
667.531;  125.454;  134.899;   45.183
667.801;  324.055; -440.101; -412.818
668.070;  312.357;  714.899;  697.182
668.340; -188.841; -883.101; -840.819
668.609;  158.661;  588.900;  301.181
668.879; -161.638; -490.100; -558.819
669.149; -164.036; -539.100; -516.820
669.418; -181.734; -698.100; -726.820
669.688;  -97.133; -482.100; -666.820
669.957;  -46.831; -423.099; -546.821
670.226;  -96.929; -268.099; -331.821
670.496; -125.727; -431.099; -635.822
670.765; -110.326; -418.099; -501.822
671.034; -227.824; -872.099; -828.822
671.304;  -29.522;   55.902; -111.823
671.573; -280.420;-1085.098; -957.823
671.842;  -42.819; -380.098; -294.823
672.112;  -92.117; -692.098; -586.824
672.381;  -46.615; -239.098; -214.824
672.650; -280.413;-1005.097;-1021.825
672.919; -188.712; -631.097; -507.825
673.188; -171.910; -681.097; -878.825
673.457; -307.308;-1101.097;-1143.826
673.726; -127.706; -579.096; -646.826
673.995; -121.805; -533.096; -479.826
674.265;  -46.503; -263.096; -333.827
674.534;  -43.001; -183.096; -235.827
674.802;  -89.999; -618.096; -703.828
675.071;  565.602; -886.095; -801.828
675.340; 2352.604; -464.095; -339.828
675.609;  875.906;  103.905;   82.171
675.878;  -98.993; -949.095; -893.829
676.147;   37.809;  -26.095;   -8.829
676.416;   28.811; -210.094; -294.830
676.685;  716.513; 1000.906; -622.830
676.953;  -33.486; -603.094; -452.831
677.222;  -69.384; -193.094; -273.831
677.491;  -29.282;  -24.094; -127.831
677.759;    2.020;   11.907;  172.168
678.028;  -34.179; -279.093; -222.832
678.297;   31.823;   71.907;  197.168
678.565; -229.975; -898.093; -944.833
678.834;  -95.773; -311.093; -268.833
679.102;  -96.072; -411.092; -391.834
679.371; -252.670; -898.092; -727.834
679.639; -234.568; -797.092; -786.834
679.908; -237.866; -794.092; -724.835
680.176; -268.565; -895.091; -941.835
680.445; -142.463; -346.091; -352.835
680.713;   27.239;  -58.091;  -23.836
680.982; -198.060; -523.091; -525.836
681.250; -162.358; -578.091; -507.837
681.518; -157.856; -534.090; -751.837
681.787;  -64.754; -204.090; -167.837
682.055; -128.153; -490.090; -422.838
682.323; -266.451; -993.090; -992.838
682.591;  -13.849; -216.090; -538.838
682.859;   66.953;    9.911;  -35.839
683.128;   48.254;  232.911;  497.161
683.396; -323.744;-1102.089;-1122.840
683.664;  -65.042; -241.089;   21.160
683.932;   34.660;  144.911;  -76.840
684.200; -161.639; -576.088; -320.841
684.468;  -25.937;  -73.088; -124.841
684.736;  -37.535; -214.088; -175.841
685.004; -238.433;-1024.088; -982.842
685.272; -165.032; -880.088; -774.842
685.540; -122.330; -499.087; -557.843
685.808; -187.328; -651.087; -682.843
686.076; -198.426; -894.087; -969.843
686.343; -186.225; -601.087; -815.844
686.611;   12.777; -195.087; -224.844
686.879;  269.179; -530.086; -553.844
687.147; 2145.580; -483.086; -480.845
687.414;  618.582;  -12.086; -169.845
687.682; -112.216; -658.086; -757.846
687.950;  250.886;  259.915;  263.154
688.217; -119.113; -792.085; -760.846
688.485;  -86.611; -632.085; -636.847
688.753;  312.591;  -11.085; -102.847
689.020;  -74.407; -820.085; -851.847
689.288; -182.606; -853.084; -787.848
689.555;  -29.504; -195.084; -148.848
689.823;  -52.102; -241.084; -345.849
690.090; -135.800; -546.084; -651.849
690.358; -256.199; -877.084; -897.849
690.625;   47.703;  120.917;   45.150
690.892; -120.295; -403.083; -369.850
691.160;   -4.593;   72.917;  -35.850
691.427;   48.708;  141.917;  130.149
691.694; -272.790; -855.083; -929.851
691.962; -255.088;-1177.082;-1060.852
692.229;   30.813;  127.918;   56.148
692.496;   97.615;  130.918;  -49.852
692.763;  -15.883; -164.082; -201.853
693.031; -173.281; -739.082; -716.853
693.298; -159.880; -509.081; -368.853
693.565;  195.922; -155.081; -163.854
693.832;  759.224;   -5.081;   -9.854
694.099;   -6.974; -643.081; -642.855
694.366; -202.473; -882.081; -896.855
694.633; -176.371; -920.080; -633.855
694.900; 1393.031; 4367.920; -114.856
695.167;  311.733; -214.080; -380.856
695.434;  -17.166; -646.080; -623.856
695.701;  225.036;  121.921;  -61.857
695.968;  256.338; -365.079; -361.857
696.234;  836.440; -415.079; -646.858
696.501; 8946.141; -776.079; -614.858
696.768; 4319.443; -554.079; -617.858
697.035;  181.545; -632.078; -667.859
697.302;  -61.053; -448.078; -552.859
697.568;  -47.152; -458.078; -497.859
697.835; -107.750; -683.078; -624.860
698.102;  -68.548; -498.078; -407.860
698.368;  179.153;  384.923;  396.139
698.635;  -73.845;  -47.077; -424.861
698.901;  -23.143; -240.077; -348.861
699.168;  -12.541; -534.077; -456.862
699.435;   78.560;  -72.077;  -13.862
699.701; -278.738; -868.076; -764.862
699.968;  -85.736;  144.924; -441.863
700.234; -198.434; -783.076; -822.863
700.500;  -87.233; -448.076; -539.864
700.767;   14.169;   -1.075;   26.136
701.033; -259.229;-1015.075; -963.864
701.299; -130.827; -450.075; -483.865
701.566;  235.574;  950.925;  763.135
701.832;   18.776;  -31.075;  -76.865
702.098; -247.622;-1054.074;-1034.866
702.365; -241.720;-1098.074;-1030.866
702.631; -180.919;-1038.074;-1063.867
702.897;  895.083; -765.074; -676.867
703.163; 1553.385;  348.926;  254.133
703.429;   60.786; -256.073; -273.868
703.695; -136.512; -796.073; -792.868
703.961;   -9.510; -214.073; -210.868
704.227; -144.308; -630.073; -725.869
704.493;  205.693;  613.927;  510.131
704.759;  -96.805; -565.072; -540.870
705.025;   12.097; -203.072; -194.870
705.291;  -87.401; -666.072; -562.870
705.557;  313.200;  719.928;   34.129
705.823;  -42.598; -742.072; -694.871
706.089;   91.204; -307.071; -326.871
706.355;  297.506; -315.071; -244.872
706.620; 5125.707; -776.071; -729.872
706.886; 6393.409; -309.071; -362.873
707.152;  437.211; -818.070; -973.873
707.418; -187.787;-1153.070;-1186.873
707.683;  -78.986; -550.070; -530.874
707.949;  -81.184; -547.070; -578.874
708.215;  -51.682; -129.070; -207.874
708.480;  -76.680; -520.069; -420.875
708.746;   65.121;   68.931;   28.125
709.011; -120.877; -578.069; -612.876
709.277; -191.075; -538.069; -543.876
709.542;  -80.574; -428.069; -387.876
709.808;    3.728;  -59.068;   89.123
710.073; -138.070; -577.068; -695.877
710.339;  -35.768; -242.068; -228.877
710.604;  -61.667; -780.068; -845.878
710.869;  150.635; -277.068; -366.878
711.135; -141.463; -715.067; -628.879
711.400; -148.761; -507.067; -608.879
711.665;  -93.060; -404.067; -479.879
711.931; -167.358; -661.067; -677.880
712.196; -220.656; -876.067; -954.880
712.461;   -6.054; -402.066; -490.880
712.726;  -53.353; -727.066; -771.881
712.991; -174.251; -647.066; -664.881
713.256;  -65.849; -350.066; -332.882
713.521; -116.147; -417.065; -381.882
713.787; -117.746; -454.065; -472.882
714.052;  -81.644; -214.065; -400.883
714.317; -206.442;-1045.065; -981.883
714.581;  833.159; -374.065; -268.883
714.846;  861.061; -822.064; -888.884
715.111;  139.663;  261.936;  257.116
715.376;  -36.435;  -86.064; -223.885
715.641;  -86.334; -365.064; -367.885
715.906;  115.068;   15.936; -551.885
716.171;  180.870;  221.937;  209.114
716.436;   40.072;  -78.063; -104.886
716.700; -220.827; -818.063; -692.886
716.965; -216.225; -794.063; -807.887
717.230; -122.223; -339.063; -392.887
717.494;    5.179;  -40.062; -134.888
717.759; -215.820; -784.062; -640.888
718.024;   57.982;  269.938;  250.112
718.288;  168.684;  685.938;  395.111
718.553; -217.314; -803.062; -977.889
718.817; -239.313; -883.061; -899.889
719.082;   -6.111; -115.061; -125.890
719.346; -234.509;-1000.061; -947.890
719.611;  -69.808; -300.061; -255.891
719.875; -174.906; -568.060; -537.891
720.140; -102.804; -453.060; -603.891
720.404;  -15.802; -136.060; -249.892
720.668;  556.799; -475.060; -411.892
720.933;  273.201;  146.940;  137.108
721.197; -163.097; -667.059; -600.893
721.461; -235.695; -851.059; -826.893
721.725;   47.906;  -21.059; -250.894
721.990;  -80.192; -284.059; -204.894
722.254;  -29.290;  -26.059; -108.894
722.518; -138.988; -286.058; -442.895
722.782; -150.387; -743.058; -594.895
723.046;  198.815;  614.942;  570.105
723.310;   96.917;  374.942;  210.104
723.574; -177.881; -654.058; -614.896
723.838; -166.880; -576.057; -642.897
724.102;  -44.778; -226.057; -239.897
724.366; -217.976;-1032.057; -978.897
724.630; -170.974; -749.057; -571.898
724.894; -149.273; -722.057; -514.898
725.158;    9.329;   38.944; -295.898
725.422;  -93.169; -394.056; -327.899
725.685; -106.268; -441.056; -349.899
725.949; -169.966; -566.056; -519.900
726.213; -217.864; -732.056; -811.900
726.477;  -49.962;-1020.055; -933.900
726.740;   82.139; -274.055; -104.901
727.004;  190.641; -384.055; -510.901
727.268; 2447.843; -442.055; -400.901
727.531;  566.445; -961.055; -775.902
727.795; -130.354; -713.054; -673.902
728.059; -117.452; -552.054; -557.903
728.322; -193.350; -841.054; -669.903
728.586;  -52.248; -692.054; -701.903
728.849; -188.147; -695.053; -756.904
729.112; -193.745; -812.053; -912.904
729.376; -256.943; -959.053; -905.904
729.639; -122.741; -536.053; -536.905
729.903; -190.740; -733.053; -699.905
730.166; -103.938; -437.052; -399.906
730.429;  -90.336; -317.052; -468.906
730.693; -105.935; -355.052; -894.906
730.956;  328.667;  810.948;  651.093
731.219;  518.569; -310.052; -103.907
731.482;  -59.229;-1003.051; -894.907
731.745;  -83.728; -794.051; -935.908
732.009;    0.274;  -30.051;   50.092
732.272; -179.924; -904.051; -771.909
732.535;  -82.322; -300.051; -310.909
732.798; -311.121;-1083.050;-1166.909
733.061; -115.419; -430.050; -456.910
733.324;   32.883;   31.950; -180.910
733.587;  136.585;  290.950;  365.090
733.850; -174.914; -973.049;-1050.911
734.113;   29.788;   33.951;   32.089
734.376;  -31.910; -328.049; -447.912
734.639;  339.292; 1188.951; 1011.088
734.901;   16.993; -180.049; -402.912
735.164;  253.695; -883.048; -837.913
735.427;  868.997; -166.048; -355.913
735.690;   49.599; -205.048; -234.913
735.952; -187.000; -923.048; -925.914
736.215; -193.398;-1113.048;-1009.914
736.478;  -76.596; -771.047; -774.915
736.740;  180.205;   33.953;  129.085
737.003;  473.907; -658.047; -672.915
737.266; 2898.709;  -94.047;   46.084
737.528;  236.811; -682.047; -660.916
737.791;  202.912; -316.046; -327.916
738.053;  826.114;  465.954;  649.083
738.316; 9324.216; -162.046; -136.917
738.578; 5866.218; -770.046; -736.918
738.841;  302.319; -382.046; -446.918
739.103;   53.621; -875.045; -777.918
739.365;  374.723;   79.955;  -69.919
739.628;  -69.075; -884.045; -805.919
739.890; -121.474; -758.045; -710.919
740.152; -105.472; -692.044; -754.920
740.414;  -70.770; -408.044; -359.920
740.677; -132.368; -785.044; -634.921
740.939; -143.167; -587.044; -487.921
741.201;   99.335; -432.044; -572.921
741.463;  -65.363; -689.043; -745.922
741.725;    5.538;  -21.043; -199.922
741.987;   86.240;  220.957;  116.078
742.249; -105.558; -751.043; -859.923
742.511;   49.044; -703.043; -794.923
742.773;  -61.655; -546.042; -546.924
743.035;  189.547;  796.958;  533.076
743.297; -162.151; -963.042;-1013.924
743.559;  466.651; -278.042; -262.925
743.821;  -97.748; -735.042; -744.925
744.083;  -47.346;  -44.041; -149.925
744.345; -197.844; -869.041; -892.926
744.607;   42.258;   75.959;  122.074
744.868; -124.141; -490.041; -554.927
745.130; -277.239; -994.041;-1008.927
745.392;   58.463;   -1.040;  -44.927
745.653;  -51.635; -411.040; -378.928
745.915;  272.466;  896.960;  631.072
746.177;   54.368;   35.960;  -43.928
746.438; -103.630; -428.040; -543.929
746.700; -176.428; -947.039; -988.929
746.961; -114.227; -659.039; -740.930
747.223;   68.675; -190.039;  -74.930
747.484;   -7.023; -391.039; -471.930
747.746;   87.178;  -23.038; -106.931
748.007;   16.280; -647.038; -689.931
748.269;  186.982; -468.038; -440.931
748.530;  220.584; -852.038; -638.932
748.791;  120.785; -354.038; -420.932
749.053;  404.887;  286.963;  163.067
749.314;  324.189; -236.037; -169.933
749.575;  235.391; -945.037; -905.933
749.836;  657.092; -217.037;   86.066
750.098; 2095.594;  -60.037;  -21.934
750.359;26958.496;  414.964;  555.066
750.620; 6446.098; -121.036; -220.935
750.881;  760.899; -585.036; -513.935
751.142; 1005.701; -950.036; -938.936
751.403;14274.403; -789.036; -705.936
751.664; 5607.205;-1034.035; -999.936
751.925;  375.006; -175.035; -262.937
752.186;  221.508; -298.035; -278.937
752.447;   46.810; -590.035; -445.937
752.708;  -37.089; -532.035; -648.938
752.969;  -94.387; -566.034; -576.938
753.230;  -85.685; -777.034; -672.939
753.491; -101.083; -650.034; -631.939
753.751;   64.718;  109.966;   19.061
754.012;  148.720;  258.967;  181.060
754.273;   19.322; -174.033;  -71.940
754.534;  -37.976; -487.033; -580.940
754.794; -210.775; -926.033; -911.941
755.055;  293.527; 1051.967;  881.059
755.316; -114.071; -700.032; -566.942
755.576;  -88.069; -606.032; -576.942
755.837;  -99.668; -527.032; -695.942
756.097; -111.966; -530.032; -564.943
756.358; -140.464; -725.032; -770.943
756.618; -109.762; -705.031; -641.943
756.879;  -19.861; -254.031; -349.944
757.139; -245.159;-1098.031;-1116.944
757.400; -113.357; -538.031; -553.945
757.660;  -22.155; -365.031; -401.945
757.920;  -33.754; -266.030; -228.945
758.181;  -60.452; -468.030; -351.946
758.441; -157.950; -870.030; -809.946
758.701;   -9.149; -308.030; -215.946
758.961;  -17.547; -220.030; -278.947
759.222;  -88.845; -574.029; -502.947
759.482; -121.943; -683.029; -723.948
759.742; -216.242; -706.029; -547.948
760.002;   51.960;  -83.029; -143.948
760.262;   28.462;   50.972;  182.051
760.522; -100.136; -498.028; -574.949
760.782; -111.435; -738.028; -612.949
761.042;  -53.733; -618.028; -573.950
761.302;  107.269;   55.972;  -18.950
761.562;   86.371; -164.027; -154.951
761.822;   21.872; -710.027; -551.951
762.082; -146.026;-1104.027;-1093.951
762.342;   52.276; -328.027; -403.952
762.601;   59.078; -567.027; -506.952
762.861;  331.279; -281.026; -207.952
763.121;  524.781; -406.026; -411.953
763.381; 9954.883; -499.026; -485.953
763.640; 9465.184; -139.026; -307.954
763.900;  432.886; -242.026; -203.954
764.160;   98.188; -458.025; -491.954
764.419;  -81.010; -726.025; -782.955
764.679; -103.509; -795.025; -726.955
764.939;    4.893; -124.025; -210.955
765.198; -125.805; -608.025; -563.956
765.458; -141.303; -710.024; -612.956
765.717; -119.402; -454.024; -590.957
765.976;  -83.200; -428.024; -411.957
766.236; -105.498; -475.024; -610.957
766.495;   50.204;  260.977;   73.042
766.755; -209.595;-1090.023; -987.958
767.014; -120.393; -594.023; -665.958
767.273;  -89.391; -373.023; -397.959
767.533;  -52.989; -228.023; -307.959
767.792;   14.712; -151.022; -188.960
768.051;  -52.286; -228.022; -276.960
768.310; -117.584; -546.022; -650.960
768.569;   20.718; -161.022;    4.039
768.828;  -63.281; -285.022; -363.961
769.088; -240.979;-1050.021; -942.961
769.347; -149.077; -755.021; -599.962
769.606; -195.676; -876.021; -857.962
769.865; -207.474;-1016.021;-1033.963
770.124;  -23.972; -411.021; -336.963
770.383; -147.170; -778.020; -910.963
770.641;  -62.069; -398.020; -400.964
770.900; -161.767; -953.020; -846.964
771.159; -169.565; -851.020; -951.964
771.418; -108.663; -917.020; -779.965
771.677;  130.038; -224.019; -293.965
771.936;   49.840; -794.019; -865.966
772.194; 2468.642; -465.019; -437.966
772.453;10170.044; -213.019; -391.966
772.712;  817.945;  416.982;  329.033
772.970;  176.847;   32.982;   63.033
773.229;   97.049;  -22.018;  102.033
773.488; -158.449; -814.018; -770.968
773.746;  120.152;  296.982;  335.032
774.005;   48.454;  190.983;  -22.969
774.263;   25.856;  243.983;  177.031
774.522; -106.943; -422.017; -548.969
774.780; -117.141; -484.017; -417.970
775.039; -148.939; -551.017; -531.970
775.297;  -13.137; -135.016; -351.970
775.555; -162.036; -489.016; -612.971
775.814; -201.834; -618.016; -570.971
776.072; -165.432; -749.016; -740.971
776.330; -193.930; -630.016; -520.972
776.589; -185.529; -703.015; -721.972
776.847; -217.527; -645.015; -624.973
777.105; -275.125;-1016.015;-1032.973
777.363; -104.923; -459.015; -454.973
777.621; -235.722; -660.015; -717.974
777.879;   -9.220;  -42.014;   32.026
778.138; -130.118; -554.014; -717.974
778.396; -152.416; -585.014; -526.975
778.654; -304.315;-1015.014; -970.975
778.912;  -82.913; -269.014; -371.976
779.170; -215.711; -880.013; -803.976
779.427; -263.009; -922.013; -897.976
779.685; -255.108; -880.013; -832.977
779.943; -168.806; -654.013; -593.977
780.201; -265.004; -964.012; -883.978
780.459; -210.103; -651.012; -610.978
780.717; -110.701; -440.012; -390.978
780.974; -162.499; -449.012; -490.979
781.232;  -82.197; -358.012; -338.979
781.490; -154.596; -551.011; -472.979
781.747; -146.394; -555.011; -476.980
782.005;   79.208;  462.989;  254.020
782.263; -273.390; -542.011;-1004.981
782.520; -111.789; -326.011; -501.981
782.778; -262.887;-1013.010;-1051.981
783.035; -283.485; -962.010; -938.982
783.293;  -53.483; -248.010; -206.982
783.550;  -77.982; -134.010; -198.982
783.808; -190.080; -764.010; -776.983
784.065; -286.378; -745.009; -874.983
784.322;  -13.576;   25.991;  -86.984
784.580; -227.475; -915.009; -771.984
784.837; -128.173; -392.009; -466.984
785.094; -213.171; -783.009; -762.985
785.352; -105.470; -304.008; -404.985
785.609; -242.168; -934.008; -839.985
785.866; -106.466; -345.008; -401.986
786.123; -184.664; -639.008; -583.986
786.380; -169.163; -665.008; -604.987
786.637;  -47.961; -225.007; -380.987
786.895;  -81.159; -456.007; -543.987
787.152;  -34.157; -135.007; -267.988
787.409;   -5.556; -123.007; -225.988
787.666; -142.054; -299.006; -378.988
787.923; -119.452; -616.006; -695.989
788.179; -178.250; -551.006; -584.989
788.436; -131.349; -585.006; -585.990
788.693;   -9.347;  -92.006;  -87.990
788.950;  130.655; -125.005; -112.990
789.207;   68.257; -381.005; -372.991
789.464;  -71.642; -161.005; -301.991
789.720;   19.460;  150.995;  110.009
789.977; -301.438;-1003.005; -671.992
790.234;  -23.836;   44.996;  -66.992
790.490; -265.835; -884.004;-1031.993
790.747;   -7.033;  -85.004;   22.007
791.004;  -77.431; -426.004; -348.993
791.260; -152.030; -430.004; -560.994
791.517; -220.728; -843.003; -788.994
791.773;  -78.226; -379.003; -342.994
792.030; -184.824; -596.003; -660.995
792.286; -171.723; -686.003; -636.995
792.543;   51.679;  -74.002; -159.995
792.799;  -98.619; -584.002; -382.996
793.055; -293.217;-1179.002;-1210.996
793.312; -200.916; -827.002; -816.997
793.568; -103.314; -746.002; -599.997
793.824;   -8.312; -226.001; -284.997
794.081;  -18.910; -447.001; -508.998
794.337;    5.291; -664.001; -561.998
794.593; 1737.293; -319.001; -271.999
794.849; 6734.995; -746.001; -772.999
795.105;  307.697; -270.000; -261.999
795.361;   -4.202; -490.000; -457.000
795.617; -143.500; -875.000; -945.000
795.873;  -90.400; -360.000; -407.000
796.129;  -54.300; -368.000; -306.000
796.385;  -18.200; -124.000; -156.000
796.641;  197.000;  412.000;  550.000
796.897; -167.200; -666.000; -635.000
797.153;  164.300;  453.000;  357.000
797.409; -219.200; -785.000; -868.000
797.665; -152.400; -625.000; -732.000
797.921; -156.600; -775.000; -762.000
798.176; -110.700; -744.000; -747.000
798.432; -153.000; -824.000; -596.000
798.688; -191.100;-1174.000;-1078.000
798.943;   50.400; -165.000; -147.000
799.199; -120.300;-1005.000; -959.000
799.455;  279.700;  369.000;  316.000
799.710;   27.800; -813.000; -380.000
799.966;  241.400; -162.000; -160.000
800.221;  395.600; -638.000; -721.000
800.477; 9302.900; -743.000; -710.000
800.732; 6851.200; -773.000; -800.000
800.988;  660.700;  205.000;  -19.000
801.243; 2601.900; -454.000; -344.000
801.498; 8989.900; -814.000; -739.000
801.754;  493.300; -289.000; -163.000
802.009;  111.700; -257.000; -335.000
802.264; -132.600; -967.000;-1033.000
802.520;   39.900;  222.000;   -3.000
802.775;  -87.700; -524.000; -359.000
803.030;  125.000;  395.000;  356.000
803.285; -201.400; -840.000; -903.000
803.540; -148.500; -686.000; -699.000
803.795; -106.700; -648.000; -583.000
804.051;  -75.000; -279.000; -346.000
804.306;  123.100;  168.000;  128.000
804.561;  171.100;  451.000;  362.000
804.816;  266.700;  714.000;  861.000
805.071;   -1.400; -185.000; -280.000
805.325;  123.600; -257.000; -427.000
805.580; -213.900; -841.000; -877.000
805.835;  -34.900; -204.000; -297.000
806.090; -142.300; -760.000; -676.000
806.345;  -38.600; -344.000; -264.000
806.600;  -93.500; -549.000; -632.000
806.854;  -66.200; -408.000; -538.000
807.109;  -49.300; -493.000; -577.000
807.364;  -36.000; -407.000; -328.000
807.618;  -19.000; -415.000; -381.000
807.873;  -27.900; -470.000; -494.000
808.128;   68.800; -257.000; -518.000
808.382;   85.600; -224.000; -332.000
808.637;   27.000; -440.000; -511.000
808.891;  239.900; -257.000; -180.000
809.146;    4.400; -902.000; -794.000
809.400;  165.700; -848.000; -923.000
809.654;  244.200; -779.000; -551.000
809.909;  417.600; -841.000; -927.000
810.163; 7199.200; -813.000; -651.000
810.418;15151.500; -940.000; -861.000
810.672; 1008.500; -685.000; -690.000
810.926;  815.300; -993.000; -973.000
811.180; 1825.200; -439.000; -372.000
811.434;41736.900;  240.000;  135.000
811.689;13829.700; -231.000; -365.000
811.943;  653.900; -936.000; -953.000
812.197;  337.000; -893.000; -671.000
812.451;  115.100; -379.000; -514.000
812.705;  -70.100; -809.000; -619.000
812.959;    2.900; -263.000; -388.000
813.213;  -11.800; -283.000; -209.000
813.467;  147.400;  470.000;  253.000
813.721; -150.200; -764.000; -792.000
813.975; -190.400; -826.000; -877.000
814.229;  105.100;  430.000;  353.000
814.482; -111.700; -517.000; -566.000
814.736; -209.600; -766.000; -744.000
814.990; -228.900; -779.000; -872.000
815.244;  -59.300; -228.000; -285.000
815.497; -158.800; -636.000; -601.000
815.751;    9.100; -141.000;   82.000
816.005; -145.900; -470.000; -586.000
816.258;  -82.900; -510.000; -363.000
816.512; -137.300; -693.000; -610.000
816.766;   32.700;  121.000;  157.000
817.019;  108.600;  148.000;  149.000
817.273; -227.400;-1000.000; -802.000
817.526;  -21.300; -206.000; -173.000
817.779; -184.700;-1049.000; -960.000
818.033; -187.600; -693.000; -807.000
818.286; -210.400; -725.000; -792.000
818.540; -132.700; -403.000; -403.000
818.793; -110.700; -402.000; -489.000
819.046; -155.500; -582.000; -520.000
819.299;  -31.300; -157.000; -166.000
819.553; -176.600; -552.000; -592.000
819.806; -274.300;-1016.000; -838.000
820.059;  -56.700; -334.000; -354.000
820.312;   36.800;  152.000;  185.000
820.565;   27.600;  110.000;  -27.000
820.818;  -10.400;  -59.000; -173.000
821.071; -270.000;-1041.000; -957.000
821.324; -172.400; -536.000; -540.000
821.577; -148.600; -457.000; -483.000
821.830;  -77.900; -270.000; -172.000
822.083; -207.000; -733.000; -288.000
822.336;  -39.000; -261.000; -167.000
822.589; -203.700; -805.000; -688.000
822.842; -240.100; -875.000; -770.000
823.094; -305.800;-1076.000;-1114.000
823.347; -248.900; -925.000; -729.000
823.600;   59.000;  402.000;  187.000
823.853;  -62.100; -311.000; -267.000
824.105; -104.000; -331.000; -575.000
824.358; -209.700; -617.000; -716.000
824.611;   42.700;  234.000;   40.000
824.863; -138.800; -612.000; -591.000
825.116;   70.900;  -33.000;   27.000
825.368;  -24.400; -366.000; -372.000
825.621;   77.400; -186.000; -240.000
825.873;  -47.800; -704.000; -737.000
826.126;  467.100; -669.000; -641.000
826.378; 9919.700; -389.000; -505.000
826.630; 1823.800; -890.000; -898.000
826.883;  -92.600; -754.000; -693.000
827.135;    6.000; -279.000; -270.000
827.387; -235.300; -893.000; -839.000
827.639;    2.400;  -86.000;   32.000
827.892; -238.400; -742.000; -582.000
828.144; -219.600; -848.000; -804.000
828.396;  -33.900;  104.000;  -80.000
828.648; -146.400; -440.000; -333.000
828.900; -248.200; -702.000; -795.000
829.152; -192.100; -684.000; -683.000
829.404; -113.100; -215.000; -267.000
829.656;   57.700;  321.000;  214.000
829.908;    2.700;  393.000;  229.000
830.160; -259.000;-1064.000;-1047.000
830.412; -164.000; -481.000; -430.000
830.664; -193.600; -557.000; -665.000
830.916;  -97.900; -268.000; -206.000
831.167; -308.600;-1073.000; -951.000
831.419; -180.300; -623.000; -566.000
831.671; -225.100; -764.000; -809.000
831.923; -135.300; -311.000; -447.000
832.174; -100.400; -273.000; -331.000
832.426; -154.900; -493.000; -582.000
832.678; -316.500;-1043.000;-1091.000
832.929; -295.700; -947.000; -935.000
833.181; -151.000; -575.000; -677.000
833.432;  -74.600;  -59.000; -186.000
833.684;   34.900;  112.000;  -27.000
833.935; -202.500; -610.000; -566.000
834.187; -164.600; -829.000; -823.000
834.438;  -25.000;  -58.000;  -25.000
834.689;  -81.200; -255.000; -123.000
834.941;  -72.900; -343.000; -244.000
835.192; -141.300; -590.000; -533.000
835.443; -151.600; -419.000; -506.000
835.695;   36.300;  138.000;  -16.000
835.946; -149.700; -608.000; -378.000
836.197; -179.500; -599.000; -622.000
836.448; -125.500; -528.000; -395.000
836.699;  -69.400; -253.000; -341.000
836.950;   28.700;   72.000;    7.000
837.201; -281.200;-1003.000; -987.000
837.452;  -45.700; -356.000; -170.000
837.703; -212.100; -791.000; -737.000
837.954; -102.600; -205.000; -365.000
838.205; -195.400;-1029.000;-1008.000
838.456;   94.500; -196.000; -282.000
838.707;  -21.700; -423.000; -519.000
838.958; -100.100; -634.000; -647.000
839.209;  250.800;   18.000;   40.000
839.460;   26.500; -439.000; -201.000
839.710;  127.600; -135.000; -297.000
839.961;  493.900;  730.000;  612.000
840.212;  285.700; -382.000; -497.000
840.462; 1099.700; -328.000; -277.000
840.713;17369.700; -571.000; -536.000
840.964; 5598.000;  -62.000; -143.000
841.214;  454.000; -384.000; -624.000
841.465;  547.600; -214.000; -141.000
841.715;  505.100; -417.000; -380.000
841.966;  618.400; -746.000; -685.000
842.216;10776.500; -330.000; -431.000
842.466;33431.400; -169.000; -313.000
842.717; 1469.100; -964.000; -952.000
842.967;  273.700; -635.000; -641.000
843.217;  318.800;   20.000;   28.000
843.468;   88.000; -104.000; -132.000
843.718;  -91.300; -718.000; -726.000
843.968; -189.800; -837.000; -765.000
844.218;  -41.700; -315.000; -262.000
844.469; -144.100; -577.000; -561.000
844.719; -183.300; -537.000; -682.000
844.969; -165.600; -550.000; -580.000
845.219; -258.100; -814.000; -862.000
845.469; -117.700; -392.000; -342.000
845.719; -237.200; -792.000; -884.000
845.969;    1.100;  119.000;  174.000
846.219; -188.800; -738.000; -720.000
846.469;  106.100;  464.000;  432.000
846.718;  -71.700; -115.000;   31.000
846.968; -253.300; -827.000; -827.000
847.218;  -23.500; -224.000; -371.000
847.468; -180.000; -586.000; -555.000
847.718; -245.700; -827.000; -798.000
847.967; -218.900; -826.000; -915.000
848.217; -132.900; -449.000; -569.000
848.467;  -92.400; -405.000; -376.000
848.716; -199.200; -708.000; -725.000
848.966;  -74.100; -372.000; -358.000
849.215;  -77.400; -428.000; -419.000
849.465; -189.800; -785.000; -615.000
849.714; -294.500;-1132.000;-1150.000
849.964; -142.200; -551.000; -613.000
850.213;  -44.500; -393.000; -355.000
850.463;  129.300;  137.000;  340.000
850.712;  -72.800; -542.000; -567.000
850.961;  -89.200; -739.000; -678.000
851.211;   24.600; -513.000; -504.000
851.460;   36.800; -635.000; -650.000
851.709;  512.900;  -25.000;   18.000
851.958; 9402.300; -912.000; -750.000
852.208; 9431.600; -859.000; -879.000
852.457;  369.100; -181.000;  -13.000
852.706;  -42.600; -791.000; -823.000
852.955;  -56.900; -507.000; -528.000
853.204; -134.000; -521.000; -461.000
853.453; -141.400; -418.000; -458.000
853.702; -193.500; -660.000; -750.000
853.951; -179.100; -532.000; -520.000
854.200; -178.900; -613.000; -562.000
854.449; -205.600; -695.000; -661.000
854.698; -124.600; -340.000; -279.000
854.946;  -56.600; -181.000; -284.000
855.195; -225.000; -843.000; -868.000
855.444; -128.200; -395.000; -420.000
855.693; -171.100; -345.000; -432.000
855.941; -159.600; -387.000; -516.000
856.190;  -75.600; -256.000; -382.000
856.439; -225.100; -652.000; -703.000
856.687;  -19.300;  -99.000;  -72.000
856.936; -147.800; -621.000; -323.000
857.184; -288.100;-1067.000;-1020.000
857.433; -168.500; -423.000; -512.000
857.681; -287.400; -989.000; -953.000
857.930; -117.600; -282.000; -433.000
858.178; -269.100; -856.000; -929.000
858.427; -260.900; -802.000; -781.000
858.675; -173.700; -377.000; -544.000
858.923; -148.000; -527.000; -819.000
859.172; -285.200;-1094.000;-1070.000
859.420;  -89.300; -339.000; -239.000
859.668; -218.100; -624.000; -628.000
859.916;  -13.700;  109.000;  115.000
860.164; -183.500; -699.000; -603.000
860.413;   45.300; -878.000; -696.000
860.661;  -15.400; -709.000; -577.000
860.909; -108.800; -339.000; -325.000
861.157;  -92.100; -277.000; -444.000
861.405; -225.400; -534.000; -670.000
861.653;   62.200;  310.000;  310.000
861.901;   48.200; -543.000; -613.000
862.149; -168.100; -801.000; -824.000
862.396;  -89.000; -297.000; -187.000
862.644; -119.200; -368.000; -347.000
862.892;   -9.200;   98.000;  138.000
863.140; -164.800; -549.000; -530.000
863.388; -237.500; -815.000; -759.000
863.635; -183.200; -642.000; -601.000
863.883;   43.900;  231.000;  190.000
864.131; -109.700; -288.000; -357.000
864.378; -235.700; -675.000; -540.000
864.626; -132.900; -347.000; -415.000
864.873; -192.400; -556.000; -505.000
865.121; -237.700; -714.000; -799.000
865.368;  -54.100; -173.000;   75.000
865.616;  -45.000;  -33.000;  -40.000
865.863; -122.200; -462.000; -506.000
866.111; -201.300; -795.000; -824.000
866.358;   17.300; -426.000; -420.000
866.605; 2405.800;  -64.000; -804.000
866.853; 1849.600; -621.000; -537.000
867.100; -123.800; -728.000; -775.000
867.347; -161.900; -672.000; -611.000
867.594; -179.100; -740.000; -714.000
867.841;   87.200;   97.000;   17.000
868.089; -232.000; -746.000; -698.000
868.336; -156.700; -477.000; -420.000
868.583; -186.600; -637.000; -741.000
868.830;  -27.500; -131.000; -170.000
869.077; -243.200; -859.000; -787.000
869.324; -203.100; -502.000; -458.000
869.571; -157.400; -398.000; -430.000
869.818; -184.100; -485.000; -439.000
870.065; -153.200; -439.000; -513.000
870.311; -146.500; -456.000; -542.000
870.558; -125.800; -332.000; -311.000
870.805; -102.200; -320.000; -384.000
871.052; -132.800; -494.000; -369.000
871.298;  -71.700; -204.000; -131.000
871.545;  -51.000; -151.000; -185.000
871.792; -113.900; -173.000; -222.000
872.038;  -22.200;   43.000; -126.000
872.285; -189.300; -496.000; -387.000
872.532; -110.700; -357.000; -387.000
872.778;   86.900;  556.000;  403.000
873.025; -142.900; -384.000; -359.000
873.271;  124.800;  501.000;  578.000
873.517;   -9.500; -133.000; -209.000
873.764;  -46.400; -193.000;  -80.000
874.010;  -80.400; -143.000; -230.000
874.257;    0.300;  123.000;   90.000
874.503; -171.900; -579.000; -479.000
874.749;  -77.700;   31.000;  275.000
874.995;  -40.300;  -80.000;  -20.000
875.242; -203.100; -540.000; -478.000
875.488; -135.100; -414.000; -439.000
875.734;  -71.700; -106.000; -234.000
875.980;   -0.100; -872.000;-1032.000
876.226;  174.000; -157.000; -255.000
876.472;   56.700;  343.000;  237.000
876.718;  -21.700;  184.000;  158.000
876.964;  -18.800;   56.000;   55.000
877.210; -252.300; -547.000; -677.000
877.456; -190.900; -630.000; -557.000
877.702; -287.500; -821.000; -832.000
877.948; -140.800; -377.000; -497.000
878.193;   80.100;  361.000;  255.000
878.439; -151.200; -487.000; -472.000
878.685; -118.100; -272.000; -343.000
878.931; -189.200; -618.000; -676.000
879.176; -126.100; -201.000; -201.000
879.422; -287.400; -933.000; -820.000
879.668;   42.600;   10.000;   79.000
879.913;  109.300;   53.000;  137.000
880.159;  -73.700; -112.000;  -17.000
880.404;  -29.200; -152.000; -162.000
880.650;  -29.800;   91.000;  141.000
880.895; -248.400; -670.000; -710.000
881.141; -183.600; -454.000; -428.000
881.386; -232.200; -503.000; -658.000
881.631; -153.300; -311.000; -166.000
881.877;    1.400;  112.000;  -13.000
882.122; -207.400; -684.000; -600.000
882.367;  -88.800; -136.000; -186.000
882.612;  -60.000;  -80.000; -176.000
882.858; -268.400; -877.000; -823.000
883.103; -127.900; -297.000; -267.000
883.348; -220.500; -759.000; -852.000
883.593; -251.600; -677.000; -602.000
883.838;  -74.300; -311.000;  -24.000
884.083;   31.300;  353.000;  288.000
884.328; -105.300; -564.000; -545.000
884.573;  -57.100; -196.000; -143.000
884.818;   57.100; -694.000; -531.000
885.063;   54.400; -348.000; -315.000
885.308; -139.400; -475.000; -398.000
885.553;   19.100;  245.000;  325.000
885.797; -185.200; -545.000; -615.000
886.042;  -55.500;    8.000;   58.000
886.287;  -97.300; -253.000; -211.000
886.532;  -20.800;   26.000;  204.000
886.776; -132.000; -407.000; -525.000
887.021; -242.100; -621.000; -574.000
887.265; -242.000; -685.000; -689.000
887.510; -221.400; -557.000; -496.000
887.755;  -89.100; -194.000; -164.000
887.999; -213.400; -552.000; -575.000
888.244;  -32.200;  -58.000;  161.000
888.488;   61.700;  371.000;  393.000
888.732; -174.700; -368.000; -520.000
888.977; -194.600; -622.000; -567.000
889.221; -270.600; -683.000; -659.000
889.465; -207.800; -422.000; -566.000
889.710;  -64.300;  -56.000; -299.000
889.954;   70.000;  579.000;  467.000
890.198; -198.800; -584.000; -707.000
890.442; -228.900; -716.000; -712.000
890.687; -230.100; -800.000; -753.000
890.931; -117.200; -273.000; -210.000
891.175; -192.400; -502.000; -500.000
891.419;  -87.700; -105.000; -110.000
891.663;  -85.400; -239.000; -112.000
891.907; -265.200; -801.000; -545.000
892.151; -272.300; -920.000; -815.000
892.395; -163.600; -274.000; -387.000
892.638;   43.600;  408.000;  291.000
892.882; -300.800; -780.000; -867.000
893.126;  131.400;  758.000;  558.000
893.370; -113.000; -167.000; -168.000
893.614; -200.200; -714.000; -715.000
893.857; -129.800; -183.000; -197.000
894.101; -170.700; -527.000; -631.000
894.345;  -38.000;  300.000;  150.000
894.588;  112.100;  569.000;  380.000
894.832; -113.300; -178.000;  -84.000
895.075;  -74.300;   15.000;  -92.000
895.319; -173.000; -552.000; -420.000
895.563; -145.000; -413.000; -353.000
895.806; -237.600; -628.000; -741.000
896.049; -141.100; -576.000; -368.000
896.293;  129.400;  527.000;  405.000
896.536; -120.900; -465.000; -468.000
896.779;  -50.200; -149.000;   -1.000
897.023; -218.200; -751.000; -714.000
897.266;    5.200;  325.000;  269.000
897.509; -262.600; -900.000; -901.000
897.752;   -9.200;  149.000;  171.000
897.996; -310.400; -972.000; -864.000
898.239;  -30.900;  168.000;  102.000
898.482; -151.000; -431.000; -453.000
898.725;  -30.200;  101.000;   53.000
898.968; -258.800; -609.000; -744.000
899.211; -181.200; -513.000; -361.000
899.454; -205.500; -633.000; -539.000
899.697;  -65.600;   90.000;  -43.000
899.940; -252.300; -761.000; -757.000
900.182; -122.800; -335.000; -405.000
900.425;  -97.500; -150.000; -298.000
900.668;   45.900;  491.000;  350.000
900.911; -152.300; -292.000; -345.000
901.154;  -24.900;  141.000;   -3.000
901.396; -201.900; -407.000; -412.000
901.639; -212.000; -430.000; -496.000
901.882; -296.700; -790.000; -809.000
902.124;  -91.100;  -29.000; -143.000
902.367; -173.800; -315.000; -361.000
902.609; -212.500; -476.000; -453.000
902.852;  -76.400; -108.000; -260.000
903.094; -214.200; -458.000; -337.000
903.337;  -12.000;  -26.000;   53.000
903.579; -127.700; -228.000; -441.000
903.821; -219.800; -597.000; -744.000
904.064;   -6.200;   85.000;  127.000
904.306;  -85.900; -126.000; -166.000
904.548; -118.800; -152.000; -366.000
904.790; -135.100; -195.000; -340.000
905.033; -224.800; -625.000; -577.000
905.275; -194.700; -513.000; -524.000
905.517;   66.300;  468.000;  256.000
905.759; -183.900; -667.000; -761.000
906.001; -155.400; -322.000; -369.000
906.243;  -88.500; -162.000; -224.000
906.485;   53.200; -265.000; -207.000
906.727;  -27.600; -499.000; -542.000
906.969;  -62.700;  -30.000; -135.000
907.211;   13.400; -316.000; -382.000
907.453;  156.400; -188.000; -237.000
907.695;  -35.200; -158.000; -385.000
907.936;  152.000;  818.000;  706.000
908.178;  -35.100;   92.000; -135.000
908.420;  -93.200; -111.000; -162.000
908.662; -207.300; -633.000; -682.000
908.903; -144.300; -208.000; -123.000
909.145;  -50.400; -240.000; -305.000
909.386;   72.800;  315.000;  280.000
909.628;  131.600;  363.000;  397.000
909.870;   54.400;   29.000;  264.000
910.111; -195.700; -809.000; -949.000
910.353;   21.500; -123.000; -161.000
910.594;  -23.900; -574.000; -606.000
910.835;   93.200; -265.000; -326.000
911.077;  172.300; -503.000; -604.000
911.318;  335.300; -505.000; -471.000
911.559;  540.800; -577.000; -880.000
911.801; 1844.700; -284.000; -280.000
912.042;16252.400;  -50.000; -159.000
912.283;36101.200;  404.000;  371.000
912.524; 4607.400; -396.000; -457.000
912.765;  677.600; -193.000;   79.000
913.006;  388.100; -307.000; -338.000
913.247;   56.600; -270.000; -290.000
913.488;  -11.900;  -43.000;   30.000
913.729; -122.800; -373.000; -373.000
913.970;  -69.500;  -96.000; -292.000
914.211; -113.600; -160.000; -198.000
914.452;  -66.800; -118.000;  -11.000
914.693;   71.500;  510.000;  592.000
914.934;   82.700;  510.000;  440.000
915.175;  -61.800;   53.000;  -95.000
915.415;  -92.100; -137.000;   27.000
915.656;  -78.300;  -28.000;  192.000
915.897; -102.100; -252.000;  -82.000
916.137;  -75.700;   74.000;   -9.000
916.378; -175.400; -573.000; -517.000
916.619; -125.600; -159.000;  -63.000
916.859;   43.800;  303.000;  330.000
917.100;  343.000; 1655.000; 1070.000
917.340;  174.300;  930.000;  728.000
917.581;  166.000;  965.000;  789.000
917.821;  -63.300; -171.000;  143.000
918.061;  -53.000; -199.000;  -72.000
918.302; -100.700; -152.000; -211.000
918.542;  -65.400;  -22.000;    3.000
918.782;   72.500;  369.000;  377.000
919.023;  150.900;  360.000;  427.000
919.263; 1958.700; 8131.000;  202.000
919.503;  785.900; -137.000;  -54.000
919.743;  485.400;  390.000;  266.000
919.983;  108.400; -134.000;  -26.000
920.223;   91.500;  135.000;   14.000
920.463;  183.000;  631.000;  554.000
920.703;  130.800;   84.000;   39.000
920.943;  111.400; -110.000;   90.000
921.183;  159.900; -414.000; -405.000
921.423;  492.000;  307.000;  546.000
921.663;  632.900; -174.000; -257.000
921.903; 1506.100;  237.000;  173.000
922.143; 9223.300;  372.000;  389.000
922.383;32844.800;  158.000;  115.000
922.622; 9010.700; -120.000;  -15.000
922.862; 1202.800;  796.000;  785.000
923.102;  399.900;  -51.000;   33.000
923.341;  154.300;   59.000;   74.000
923.581;  121.700;  450.000;  360.000
923.821;   48.100;  301.000;  398.000
924.060;   58.900;  351.000;  193.000
924.300;  -84.400;  -16.000; -128.000
924.539;   62.300;  584.000;  473.000
924.779;   86.000;  812.000;  597.000
925.018;  -27.300;  247.000;  353.000
925.257;   60.300;  595.000;  666.000
925.497;  -23.600;  447.000;  412.000
925.736;  -56.800;  -35.000;  102.000
925.975;   96.800;  687.000;  669.000
926.214;  134.900;  907.000;  850.000
926.454;  118.700;  706.000;  757.000
926.693;  -25.000;  419.000;  543.000
926.932;  162.300; 1021.000;  825.000
927.171;  203.800; 1107.000; 1044.000
927.410;  210.100; 1144.000;  967.000
927.649;  138.300;  924.000;  742.000
927.888;   60.000;  590.000;  564.000
928.127;   76.300;  680.000;  678.000
928.366;  113.900;  842.000;  826.000
928.605;  106.200;  831.000;  737.000
928.844;  406.700; 1451.000; 1393.000
929.083;  590.000;  770.000;  613.000
929.321;  434.600; 1335.000; 1359.000
929.560;  232.700; 1158.000; 1122.000
929.799;   50.800;  574.000;  475.000
930.038;  260.500; 1025.000; 1394.000
930.276;  -12.300;  334.000;  397.000
930.515;   94.600;  827.000;  681.000
930.753;   43.600;  614.000;  589.000
930.992;   56.100;  664.000;  717.000
931.230;  105.100;  847.000;  847.000
931.469;  439.100; 2162.000;  892.000
931.707;  248.100;  840.000;  751.000
931.946;  184.600; 1278.000; 1344.000
932.184;  231.600; 1437.000; 1175.000
932.423;  206.700; 1265.000;  963.000
932.661;  293.100; 1296.000; 1428.000
932.899;  144.800;  987.000;  821.000
933.137;  107.600;  754.000;  564.000
933.376;  278.400; 1664.000; 1335.000
933.614;  331.600; 1759.000; 1196.000
933.852;  177.600; 1357.000; 1171.000
934.090;  322.200; 1722.000; 1747.000
934.328;  225.300; 1252.000; 1457.000
934.566;  234.400; 1431.000; 1110.000
934.804;  240.000; 1263.000; 1309.000
935.042;  647.000; 1861.000; 1850.000
935.280; 2209.500; 2088.000; 2063.000
935.518; 1750.600; 2113.000; 2007.000
935.756;  582.200; 2481.000; 2316.000
935.994;  376.100; 1808.000; 1751.000
936.231;  658.400; 2890.000; 2950.000
936.469;  430.900; 2367.000; 2378.000
936.707;  370.700; 2220.000; 2167.000
936.945;  545.000; 2825.000; 2882.000
937.182;  502.900; 2679.000; 2741.000
937.420;  672.100; 3602.000; 3031.000
937.657;  756.600; 3365.000; 3478.000
937.895;  728.100; 3331.000; 3488.000
938.133;  704.000; 3540.000; 3528.000
938.370;  777.500; 3896.000; 4191.000
938.607;  887.700; 4488.000; 4205.000
938.845; 1215.200; 5587.000; 5549.000
939.082; 1114.400; 5387.000; 5177.000
939.320; 1149.400; 5799.000; 5728.000
939.557; 1441.900; 6549.000; 6491.000
939.794; 1543.600; 7285.000; 7097.000
940.031; 1864.600; 8421.000; 8368.000
940.269; 2176.900; 9552.000; 9107.000
940.506; 2308.500;10901.000;10507.000

