
Integration time [ms]: 100.000
Averaging Nr. [scans]: 40
Smoothing Nr. [pixels]: 0
Data measured with spectrometer [name]: 2101013U2
Wave   ;Sample   ;Dark     ;Reference
[nm]   ;[counts] ;[counts] ;[counts] 

394.013;   64.359; -450.257; -315.536
394.305;  225.982; -461.258; -419.536
394.596; 1082.280; -676.269; -527.514
394.887; 2627.771; -796.268; -654.518
395.178; 1021.227;  145.736;   11.476
395.470;   96.263; -210.263; -356.526
395.761;  234.886;  305.734;  394.479
396.052;  352.380; -545.284; -306.489
396.343;  352.350; -557.276; -454.503
396.634;  131.094; -200.279; -290.497
396.926;  139.694; -618.268; -565.517
397.217;  139.729;   11.725;  -17.504
397.508;   55.220; -366.273; -154.507
397.799;   76.794; -555.279; -571.497
398.090;    5.188; -973.280; -902.495
398.381;  138.181;   11.708;  -11.473
398.672;   10.982; -585.292; -742.473
398.963;   66.075; -348.279; -373.498
399.254;  125.616;   54.709; -209.475
399.545;  -19.767;-1017.266; -883.520
399.836;   74.839; -407.277; -343.501
400.127;   66.007; -205.295; -209.468
400.418;   76.490; -423.274; -392.506
400.709;   68.625; -359.281; -333.493
401.000;   64.245; -268.291; -309.476
401.290;  111.994;  225.698;  115.545
401.581;   80.513; -166.286; -228.485
401.872;   46.005; -542.298; -486.462
402.163;   66.025; -313.296; -252.467
402.454;   98.367; -123.291; -163.475
402.744;  111.216; -844.297; -813.465
403.035;  521.397; -226.293;  -86.471
403.326;  634.085; -366.292; -384.474
403.617;  419.749;  204.701;  165.539
403.907;  262.861; -593.283; -679.490
404.198; 2327.949; -545.307; -599.446
404.489; 6105.591; -618.283; -588.491
404.779; 2120.873; -618.302; -660.456
405.070;  236.351;  -67.304; -174.451
405.360;  348.199; -259.293; -238.472
405.651;  383.659;  125.699;   98.542
405.942;  193.659;  209.714;  127.516
406.232;  334.373; -432.285; -413.487
406.523;  556.942;  641.706;  758.530
406.813;  129.386; -579.286; -644.484
407.104;  393.555;  261.708;  144.527
407.394;  223.500; -604.299; -591.462
407.685;  160.347;  336.715;  222.513
407.975;   85.815; -400.283; -382.490
408.265;  131.381; -134.289; -190.478
408.556;   92.039; -472.291; -459.475
408.846;  177.668;  474.706;  429.530
409.137;   93.789;   -1.288; -216.480
409.427;   46.998; -193.285; -271.487
409.717;   50.398; -776.273; -692.508
410.007;  149.891;    4.715; -170.486
410.298;  112.310; -360.295; -342.469
410.588;   75.545; -495.285; -510.486
410.878;   53.250; -792.287; -873.482
411.168;  109.157; -481.298; -478.463
411.459;  140.609; -295.283; -242.489
411.749;   75.887; -609.292; -507.474
412.039;   71.413; -755.289; -386.480
412.329;  207.507;   40.722;  132.501
412.619;  214.311;  -62.286; -148.485
412.909;  389.384;  639.711;  594.521
413.199;  377.238; -130.280; -251.495
413.490;  418.449;  521.710;  352.523
413.780;  152.767;-1013.279; -913.496
414.070;  336.426;  -46.276;  235.497
414.360;  404.903; -729.278; -666.498
414.650;  419.971; -726.288; -688.482
414.940;  534.367; -538.280; -441.496
415.230;  920.268;   50.712;   74.519
415.520; 5954.454;  155.730;   66.486
415.809;23351.475; -305.281; -125.493
416.099;18029.491; -388.277; -229.501
416.389; 4965.462;  435.726;  236.494
416.679; 2929.216;   91.738;   85.473
416.969;  528.980; -527.287; -503.483
417.259;  465.094;  341.721;  171.503
417.549;  699.749;  522.718;  318.508
417.838; 1599.321; -205.268; -147.518
418.128; 5243.780;  650.710;  492.522
418.418; 4396.705; -491.272; -579.509
418.708; 2973.238;    9.726;  -48.506
418.997;11060.783; -474.275; -480.505
419.287;11519.219; -733.273; -790.507
419.577;10806.434; -160.283; -123.489
419.866;35802.989; -588.277; -498.501
420.156;37157.050; -242.270;  -55.513
420.446; 6762.634; -112.263;  -26.526
420.735;  946.894; -376.271; -446.512
421.025;  850.577; 1830.722;  315.502
421.314;  769.517; -203.271; -226.512
421.604; 1694.239;   89.732;  233.484
421.893;  975.414; -705.271; -602.511
422.183;  234.209; -487.263; -461.526
422.472;  389.715;  -36.271; -107.511
422.762;  481.914; -416.266; -379.521
423.051;  274.076; -916.276; -916.503
423.341;  329.671; -491.273; -439.507
423.630;  443.320; -121.265;   15.477
423.919;  395.783;   58.725;   49.495
424.209;  381.940;  -31.263;   56.473
424.498;  487.668;   68.732;  161.483
424.787; 1059.100; -535.267; -601.518
425.077; 3312.843;   34.735;   29.478
425.366; 4953.845; -734.262; -744.528
425.655; 9603.522;  639.727;  259.493
425.945;19969.873; -313.247; -268.554
426.234;11146.793;  117.741;  300.467
426.523; 4926.748;  -86.259; -350.534
426.812; 6740.185;  107.734;  159.480
427.101; 9893.160; -127.269; -323.515
427.390;12614.929;  -55.270;  -86.514
427.680; 3118.967; -624.257; -411.538
427.969;  538.178; -330.255; -301.540
428.258;  354.484; -385.257; -477.536
428.547;  561.834;  449.728;  397.490
428.836; 1404.144; -421.253; -398.543
429.125; 2030.775; -199.259;  -72.534
429.414;  881.592; -330.251; -294.548
429.703; 3031.567; -231.251; -213.548
429.992; 8972.570; -938.250; -828.549
430.281; 5899.927; -397.264; -331.524
430.570;  619.682;  -21.252;   32.454
430.859;  611.447;  279.741;  352.466
431.148;  464.644;  636.752;  631.446
431.437;  304.657;  391.748;  367.454
431.725;  177.736; -544.257; -481.536
432.014;  128.451; -845.253; -756.545
432.303;  419.344; -149.239; -105.569
432.592;  675.259; -460.263; -178.525
432.881; 1060.795; -601.248; -437.554
433.169; 5888.479; -343.255;  -61.540
433.458;11991.553;  445.765;  540.424
433.747; 5095.876; -397.261; -289.529
434.036;  971.095; -275.242; -280.564
434.324; 2064.958; -395.249; -379.551
434.613; 3530.439;   40.757;  159.437
434.902; 1241.185;  333.760;  439.433
435.190;  707.268;   75.761;  295.431
435.479;  371.446;  -52.245;   83.441
435.767;  119.704; -411.244; -427.561
436.056;  239.616; -340.242; -294.563
436.345;  373.787; -372.240; -223.568
436.633;  412.603;   60.750;  383.450
436.922;  311.239;  208.760;  414.432
437.210;  740.568; -194.236;    1.426
437.499; 2388.876; -583.235; -432.576
437.787; 2649.993; -339.236;  -10.574
438.075;  636.699;   56.761;  162.430
438.364;  873.001;  -44.238;  250.429
438.652;  531.555; -286.226; -138.592
438.941;  154.245;    3.770;  269.415
439.229;   24.654; -665.252; -466.545
439.517;   46.059; -160.234;  -85.577
439.806;    3.046; -501.225; -290.595
440.094;  212.842;  377.766;  650.421
440.382;  238.621; -653.233; -302.580
440.670;  244.051; -361.235; -285.576
440.959;   46.013; -347.223; -170.599
441.247;   90.606; -151.229; -109.587
441.535;  125.483; -266.235;   31.423
441.823;   57.414; -497.234; -305.578
442.111;  211.310;  173.771;  327.412
442.400;  619.920; -628.245; -335.559
442.688; 1701.017; -111.234; -620.579
442.976; 1240.675; -786.213; -450.617
443.264;  146.552; -324.224; -364.597
443.552;  119.206; -258.226;   51.408
443.840;  180.106;  602.765;  876.423
444.128;  113.720;  265.767;  269.420
444.416;   19.063; -694.228; -312.588
444.704;   40.668; -465.219;  -92.605
444.992;   91.859;   -0.226;  240.407
445.280;   59.595; -517.230;  -94.585
445.568;   58.779; -694.212; -396.618
445.856;  408.727; -174.221;  357.398
446.143;  935.939;  -54.220;   -7.604
446.431;  760.966;  -25.228;  625.411
446.719;  287.512;  489.783;  675.391
447.007;  208.765;  481.769;  705.416
447.295;  197.435;  597.777;  871.402
447.583;   90.529; -464.229;  -34.587
447.870;  181.449; -434.221; -202.601
448.158;  498.269; -104.230;  129.415
448.446;  387.540; -800.219; -338.604
448.733;  201.704;   13.776;  269.403
449.021;  289.303;   60.788;  341.382
449.309;  199.568; -296.210;  208.379
449.596;  238.458;  128.783;   59.392
449.884;  160.817; -571.222; -325.600
450.172;  152.847; -756.227; -406.590
450.459;  424.359;  645.786;  780.387
450.747; 2245.681; -411.218; -147.608
451.034; 7149.917;  493.772;  889.411
451.322; 5918.162; -413.214; -170.614
451.609;  515.780;  292.777;  508.403
451.897;  562.831; -550.203; -183.634
452.184; 1695.810; -622.223; -400.598
452.472; 1618.239;   97.792;  269.375
452.759;  356.040;  512.781;  864.395
453.047;  139.201; -407.212; -125.617
453.334;   71.998; -732.219; -216.606
453.621;  103.514; -438.214; -161.615
453.909;  136.073;   13.796;  384.368
454.196;  131.118; -299.199; -123.641
454.483;  220.219;  317.798;  540.364
454.771;  143.417; -215.208;  196.374
455.058;   41.746; -316.207;  102.374
455.345;  118.248;   71.807;  344.347
455.632;   86.574; -128.207;  235.373
455.919;   47.790;  -82.196;  182.354
456.207;  -52.003; -774.198; -450.642
456.494;    2.431; -475.200;  -66.639
456.781;    1.989; -399.202; -198.635
457.068;   67.480; -253.206;  -29.628
457.355;   -6.943; -698.206; -401.629
457.642;   19.362; -552.205; -290.630
457.929;    6.689; -778.194; -417.651
458.216;   79.751; -575.212; -354.617
458.503;  231.668; -173.193;  -19.652
458.790;  217.515; -864.208; -630.625
459.077;  260.219;  -77.202;  110.364
459.364;  785.557; -350.195; -210.649
459.651; 1595.678;  -46.206;  220.372
459.938;  760.056; -864.209; -665.623
460.225;  163.022;  132.799;  276.363
460.512;  -31.363; -836.197; -688.645
460.799;  102.380;  -32.218;  320.392
461.086;   86.985; -370.200; -251.640
461.372;   56.748; -509.198; -279.642
461.659;  138.791; -165.196;  108.354
461.946;   77.742; -445.193;  -54.651
462.233;  251.608;  842.800;  888.361
462.519;  358.780; -814.201; -464.639
462.806;  977.888; -768.197; -497.645
463.093;  853.512; -445.191;  -66.656
463.380;  -18.522; -920.186; -824.664
463.666;   70.790; -259.197;  -18.646
463.953;   94.752; -406.195; -243.648
464.239;  184.726; -173.195;  -77.648
464.526;  416.312;  413.806;  743.350
464.813;  358.974; -565.190; -304.658
465.099;  389.168;  606.807;  607.348
465.386;  348.822;  903.807;  921.348
465.672;   45.438; -694.197; -522.645
465.959;   23.042; -598.188; -520.662
466.245;   27.622; -468.193; -359.652
466.532;  107.849; -109.195;   63.352
466.818;   85.003; -357.186; -216.664
467.104;   13.643; -488.182; -415.672
467.391;   -7.499; -628.189; -459.658
467.677;   29.332; -289.186;    9.335
467.964;   23.532; -682.189; -471.660
468.250;   66.409; -331.186; -160.665
468.536;   88.327;   90.811;  180.341
468.822;  -18.504; -821.184; -574.668
469.109;  167.523;  351.827;  471.311
469.395;  198.781;  729.808;  787.346
469.681;  196.280;   46.811;  156.341
469.967; 1179.435; -699.188; -382.660
470.254; 2557.392; -494.188; -306.662
470.540; 1666.640; -601.196; -476.646
470.826;  242.579; -488.181; -397.675
471.112;  304.800;  288.816;  113.331
471.398;   83.929; -253.183;  -58.670
471.684;   53.582; -626.177; -447.680
471.970;    1.258; -918.180; -981.675
472.256;   33.430; -521.192; -441.654
472.542;   39.959; -499.171; -434.691
472.828;   21.639; -743.182; -607.672
473.114;   42.252; -380.166; -283.700
473.400;   18.823; -504.175; -293.684
473.686;   48.408; -452.166; -400.701
473.972;   58.038; -230.174; -131.687
474.258;  -43.902; -925.173; -843.689
474.544;  168.549; -183.178;   -2.679
474.830;  282.000;  -65.175;   45.316
475.116;  422.900; -123.190; -196.658
475.401;  618.785; -558.180; -467.676
475.687;  197.284; -725.180; -718.676
475.973;   18.097; -673.181; -770.673
476.259;  254.302;  736.825;  764.315
476.544;  374.290; -539.176; -437.682
476.830;  775.005; -398.172; -322.690
477.116;  645.939; -430.177; -336.682
477.401;  132.684;  346.820;  358.324
477.687;  -11.601; -289.175; -405.684
477.973;   32.525;   21.819;   28.326
478.258;    7.554; -448.163; -348.706
478.544;   50.740;   21.815;   61.334
478.829;  -45.661; -818.171; -738.692
479.115;  -36.320; -749.172; -651.690
479.401;   -9.217; -444.174; -449.686
479.686;   35.258; -253.180;  -74.676
479.972;  -30.671; -886.178; -776.680
480.257;   39.728; -258.166;  -65.700
480.542;   -1.082; -614.170; -469.693
480.828;  249.697; 1288.824; 1392.317
481.113;  -31.355; -464.176; -426.683
481.399;   -1.123; -236.161; -202.711
481.684;  -47.897; -620.166; -462.700
481.969;   18.615; -158.159;  -73.713
482.255;   -6.646; -439.169; -285.695
482.540;  -15.446; -569.178; -441.680
482.825;    6.848; -395.187; -404.663
483.110;   79.082;  -85.169; -105.696
483.396;  168.737; -840.157; -652.718
483.681;  460.838;  543.826;  730.313
483.966;  139.185; -696.160; -700.712
484.251;    5.187; -404.174; -310.687
484.536;   12.789; -356.165; -378.703
484.822;   11.990; -205.173; -218.687
485.107;  -24.200; -599.152; -502.726
485.392;  131.244;  662.836;  541.296
485.677;   91.642;  354.832;  163.302
485.962;  108.209;  160.843;  270.283
486.247;  100.736;  -14.162;   -8.707
486.532;   40.255; -178.166; -325.701
486.817;  158.572;  381.839;  431.291
487.102;  121.533; -453.154; -514.722
487.387;  621.139; -637.156; -652.718
487.672; 1056.524; -154.164;  -38.705
487.957;  667.029; -394.160; -286.711
488.241;  203.391; -290.150; -314.729
488.526;  671.976; -280.152; -148.726
488.811; 1112.281; -881.177; -818.680
489.096;  847.936; -666.154; -702.723
489.381;  465.022;    3.847;  162.275
489.666;  345.452; -428.161; -510.710
489.950;  161.214;  558.846;  627.277
490.235;  -29.839; -480.151; -458.728
490.520;  -34.324; -756.161; -723.710
490.804;  -53.884; -827.156; -736.719
491.089;   -5.693; -469.149; -299.732
491.374;   32.348; -132.164;  -75.704
491.658;  -14.807; -817.147; -717.735
491.943;  180.530; -657.152; -609.727
492.227;  265.729; -178.155;  -38.721
492.512;   63.159; -294.157; -341.717
492.797;  -57.674; -713.149; -716.731
493.081;  -45.829; -588.147; -598.735
493.366;  -41.998; -751.161; -635.711
493.650;  209.724;  831.859;  917.254
493.935;   28.218; -648.147; -447.734
494.219;  -29.139; -778.142; -687.743
494.503;  -45.479; -585.150; -487.730
494.788;   51.126;   46.842;   74.285
495.072;  102.568;  184.850;  434.271
495.356;  170.685; -463.148; -343.733
495.641;  468.502; -812.146; -736.736
495.925;  456.421; -976.156; -903.719
496.209;   49.706; -599.149; -451.732
496.494;  -28.613; -763.142; -544.744
496.778;    1.158; -364.154; -360.722
497.062;  -45.130; -819.156; -627.719
497.346;  -32.245; -869.160; -640.711
497.631;  144.014;  580.852;  560.266
497.915;   67.363;  -64.145;  175.261
498.199;   50.987; -341.157; -277.718
498.483;   54.599; -562.152; -508.725
498.767;  185.394;  301.850;  300.271
499.051;  154.554; -126.149; -100.732
499.335;   33.377; -693.149; -739.731
499.619;  -43.226; -381.129; -423.767
499.903;   38.077; -272.155;  -65.721
500.187;   28.390; -588.153; -316.724
500.471;   32.480; -796.152; -595.727
500.755;  113.351;   62.839;  -96.710
501.039;   42.003; -270.155; -357.721
501.323;   96.225;  -21.141;  264.254
501.607;   41.879; -447.163; -503.706
501.891;    7.188; -607.156; -512.718
502.174;  -30.701; -726.144; -585.741
502.458;   82.334;   89.849;  370.273
502.742;   39.449; -180.138; -191.751
503.026;   84.667; -412.147; -254.734
503.310;  151.439; -437.159; -375.713
503.593;  115.619; -464.147; -325.735
503.877;  141.039; -232.133; -156.760
504.161;  187.492;    2.847;  -50.724
504.444;  146.678; -841.158; -710.716
504.728;  417.372; -487.164; -522.704
505.012;  678.516; -257.150;  -76.729
505.295;  499.527; -417.161; -212.711
505.579;  499.595; -256.156; -496.719
505.862;  675.909; -555.145; -333.738
506.146;  680.992; -681.159; -758.714
506.429;  374.092;  568.841;  461.286
506.713;   64.988; -732.151; -667.728
506.996;  308.357;   90.846;  295.278
507.280;  325.392; -633.165; -474.703
507.563;  221.126; -469.155; -261.721
507.847;  104.316; -423.153; -112.724
508.130;   73.678; -665.161; -456.711
508.413;   94.399; -758.167; -577.700
508.697;  226.074; -151.167;   12.300
508.980;  148.367; -422.153; -312.724
509.263;  -16.178; -466.155; -450.720
509.547;   35.665; -124.150;   82.271
509.830;   43.730; -172.160;  140.289
510.113;   93.495;  128.844;  298.281
510.396;   48.798; -530.152; -300.725
510.680;  211.186; -818.145; -812.738
510.963;  780.737;  184.846;  180.277
511.246;  694.698; -493.150; -357.730
511.529;  275.591; -482.145;  -83.739
511.812;  367.486; -250.134;   10.241
512.095;  222.660; -740.151; -396.728
512.378;   58.723; -317.147; -245.736
512.661;   31.207; -703.137; -623.753
512.944;   25.188; -750.142; -637.744
513.227;   65.104; -170.137; -171.752
513.510;   34.199; -479.144; -671.741
513.793;   28.480; -485.140; -435.747
514.076;  141.545;  -43.127;  -39.771
514.359;  107.382; -294.149; -135.732
514.642;   75.141; -442.142; -567.744
514.925;  714.228;  581.860;  561.253
515.208;  932.807; -498.134; -443.758
515.491;  609.746; -276.133; -182.761
515.773;  358.203; -410.143; -337.742
516.056; 1930.663;  249.864;  409.246
516.339; 2658.392; -754.136; -652.755
516.622; 2010.271; -518.150; -488.730
516.904; 1474.835;  882.857;  975.257
517.187;  686.203; -730.138; -523.752
517.470;  415.683; -568.143; -510.743
517.752;  407.645; -624.136; -470.756
518.035;  312.115; -708.139; -725.749
518.318;  318.917; -799.136; -744.755
518.600; 2193.999; -300.132; -325.762
518.883; 3046.040;  310.858;   88.256
519.165; 1490.945; -585.138; -426.751
519.448;  411.074;  -61.132;  -19.762
519.730;  212.402; -573.126; -415.773
520.013;  345.292;  588.867;  664.240
520.295;  995.037;  -94.134;  -15.759
520.578; 2229.312; -335.131; -305.764
520.860; 2527.524; -254.132;   56.238
521.143; 1270.947; -763.135; -584.756
521.425;  489.715; -251.125; -279.775
521.707;  655.845; -622.127; -380.771
521.990; 1671.645; -199.127;  167.229
522.272; 1873.031; -116.140;   -4.748
522.554;  916.228; -237.143; -157.742
522.836;  416.935;  -24.134;   99.241
523.119;  253.591; -496.148; -189.734
523.401;  156.769; -448.130; -314.766
523.683;   91.407; -865.137; -693.753
523.965;  256.776;  408.862;  260.248
524.247;  253.661;   54.878;  170.220
524.529;  192.337; -451.134; -367.759
524.812;  356.845;   -3.130;  191.234
525.094;  784.125; -773.138; -631.751
525.376; 1250.024; -143.124;   78.223
525.658;  761.714; -441.136; -339.754
525.940;   32.434; -805.131; -671.764
526.222;   54.093; -188.136;  -88.755
526.504;  145.481; -190.131;   32.237
526.786;  222.565; -960.133; -647.760
527.068;  371.704; -124.123;  -67.778
527.349;  166.711; -865.137; -774.754
527.631;  156.549; -137.132;   22.238
527.913;  137.294; -664.127; -450.771
528.195;  153.883; -761.125; -639.774
528.477;  232.207;  -93.134;  -30.758
528.759;  121.845; -648.130; -522.766
529.040;   37.253; -569.123; -293.778
529.322;   50.436; -235.125;  -10.774
529.604;  166.023;  -47.130;   93.233
529.886;  163.652; -546.126; -302.773
530.167;  151.589;  232.870;  192.235
530.449;   49.397;    1.853;   63.265
530.731;   16.310; -572.122; -459.779
531.012;   68.156; -513.120; -216.784
531.294;   74.919; -118.116;  -43.792
531.575;  151.715;  290.875;  538.225
531.857;   40.727; -548.135; -266.757
532.138;  112.324; -113.141;   40.254
532.420;  196.173;  294.865;  403.244
532.701;  266.117; -722.133; -751.760
532.983;  393.420;  232.867;  182.239
533.264;  153.900; -243.126;  175.228
533.546;  -31.183; -491.136; -508.755
533.827;   70.864;  173.867;   -1.759
534.109;   58.927; -352.135;  -80.757
534.390;  114.628; -725.132; -582.762
534.671;  261.823; -270.135;  -82.756
534.953;  147.956; -751.123; -611.779
535.234;   20.354; -426.117; -255.789
535.515;  -78.436; -891.119; -735.785
535.796;  -32.760; -431.128; -193.770
536.078; -121.252;-1050.124; -904.777
536.359;   -3.294;  -22.123;    3.221
536.640;  -12.866; -480.125; -197.774
536.921;  157.278;  225.871;  143.232
537.202;  351.422;  -87.138;  -16.751
537.483;  448.786;  251.869;  377.236
537.764;  168.139;   17.870;   98.235
538.045;  -41.244; -543.134; -371.758
538.326;  -42.095; -596.129; -447.768
538.607;   15.921; -686.127; -476.771
538.888;  176.672;   98.879;    5.218
539.169;  174.291; -704.122; -535.781
539.450;  327.977;  236.871;   16.233
539.731;  226.751; -361.121; -182.783
540.012;  129.556;  199.880;  412.216
540.293;   84.793;   82.876;  158.224
540.574;   20.190; -895.113; -717.796
540.855;  458.349;  435.879;  377.218
541.136;  525.514;   47.878;  139.220
541.416;  278.196; -161.130; -220.766
541.697;  181.957; -274.131; -170.763
541.978;  955.225; -270.135; -315.757
542.259; 1199.696; -211.127; -236.771
542.539;  578.588; -191.116; -186.790
542.820;  195.739;  461.875;  480.225
543.101;  137.637;  -52.145;  -77.738
543.381;   34.795; -638.127; -591.771
543.662;  240.668;  159.873; -254.771
543.942;  534.066; -751.127; -830.770
544.223; 1001.965;  193.878;  161.219
544.504;  632.173; -275.124; -182.777
544.784;  529.627; -592.126; -408.773
545.065; 1533.392;  104.884; -254.791
545.345; 1844.564;  227.881;   14.215
545.626; 1179.339;  -14.113; -108.796
545.906;  807.614;   77.869;   98.235
546.186;  329.256;   92.874;  -95.773
546.467;  170.176;   99.877;  -95.778
546.747;  302.863;  264.884;  327.210
547.027;  331.447;   91.876;  111.223
547.308;  302.440; -376.127; -530.770
547.588;  365.655;  299.871;  371.232
547.868;  207.265;  458.870;  588.235
548.149;  189.699;  609.885;  593.207
548.429;  115.069; -347.127; -299.771
548.709;  159.030; -645.120; -461.784
548.989;  439.148;   84.882;   88.213
549.269; 1932.222;   10.868;  139.239
549.550; 4437.330;  215.877;  117.222
549.830; 3972.207; -758.111; -556.799
550.110;  784.714; -468.110; -320.801
550.390;  768.585; -128.122;  -56.779
550.670; 1053.035; -868.114; -783.795
550.950;  736.224; -509.121; -471.782
551.230;  196.920;  549.879;  460.218
551.510;   -3.377; -381.121; -326.782
551.790;   26.147; -173.109; -127.803
552.070;  229.651;  940.877; 1181.223
552.350;  374.368; -492.119; -377.786
552.630;  534.893;   -2.121;   77.219
552.909;  309.367;  181.884;   73.209
553.189;  205.254;  -49.132;   33.237
553.469;  167.818; -703.119; -514.786
553.749;  151.172; -469.127; -357.772
554.029;  160.259;   33.883;  -24.790
554.308;  117.078; -154.115;  -37.794
554.588;   52.639; -196.128; -204.770
554.868;   48.399; -366.121;  -47.782
555.147;  151.676; -114.115;  -46.793
555.427;  534.520; -260.116; -250.792
555.707; 3564.824; -284.115; -200.793
555.986; 4289.560; -719.111; -538.800
556.266; 2289.687;   23.884;   72.210
556.546;   98.723; -888.121; -675.782
556.825;  229.808; -657.114; -556.794
557.105; 1666.462; -125.128;   17.230
557.384; 1895.666;  122.884;  187.209
557.664;  736.169; -717.116; -508.792
557.943;  106.624; -557.121; -411.782
558.222;  151.652; -345.118; -344.788
558.502;  266.027; -116.115;  -76.793
558.781;  459.122;  194.885;  499.208
559.061;  375.476; -232.118; -227.788
559.340;  270.756;  302.883;  353.211
559.619;  642.887;   93.884;  148.210
559.899;  933.558; -239.117; -266.789
560.178;  861.026; -778.115; -593.793
560.457; 2884.235; -623.117; -562.790
560.736; 4039.861; -472.111; -482.800
561.015; 2639.985; -500.128; -502.769
561.295;  358.717;  180.893;  215.193
561.574;  331.949;  119.885;  116.207
561.853;  482.876;  274.891;  303.197
562.132;  447.129;  -45.114;  182.206
562.411;  398.868;  396.879;  553.219
562.690;  119.172; -592.115; -458.792
562.969;  139.646;  472.888;  630.203
563.248;  470.991; 2966.878; 2487.219
563.527;  239.586; -290.111; -408.800
563.806;  331.644; -650.127; -521.771
564.085;  383.332; -297.105; -206.810
564.364;  223.761; -594.117; -405.790
564.643;  457.794; -276.121; -223.781
564.922; 1718.220;  221.890;  397.198
565.201; 1689.624; -640.109; -700.803
565.479;  755.121; -297.115; -219.792
565.758;  300.912; -810.128; -712.770
566.037;  447.550; -155.109; -100.803
566.316;  228.992; -286.116;  -28.791
566.595;   40.324;  -17.115;  -12.793
566.873;   84.638; -166.111;  -79.801
567.152;  -70.629; -490.113; -590.797
567.431;    2.338; -113.116;    6.210
567.709;   -8.883; -344.107; -212.807
567.988;  244.882; -810.114; -769.794
568.266;  488.899; -160.115;  -68.793
568.545;  346.603; -644.100; -514.819
568.824;  530.820;  160.885;  356.208
569.102;  496.907; -351.114; -235.794
569.381;  204.995; -492.116; -407.792
569.659;  -43.158; -553.113; -553.796
569.938;   22.439; -743.122; -465.780
570.216;  103.902; -225.109; -225.804
570.494;  -32.840; -632.114; -572.795
570.773;   31.497;  202.879;  114.218
571.051;    1.929; -373.123; -357.778
571.330;   55.865; -221.113; -174.796
571.608;   27.646; -181.098; -173.823
571.886;  -72.270; -671.111; -581.799
572.164;  -75.201; -739.121; -621.782
572.443;  -50.240; -562.105; -512.811
572.721;  -39.440; -399.117; -289.790
572.999;  -26.422; -280.117; -168.788
573.277;   89.754;  379.894;  620.191
573.555;  252.156;   94.894;   37.190
573.834; 1219.603;  -86.117; -114.788
574.112; 1445.744;  880.893;  811.193
574.390;  420.912; -143.111;  -96.801
574.668;    0.297;  -91.112;  -61.797
574.946;  -11.094; -165.106; -187.810
575.224;    4.299;   71.891;  -16.803
575.502;  -18.411; -200.116; -204.791
575.780;  -93.777; -767.112; -829.798
576.058;  187.311; 1589.889; 1004.200
576.336;   -7.109; -210.110; -129.801
576.614;  -63.777; -511.112; -340.798
576.891;   37.453; -711.115; -823.794
577.169;  431.785; -158.108; -285.805
577.447;  528.619;  169.893;  202.193
577.725;  257.752;  629.888;  854.201
578.003;    8.275;  -71.112; -371.798
578.280;   75.119; -208.104; -242.812
578.558;   70.627; -450.115; -422.793
578.836;  130.660; -210.114; -145.795
579.114;   37.971; -630.112; -670.797
579.391;   64.055;   -6.117;  -18.789
579.669;  -75.596; -595.114; -704.794
579.947;  157.165; -326.107; -127.806
580.224;  288.715; -692.107; -524.806
580.502;  285.594;  127.893;   76.193
580.779;   24.236;  -42.117;   75.210
581.057;  -67.122; -584.109; -470.804
581.334;  -94.866; -726.102; -695.815
581.612;   40.032;   54.895;  511.190
581.889;  -23.253;  -83.101; -129.818
582.167;  -41.514; -298.099; -190.821
582.444;  -96.783; -845.102; -814.817
582.721;   94.292;  657.899;  715.183
582.999;   46.959; -326.100; -167.821
583.276;  461.083; -812.123; -713.779
583.553;  656.912; -364.102; -294.816
583.831;  200.091; -607.104; -631.812
584.108;   49.283;  349.892;  174.195
584.385;    6.908; -122.102;  -98.815
584.662;  -73.212; -651.111; -828.801
584.940;   32.962;  204.889;  204.199
585.217;  -29.908;  -73.113; -303.796
585.494;   41.121;   71.890;  118.198
585.771;  185.004; -250.109; -354.804
586.048;  464.591; -196.113;  -76.796
586.325;  286.315; -721.110; -773.801
586.602;   76.495;  230.896;  213.188
586.879;  -24.070; -499.100; -580.820
587.156;   34.633; -156.105; -331.810
587.433;  -46.985; -701.102; -667.817
587.710;   60.849;  152.888;  234.202
587.987;  280.488; -264.105; -236.811
588.264;  731.075;  315.888;  387.202
588.541; 1273.047;  -61.104;   26.187
588.818; 2501.131;   72.892;  171.196
589.095; 2165.318; -163.104; -174.812
589.371;  342.677; -459.109; -414.804
589.648;   12.944; -581.107; -437.807
589.925;   16.561; -517.114; -621.795
590.202;    5.798; -741.112; -607.798
590.478;   84.565; -166.105;  -73.811
590.755;  231.212; -241.108; -132.806
591.032; 2294.618; -741.110; -699.802
591.308; 3145.461; -732.094; -790.831
591.585; 1635.642; -573.110; -560.802
591.862;  128.291;-1056.102; -950.817
592.138;   47.484; -475.108; -474.805
592.415;  126.245; -486.104; -495.813
592.691; 1358.068;  460.896;  518.188
592.968; 1739.223; -208.098; -123.824
593.244;  812.338; -695.116; -595.790
593.521;   63.317; -105.102;  -42.817
593.797;  -30.463; -810.122; -720.780
594.074;  316.010; -611.096; -588.826
594.350;  618.096;  828.905;  729.172
594.626;  286.913; -303.111; -283.801
594.903;  106.967; -643.101; -645.817
595.179;  188.624;  243.896;  418.187
595.455;   -7.930; -136.107; -150.807
595.731;   -0.449;  -19.103;  -38.814
596.008;  -47.468; -464.111; -434.800
596.284;   27.482; -187.100; -242.820
596.560;   38.467; -501.093; -493.833
596.836;  189.585; -173.105;  -70.810
597.112;  307.135; -582.108; -437.805
597.388;  275.208;  -49.097;  -48.826
597.665;   96.844;  437.887;  530.203
597.941;  -57.679; -572.089; -658.839
598.217;   -2.279; -323.110; -293.802
598.493;  251.355;   61.891; -204.804
598.769;  459.102; -175.100;  -50.819
599.045;  275.763; -490.108; -562.806
599.321;   45.206; -193.100; -261.820
599.597;  106.929; -355.109; -476.804
599.872;  441.197;  409.896;  429.187
600.148;  338.360;  -61.097; -172.826
600.424;  273.068;   91.893;  202.193
600.700;  209.295; -170.107; -280.807
600.976;   89.079; -442.097; -464.825
601.252;  209.101; -226.109; -272.803
601.527;  169.848; -833.104; -840.813
601.803;  135.990; -453.105; -404.812
602.079;  162.977; -124.100; -118.819
602.354;  518.002; -620.092; -531.835
602.630;  751.217; -140.113; -482.796
602.906; 2113.622; -910.101; -863.818
603.181; 6111.268; -627.119; -534.786
603.457; 5186.982;   98.903; -278.826
603.733;  761.401; -605.120; -626.783
604.008;  895.807; -245.106; -164.810
604.284; 2779.618; -636.101; -580.817
604.559; 2431.252;   -3.112;  -42.799
604.835;  423.935; -163.105; -225.810
605.110;  370.162; -732.099; -892.821
605.385;  625.895;  224.907;  267.167
605.661;  582.974; -625.095; -729.829
605.936; 1046.088; -664.108; -737.806
606.211;  898.132;  -17.103; -170.815
606.487;  176.456; -329.114; -376.794
606.762;    7.593; -791.119; -745.786
607.037;  -33.165; -501.105; -433.810
607.313;  -55.583; -589.096; -574.828
607.588;  -13.769; -375.106; -137.810
607.863;   23.597;  -28.101; -143.818
608.138;  164.769;  513.890;  516.198
608.413;   11.090; -576.099; -592.822
608.688;   23.435; -203.108; -267.805
608.964;  167.626; -509.106; -218.809
609.239;  202.457; -107.105; -212.810
609.514;  238.515;  281.895;  240.188
609.789;  590.319; -187.104; -716.812
610.064;  808.691; -435.096; -609.827
610.339;  785.502; -855.109; -799.804
610.614; 1054.907; -131.100; -315.820
610.889;  585.090;  215.895;  107.188
611.163;   28.066; -407.104; -591.812
611.438;   63.657;   81.886; -167.794
611.713;    4.768; -467.101; -499.817
611.988;   39.696; -144.101; -328.818
612.263;  -32.616; -771.102; -717.815
612.538;  194.741;  385.887;  251.204
612.812;  154.583; -832.100; -911.820
613.087;  114.446; -358.098; -338.823
613.362;  -44.880; -497.107; -557.807
613.637;   51.903;  261.897;  138.186
613.911;   -2.423; -256.092; -345.835
614.186;   98.969; -249.107; -292.807
614.460;  587.795; -842.081; -758.854
614.735;  703.319;  -55.087;  -17.843
615.010;  139.559;   43.912;  -82.841
615.284;  240.459;  360.892;  246.195
615.559;  330.801; -792.092; -955.835
615.833;  269.689;  -76.099;  -87.822
616.108;    0.963; -225.090; -390.837
616.382;  119.746;  274.913;  402.156
616.656;  139.763; -241.090; -232.837
616.931;  445.239; -785.099; -700.822
617.205;  973.673; -973.104; -979.813
617.480;  887.813;  -91.125;    6.225
617.754;  153.460; -396.125; -128.774
618.028;   -1.594; -369.129; -382.768
618.302;   44.983;   73.892;  -25.805
618.577;  -45.745; -371.103; -518.815
618.851;  -55.827; -399.109; -600.803
619.125;  -45.463; -335.134; -378.759
619.399;  -38.176; -244.104; -374.813
619.673;  -34.979; -330.115; -515.792
619.947;  -48.565; -333.114; -448.795
620.222;  -19.486; -198.110; -204.801
620.496;    1.399;  -47.121;  -96.782
620.770;   12.166; -187.122;  -93.781
621.044;  180.258;  323.895;  346.190
621.318;  674.877; -653.120; -614.783
621.592;  619.275; -430.121; -409.783
621.866;  303.128; -476.112; -572.799
622.140;   19.689; -207.116; -356.791
622.413;   44.357;  138.889;  112.200
622.687;  -36.231; -746.101; -492.817
622.961;    3.533; -130.108; -143.805
623.235;  -59.892; -633.111; -661.800
623.509; -121.235; -816.105; -848.811
623.783;   22.816;  -12.107;   48.193
624.056;  -26.472; -254.120; -280.783
624.330;   46.597;   63.888;   -3.797
624.604;   39.911; -271.116; -355.790
624.877;   75.793;  180.890;   26.198
625.151;   42.155; -249.114; -238.794
625.425;  -43.625; -150.103; -283.814
625.698;  -69.513; -367.119; -374.785
625.972;  -99.479; -799.110; -765.802
626.245;   68.413;  685.884;  484.210
626.519;  -52.268; -426.120; -340.784
626.792;  -45.155; -192.107; -380.807
627.066;  -87.116; -485.122; -662.779
627.339; -110.808; -736.110; -663.802
627.613;   31.306;  351.880;  148.216
627.886;   53.998;  187.891; -612.803
628.160;  -11.323;  312.880; -161.783
628.433; -106.860; -695.125; -703.775
628.706;  -80.443; -517.120; -615.784
628.979;    2.572;  296.876;  117.223
629.253;  -83.283; -785.119; -833.786
629.526;  321.550; -334.126; -253.772
629.799;  298.904; -641.123; -479.778
630.072;  136.907; -497.128; -516.769
630.346;  -64.462;-1115.116;-1080.790
630.619;  398.871; -467.107; -545.808
630.892;  588.609;  709.889;  593.200
631.165;  325.499;  790.896;  679.187
631.438;  -91.775;-1092.112;-1055.798
631.711;   52.682;  453.877;  257.221
631.984;  -69.142; -523.117; -624.789
632.257;  -84.595; -636.117; -681.789
632.530;  -65.087; -412.119; -433.785
632.803;   12.828; -109.115;    7.207
633.076;  -73.949; -360.123; -422.777
633.349;    7.836;  173.872;  121.231
633.622;  -38.964; -187.119; -240.785
633.895; -138.872; -903.120; -823.783
634.167;  -51.173; -496.126; -525.773
634.440;  -32.456;  -19.116; -137.792
634.713;   -7.184;  -22.119; -120.786
634.986;   64.276;  593.871;  453.233
635.258;  -83.124; -507.115; -597.793
635.531;   71.801;  742.882; -343.788
635.804;  -15.243; -303.117; -318.789
636.077;  -94.660; -830.116; -852.791
636.349;  -14.051; -586.115; -474.793
636.622;  362.599; 1695.874; 1392.228
636.894;  207.707; -474.120; -909.784
637.167;  113.318; -836.127; -789.771
637.439;   24.440; -278.128; -213.770
637.712;  -52.699; -312.126; -293.772
637.984;  -80.734; -635.116; -707.791
638.257;  360.226;  515.877;  488.222
638.529;  516.316; -881.125; -924.776
638.802;  229.357; -508.128; -449.769
639.074;  -98.460; -927.122; -952.781
639.346; -139.146; -942.135; -930.757
639.619;    2.464;  -79.142; -319.744
639.891;   -9.391;  -83.122; -168.779
640.163;  -82.839; -689.122; -756.780
640.435;   16.938;  273.878;  103.220
640.708;    2.564;  -72.122; -132.780
640.980;  -39.609; -366.122; -362.781
641.252;  198.618;  -25.121;  -71.781
641.524; 1717.145;  580.879;  573.219
641.796; 1695.372;-1094.121; -907.782
642.068;  306.048; -191.121; -300.782
642.340;  -54.475; -486.121; -566.783
642.613;   26.002;  294.880;  323.217
642.885;  -99.946; -787.120; -878.783
643.157;  -64.844; -810.120; -658.784
643.428;   60.707;  170.880;  218.216
643.700;  -85.516; -498.120; -425.784
643.972;  -41.189;  -16.119; -133.785
644.244; -102.712; -474.119; -559.785
644.516;  -54.285; -250.119; -114.786
644.788;   55.042;  662.881;  548.214
645.060;  -27.632;  -12.119; -124.786
645.332; -101.430; -525.118; -535.787
645.603;   32.997;  479.882;  342.213
645.875;  -67.776; -334.118; -369.787
646.147;  167.476; 1487.882; 1242.212
646.418;  -88.798; -931.117; -918.788
646.690;  117.429; -714.117; -715.789
646.962;   16.831; -413.117; -451.789
647.233;  -14.792;   15.883;   11.211
647.505; -108.715; -595.117; -475.790
647.776;   31.311;  328.884;  229.210
648.048;  -13.412; -248.116; -418.790
648.320;  -62.985; -752.116; -679.791
648.591; -149.758;-1055.116; -958.791
648.862;  -89.006; -505.116; -577.792
649.134;   11.546;  115.885;  198.208
649.405;  -38.553; -661.115; -618.792
649.677;  -68.051; -475.115; -598.793
649.948;   -7.599; -181.115; -296.793
650.219;   -4.697;  -37.115; -147.793
650.491;  -89.220; -431.114; -520.794
650.762; -125.394; -705.114; -731.794
651.033;  -97.717; -437.114; -424.795
651.304; -104.415; -743.114; -728.795
651.576;  -79.388; -680.114; -645.795
651.847;  -46.061; -250.113; -140.796
652.118;  -34.485;  -32.113; -189.796
652.389; -114.558; -639.113; -722.796
652.660;  -37.531; -147.113;  -89.797
652.931; -157.704; -897.112; -871.797
653.202;  -72.727; -382.112; -541.798
653.473;  -66.051; -633.112; -533.798
653.744;  148.701; -595.112; -590.798
654.015;  123.178; -356.112; -303.799
654.286;  -74.945; -642.111; -663.799
654.557;  -71.618; -586.111; -521.799
654.828; -152.966;-1114.111;-1088.800
655.099;  -92.865; -404.111; -291.800
655.370;  -88.763; -427.111; -543.801
655.641; -132.936; -656.110; -714.801
655.911;  -94.309; -618.110; -638.801
656.182;   54.518;  437.890;  387.198
656.453;  105.069;  830.890;  746.198
656.724;  -78.379; -466.110; -426.802
656.994;  -79.677; -553.109; -568.803
657.265; -122.075; -862.109; -873.803
657.536;  -92.098; -500.109; -377.804
657.806; -117.272; -561.109; -593.804
658.077; -136.370; -866.109; -950.804
658.347; -101.143; -523.108; -598.805
658.618; -122.666; -646.108; -694.805
658.888;  -32.339;  -41.108;  112.195
659.159;  -80.363; -432.108; -548.806
659.429;  -22.786; -292.108; -349.806
659.700;    0.716; -435.107; -390.807
659.970;  -21.007; -370.107; -359.807
660.241;  -13.930; -754.107; -921.807
660.511;  452.422; -147.107; -174.808
660.781;   88.573; -793.106; -748.808
661.052;  -41.025; -222.106; -381.808
661.322;   -8.223;   21.894;   -9.809
661.592;   21.179;  257.894;  148.191
661.862;  -81.519; -369.106; -382.810
662.133;  -96.068; -551.105; -502.810
662.403; -119.616; -770.105; -676.810
662.673;  -56.514; -256.105; -213.811
662.943;  -98.612; -612.105; -551.811
663.213;  -13.335;  -85.105;  -81.811
663.483;  -83.734; -593.104; -568.812
663.753;  -50.232; -194.104; -152.812
664.023;  -18.255;   68.896;  -32.813
664.293;  -71.478; -319.104; -126.813
664.563;  -99.101; -694.104; -648.813
664.833; -131.600; -743.103; -608.814
665.103; -134.123; -730.103; -793.814
665.373; -124.896; -766.103; -806.814
665.643;  -92.094; -863.103; -918.815
665.913;   22.033; -534.103; -714.815
666.182;  104.610; -685.102; -719.816
666.452;  244.086;  -22.102;  -89.816
666.722;  -21.862; -724.102; -784.816
666.992; -145.760; -948.102; -921.817
667.261;  -98.133; -824.102; -808.817
667.531;  188.844;  134.899;   45.183
667.801;  542.770; -440.101; -412.818
668.070;  216.397;  714.899;  697.182
668.340;  -92.326; -883.101; -840.819
668.609;   85.051;  588.900;  301.181
668.879;  -74.872; -490.100; -558.819
669.149;  -79.021; -539.100; -516.820
669.418; -112.794; -698.100; -726.820
669.688;  -37.117; -482.100; -666.820
669.957;   50.810; -423.099; -546.821
670.226;  -32.788; -268.099; -331.821
670.496;  -86.487; -431.099; -635.822
670.765;  -85.585; -418.099; -501.822
671.034; -126.558; -872.099; -828.822
671.304;   -8.281;   55.902; -111.823
671.573; -146.704;-1085.098; -957.823
671.842;   55.973; -380.098; -294.823
672.112;   22.699; -692.098; -586.824
672.381;   -6.949; -239.098; -214.824
672.650; -133.347;-1005.097;-1021.825
672.919;  -97.545; -631.097; -507.825
673.188;  -95.618; -681.097; -878.825
673.457; -151.917;-1101.097;-1143.826
673.726;  -85.065; -579.096; -646.826
673.995;  -52.938; -533.096; -479.826
674.265;  -16.461; -263.096; -333.827
674.534;   -8.284; -183.096; -235.827
674.802;  -11.958; -618.096; -703.828
675.071;  895.494; -886.095; -801.828
675.340; 3589.721; -464.095; -339.828
675.609; 1198.498;  103.905;   82.171
675.878;   61.200; -949.095; -893.829
676.147;   20.501;  -26.095;   -8.829
676.416;   73.903; -210.094; -294.830
676.685;  673.905; 1000.906; -622.830
676.953;   85.157; -603.094; -452.831
677.222;  -36.941; -193.094; -273.831
677.491;  -26.589;  -24.094; -127.831
677.759;  -17.863;   11.907;  172.168
678.028;  -17.886; -279.093; -222.832
678.297;  -14.584;   71.907;  197.168
678.565; -147.632; -898.093; -944.833
678.834;  -72.230; -311.093; -268.833
679.102;  -79.329; -411.092; -391.834
679.371; -151.702; -898.092; -727.834
679.639; -123.775; -797.092; -786.834
679.908; -128.698; -794.092; -724.835
680.176; -153.846; -895.091; -941.835
680.445;  -79.695; -346.091; -352.835
680.713;  -14.368;  -58.091;  -23.836
680.982;  -95.366; -523.091; -525.836
681.250; -102.639; -578.091; -507.837
681.518; -107.662; -534.090; -751.837
681.787;  -19.035; -204.090; -167.837
682.055;  -64.734; -490.090; -422.838
682.323; -154.532; -993.090; -992.838
682.591;   15.295; -216.090; -538.838
682.859;   69.522;    9.911;  -35.839
683.128;    6.299;  232.911;  497.161
683.396; -169.725;-1102.089;-1122.840
683.664;  -39.873; -241.089;   21.160
683.932;  -14.371;  144.911;  -76.840
684.200;  -96.394; -576.088; -320.841
684.468;  -45.492;  -73.088; -124.841
684.736;  -36.791; -214.088; -175.841
685.004; -139.364;-1024.088; -982.842
685.272;  -55.912; -880.088; -774.842
685.540;  -75.910; -499.087; -557.843
685.808;  -85.908; -651.087; -682.843
686.076; -118.807; -894.087; -969.843
686.343;  -58.705; -601.087; -815.844
686.611;   33.422; -195.087; -224.844
686.879;  408.199; -530.086; -553.844
687.147; 3056.301; -483.086; -480.845
687.414;  837.228;  -12.086; -169.845
687.682;   -5.171; -658.086; -757.846
687.950;  284.381;  259.915;  263.154
688.217;   -9.467; -792.085; -760.846
688.485;  -18.690; -632.085; -636.847
688.753;  474.162;  -11.085; -102.847
689.020;  133.363; -820.085; -851.847
689.288;  -99.410; -853.084; -787.848
689.555;  -39.608; -195.084; -148.848
689.823;  -51.956; -241.084; -345.849
690.090;  -96.529; -546.084; -651.849
690.358; -151.253; -877.084; -897.849
690.625;    0.474;  120.917;   45.150
690.892;  -72.799; -403.083; -369.850
691.160;  -18.222;   72.917;  -35.850
691.427;    7.205;  141.917;  130.149
691.694; -142.944; -855.083; -929.851
691.962; -150.617;-1177.082;-1060.852
692.229;   20.060;  127.918;   56.148
692.496;   75.962;  130.918;  -49.852
692.763;    5.514; -164.082; -201.853
693.031;  -78.559; -739.082; -716.853
693.298;  -51.333; -509.081; -368.853
693.565;  294.169; -155.081; -163.854
693.832; 1205.696;   -5.081;   -9.854
694.099;  126.348; -643.081; -642.855
694.366;  -69.300; -882.081; -896.855
694.633;  -53.374; -920.080; -633.855
694.900;  734.853; 4367.920; -114.856
695.167;  382.030; -214.080; -380.856
695.434;   87.957; -646.080; -623.856
695.701;  206.884;  121.921;  -61.857
695.968;  443.860; -365.079; -361.857
696.234;  973.012; -415.079; -646.858
696.501;10347.564; -776.079; -614.858
696.768; 5237.691; -554.079; -617.858
697.035;  315.968; -632.078; -667.859
697.302;   30.244; -448.078; -552.859
697.568;    3.446; -458.078; -497.859
697.835;  -40.027; -683.078; -624.860
698.102;  -27.050; -498.078; -407.860
698.368;   74.427;  384.923;  396.139
698.635;  -32.221;  -47.077; -424.861
698.901;  -18.045; -240.077; -348.861
699.168;   53.157; -534.077; -456.862
699.435;   67.984;  -72.077;  -13.862
699.701; -113.489; -868.076; -764.862
699.968;   10.913;  144.924; -441.863
700.234; -119.261; -783.076; -822.863
700.500;  -52.634; -448.076; -539.864
700.767;   -9.832;   -1.075;   26.136
701.033; -121.780;-1015.075; -963.864
701.299;  -48.203; -450.075; -483.865
701.566;  109.223;  950.925;  763.135
701.832;   23.800;  -31.075;  -76.865
702.098;  -96.098;-1054.074;-1034.866
702.365;  -98.746;-1098.074;-1030.866
702.631;  -33.319;-1038.074;-1063.867
702.897; 1298.182; -765.074; -676.867
703.163; 2153.784;  348.926;  254.133
703.429;  141.786; -256.073; -273.868
703.695;  -39.237; -796.073; -792.868
703.961;   15.090; -214.073; -210.868
704.227;  -51.258; -630.073; -725.869
704.493;  132.743;  613.927;  510.131
704.759;  -26.480; -565.072; -540.870
705.025;   40.822; -203.072; -194.870
705.291;  -12.876; -666.072; -562.870
705.557;  190.901;  719.928;   34.129
705.823;   23.177; -742.072; -694.871
706.089;  156.654; -307.071; -326.871
706.355;  371.531; -315.071; -244.872
706.620; 5696.158; -776.071; -729.872
706.886; 7892.510; -309.071; -362.873
707.152;  721.986; -818.070; -973.873
707.418;  -17.562;-1153.070;-1186.873
707.683;   -1.910; -550.070; -530.874
707.949;  -44.558; -547.070; -578.874
708.215;    2.144; -129.070; -207.874
708.480;  -15.880; -520.069; -420.875
708.746;  101.297;   68.931;   28.125
709.011;  -58.626; -578.069; -612.876
709.277;  -80.224; -538.069; -543.876
709.542;  -49.872; -428.069; -387.876
709.808;  -11.070;  -59.068;   89.123
710.073;  -71.544; -577.068; -695.877
710.339;  -28.092; -242.068; -228.877
710.604;   79.885; -780.068; -845.878
710.869;  297.712; -277.068; -366.878
711.135;  -69.511; -715.067; -628.879
711.400;  -91.135; -507.067; -608.879
711.665;  -53.933; -404.067; -479.879
711.931; -101.081; -661.067; -677.880
712.196; -118.504; -876.067; -954.880
712.461;   81.773; -402.066; -490.880
712.726;  119.624; -727.066; -771.881
712.991; -104.149; -647.066; -664.881
713.256;  -44.047; -350.066; -332.882
713.521;  -56.620; -417.065; -381.882
713.787;  -54.568; -454.065; -472.882
714.052;  -42.691; -214.065; -400.883
714.317;  -94.090;-1045.065; -981.883
714.581; 1051.412; -374.065; -268.883
714.846; 1454.314; -822.064; -888.884
715.111;  143.616;  261.936;  257.116
715.376;  -23.882;  -86.064; -223.885
715.641;  -22.031; -365.064; -367.885
715.906;  267.321;   15.936; -551.885
716.171;  125.048;  221.937;  209.114
716.436;   24.900;  -78.063; -104.886
716.700; -108.373; -818.063; -692.886
716.965; -111.772; -794.063; -807.887
717.230;  -72.595; -339.063; -392.887
717.494;  -28.243;  -40.062; -134.888
717.759; -110.691; -784.062; -640.888
718.024;   -1.764;  269.938;  250.112
718.288;   61.337;  685.938;  395.111
718.553; -143.536; -803.062; -977.889
718.817; -146.909; -883.061; -899.889
719.082;  -21.157; -115.061; -125.890
719.346; -150.355;-1000.061; -947.890
719.611;  -45.603; -300.061; -255.891
719.875; -108.702; -568.060; -537.891
720.140;  -61.050; -453.060; -603.891
720.404;   19.327; -136.060; -249.892
720.668;  763.179; -475.060; -411.892
720.933;  310.856;  146.940;  137.108
721.197;  -95.818; -667.059; -600.893
721.461; -126.391; -851.059; -826.893
721.725;   -7.364;  -21.059; -250.894
721.990;  -73.662; -284.059; -204.894
722.254;  -24.885;  -26.059; -108.894
722.518;  -70.284; -286.058; -442.895
722.782;  -85.532; -743.058; -594.895
723.046;  118.620;  614.942;  570.105
723.310;   20.472;  374.942;  210.104
723.574; -103.151; -654.058; -614.896
723.838;  -91.975; -576.057; -642.897
724.102;  -49.248; -226.057; -239.897
724.366; -144.996;-1032.057; -978.897
724.630; -114.219; -749.057; -571.898
724.894;  -76.792; -722.057; -514.898
725.158;  -16.640;   38.944; -295.898
725.422;  -51.939; -394.056; -327.899
725.685;  -65.112; -441.056; -349.899
725.949;  -87.835; -566.056; -519.900
726.213;  -86.333; -732.056; -811.900
726.477;  150.844;-1020.055; -933.900
726.740;  137.345; -274.055; -104.901
727.004;  308.122; -384.055; -510.901
727.268; 3360.024; -442.055; -400.901
727.531;  928.801; -961.055; -775.902
727.795;  -54.647; -713.054; -673.902
728.059;  -68.671; -552.054; -557.903
728.322;  -85.919; -841.054; -669.903
728.586;    9.758; -692.054; -701.903
728.849;  -90.390; -695.053; -756.904
729.112; -111.013; -812.053; -912.904
729.376; -133.812; -959.053; -905.904
729.639;  -74.060; -536.053; -536.905
729.903; -115.108; -733.053; -699.905
730.166;  -49.156; -437.052; -399.906
730.429;  -20.229; -317.052; -468.906
730.693;  -81.752; -355.052; -894.906
730.956;  196.324;  810.948;  651.093
731.219;  662.526; -310.052; -103.907
731.482;   92.003;-1003.051; -894.907
731.745;   81.905; -794.051; -935.908
732.009;   -3.918;  -30.051;   50.092
732.272;  -95.992; -904.051; -771.909
732.535;  -63.240; -300.051; -310.909
732.798; -146.888;-1083.050;-1166.909
733.061;  -63.236; -430.050; -456.910
733.324;   -0.534;   31.950; -180.910
733.587;   50.867;  290.950;  365.090
733.850;  -50.481; -973.049;-1050.911
734.113;   47.521;   33.951;   32.089
734.376;    7.973; -328.049; -447.912
734.639;  207.475; 1188.951; 1011.088
734.901;   69.826; -180.049; -402.912
735.164;  463.828; -883.048; -837.913
735.427; 1237.855; -166.048; -355.913
735.690;  104.107; -205.048; -234.913
735.952;  -31.116; -923.048; -925.914
736.215;  -46.614;-1113.048;-1009.914
736.478;   25.187; -771.047; -774.915
736.740;  199.889;   33.953;  129.085
737.003;  627.191; -658.047; -672.915
737.266; 3789.768;  -94.047;   46.084
737.528;  397.570; -682.047; -660.916
737.791;  305.321; -316.046; -327.916
738.053;  796.098;  465.954;  649.083
738.316;10789.425; -162.046; -136.917
738.578; 7621.877; -770.046; -736.918
738.841;  436.979; -382.046; -446.918
739.103;  182.605; -875.045; -777.918
739.365;  488.632;   79.955;  -69.919
739.628;  -13.791; -884.045; -805.919
739.890;  -26.964; -758.045; -710.919
740.152;  -45.337; -692.044; -754.920
740.414;  -14.811; -408.044; -359.920
740.677;  -46.034; -785.044; -634.921
740.939;  -47.407; -587.044; -487.921
741.201;  236.345; -432.044; -572.921
741.463;   16.222; -689.043; -745.922
741.725;   18.774;  -21.043; -199.922
741.987;   44.025;  220.957;  116.078
742.249;   -6.098; -751.043; -859.923
742.511;  178.104; -703.043; -794.923
742.773;    8.381; -546.042; -546.924
743.035;  122.433;  796.958;  533.076
743.297;  -62.691; -963.042;-1013.924
743.559;  693.686; -278.042; -262.925
743.821;   43.913; -735.042; -744.925
744.083;    7.165;  -44.041; -149.925
744.345;  -93.658; -869.041; -892.926
744.607;   21.493;   75.959;  122.074
744.868;  -56.380; -490.041; -554.927
745.130; -113.678; -994.041;-1008.927
745.392;   46.624;   -1.040;  -44.927
745.653;  -13.749; -411.040; -378.928
745.915;  140.727;  896.960;  631.072
746.177;   49.604;   35.960;  -43.928
746.438;   -7.719; -428.040; -543.929
746.700;  -52.442; -947.039; -988.929
746.961;    6.560; -659.039; -740.930
747.223;  120.787; -190.039;  -74.930
747.484;   86.288; -391.039; -471.930
747.746;  134.515;  -23.038; -106.931
748.007;   93.592; -647.038; -689.931
748.269;  287.769; -468.038; -440.931
748.530;  455.071; -852.038; -638.932
748.791;  245.222; -354.038; -420.932
749.053;  433.774;  286.963;  163.067
749.314;  414.651; -236.037; -169.933
749.575;  494.453; -945.037; -905.933
749.836;  827.905; -217.037;   86.066
750.098; 2375.431;  -60.037;  -21.934
750.359;35272.283;  414.964;  555.066
750.620; 9023.385; -121.036; -220.935
750.881;  991.537; -585.036; -513.935
751.142; 1301.564; -950.036; -938.936
751.403;16467.541; -789.036; -705.936
751.664; 7282.792;-1034.035; -999.936
751.925;  486.894; -175.035; -262.937
752.186;  269.871; -298.035; -278.937
752.447;  117.848; -590.035; -445.937
752.708;   37.650; -532.035; -648.938
752.969;   -5.074; -566.034; -576.938
753.230;   -1.122; -777.034; -672.939
753.491;  -26.970; -650.034; -631.939
753.751;   60.357;  109.966;   19.061
754.012;   92.609;  258.967;  181.060
754.273;   64.710; -174.033;  -71.940
754.534;   -1.138; -487.033; -580.940
754.794;  -91.886; -926.033; -911.941
755.055;  142.616; 1051.967;  881.059
755.316;  -36.557; -700.032; -566.942
755.576;  -41.681; -606.032; -576.942
755.837;  -43.554; -527.032; -695.942
756.097;  -41.577; -530.032; -564.943
756.358;  -69.050; -725.032; -770.943
756.618;  -58.398; -705.031; -641.943
756.879;   12.054; -254.031; -349.944
757.139; -125.795;-1098.031;-1116.944
757.400;  -53.218; -538.031; -553.945
757.660;  -26.266; -365.031; -401.945
757.920;   17.361; -266.030; -228.945
758.181;  -19.337; -468.030; -351.946
758.441;  -79.761; -870.030; -809.946
758.701;  -32.584; -308.030; -215.946
758.961;  -25.132; -220.030; -278.947
759.222;  -50.505; -574.029; -502.947
759.482;  -81.978; -683.029; -723.948
759.742;  -94.002; -706.029; -547.948
760.002;   12.325;  -83.029; -143.948
760.262;    8.327;   50.972;  182.051
760.522;  -48.296; -498.028; -574.949
760.782;  -53.969; -738.028; -612.949
761.042;  -38.318; -618.028; -573.950
761.302;   51.084;   55.972;  -18.950
761.562;   55.536; -164.027; -154.951
761.822;   76.513; -710.027; -551.951
762.082;  -40.760;-1104.027;-1093.951
762.342;   51.992; -328.027; -403.952
762.601;   74.493; -567.027; -506.952
762.861;  335.445; -281.026; -207.952
763.121;  399.947; -406.026; -411.953
763.381; 7344.474; -499.026; -485.953
763.640; 8114.626; -139.026; -307.954
763.900;  336.877; -242.026; -203.954
764.160;   74.129; -458.025; -491.954
764.419;  -20.244; -726.025; -782.955
764.679;  -65.217; -795.025; -726.955
764.939;  -32.790; -124.025; -210.955
765.198;  -63.714; -608.025; -563.956
765.458;  -87.562; -710.024; -612.956
765.717;  -78.335; -454.024; -590.957
765.976;  -56.183; -428.024; -411.957
766.236;  -80.906; -475.024; -610.957
766.495;    8.770;  260.977;   73.042
766.755; -108.203;-1090.023; -987.958
767.014;   -2.701; -594.023; -665.958
767.273;  -53.099; -373.023; -397.959
767.533;  -50.747; -228.023; -307.959
767.792;  -31.945; -151.022; -188.960
768.051;  -54.019; -228.022; -276.960
768.310;  -87.467; -546.022; -650.960
768.569;   -6.765; -161.022;    4.039
768.828;  -38.538; -285.022; -363.961
769.088; -121.336;-1050.021; -942.961
769.347;  -83.260; -755.021; -599.962
769.606; -106.983; -876.021; -857.962
769.865; -127.981;-1016.021;-1033.963
770.124;   -9.229; -411.021; -336.963
770.383;  -61.977; -778.020; -910.963
770.641;   -6.176; -398.020; -400.964
770.900;  -64.399; -953.020; -846.964
771.159;  -60.097; -851.020; -951.964
771.418;  -12.520; -917.020; -779.965
771.677;  134.232; -224.019; -293.965
771.936;  150.033; -794.019; -865.966
772.194; 2254.260; -465.019; -437.966
772.453;11214.162; -213.019; -391.966
772.712;  778.464;  416.982;  329.033
772.970;  114.916;   32.982;   63.033
773.229;   81.118;  -22.018;  102.033
773.488;  -83.356; -814.018; -770.968
773.746;   46.196;  296.982;  335.032
774.005;    9.773;  190.983;  -22.969
774.263;    7.200;  243.983;  177.031
774.522;  -41.623; -422.017; -548.969
774.780;  -81.247; -484.017; -417.970
775.039;  -82.995; -551.017; -531.970
775.297;  -33.318; -135.016; -351.970
775.555; -108.991; -489.016; -612.971
775.814; -120.589; -618.016; -570.971
776.072; -123.988; -749.016; -740.971
776.330;  -96.561; -630.016; -520.972
776.589; -112.759; -703.015; -721.972
776.847; -119.682; -645.015; -624.973
777.105; -163.130;-1016.015;-1032.973
777.363;  -89.579; -459.015; -454.973
777.621; -138.652; -660.015; -717.974
777.879;  -39.825;  -42.014;   32.026
778.138;  -86.748; -554.014; -717.974
778.396; -108.921; -585.014; -526.975
778.654; -172.869;-1015.014; -970.975
778.912;  -66.793; -269.014; -371.976
779.170; -136.991; -880.013; -803.976
779.427; -160.764; -922.013; -897.976
779.685; -134.512; -880.013; -832.977
779.943;  -76.585; -654.013; -593.977
780.201; -168.984; -964.012; -883.978
780.459; -129.257; -651.012; -610.978
780.717;  -88.455; -440.012; -390.978
780.974; -109.078; -449.012; -490.979
781.232;  -62.151; -358.012; -338.979
781.490;  -93.675; -551.011; -472.979
781.747; -103.423; -555.011; -476.980
782.005;    9.954;  462.989;  254.020
782.263; -156.069; -542.011;-1004.981
782.520;  -83.817; -326.011; -501.981
782.778; -178.015;-1013.010;-1051.981
783.035; -171.639; -962.010; -938.982
783.293;  -61.812; -248.010; -206.982
783.550;  -60.160; -134.010; -198.982
783.808; -130.358; -764.010; -776.983
784.065; -162.131; -745.009; -874.983
784.322;  -48.780;   25.991;  -86.984
784.580; -142.003; -915.009; -771.984
784.837;  -91.351; -392.009; -466.984
785.094; -139.349; -783.009; -762.985
785.352;  -88.147; -304.008; -404.985
785.609; -105.946; -934.008; -839.985
785.866;  -82.094; -345.008; -401.986
786.123;  -69.492; -639.008; -583.986
786.380;  -91.940; -665.008; -604.987
786.637;  -49.238; -225.007; -380.987
786.895;  -38.612; -456.007; -543.987
787.152;  -53.410; -135.007; -267.988
787.409;  -34.208; -123.007; -225.988
787.666;  -91.531; -299.006; -378.988
787.923; -118.004; -616.006; -695.989
788.179; -123.877; -551.006; -584.989
788.436; -112.676; -585.006; -585.990
788.693;  -28.699;  -92.006;  -87.990
788.950;  134.853; -125.005; -112.990
789.207;  186.680; -381.005; -372.991
789.464;  -46.168; -161.005; -301.991
789.720;  -21.592;  150.995;  110.009
789.977; -169.515;-1003.005; -671.992
790.234;  -37.013;   44.996;  -66.992
790.490; -138.961; -884.004;-1031.993
790.747;  -29.084;  -85.004;   22.007
791.004;  -24.883; -426.004; -348.993
791.260;  -82.356; -430.004; -560.994
791.517; -113.629; -843.003; -788.994
791.773;  -64.352; -379.003; -342.994
792.030;  -92.275; -596.003; -660.995
792.286;  -99.599; -686.003; -636.995
792.543;  -20.797;  -74.002; -159.995
792.799;  -64.420; -584.002; -382.996
793.055; -156.643;-1179.002;-1210.996
793.312; -103.466; -827.002; -816.997
793.568;  -65.564; -746.002; -599.997
793.824;    6.187; -226.001; -284.997
794.081;   26.889; -447.001; -508.998
794.337;   58.066; -664.001; -561.998
794.593; 1296.618; -319.001; -271.999
794.849; 6448.670; -746.001; -772.999
795.105;  326.021; -270.000; -261.999
795.361;    8.273; -490.000; -457.000
795.617;  -62.000; -875.000; -945.000
795.873;  -60.925; -360.000; -407.000
796.129;  -41.025; -368.000; -306.000
796.385;  -26.450; -124.000; -156.000
796.641;   78.175;  412.000;  550.000
796.897; -103.525; -666.000; -635.000
797.153;   65.850;  453.000;  357.000
797.409; -102.050; -785.000; -868.000
797.665;  -77.475; -625.000; -732.000
797.921;  -81.850; -775.000; -762.000
798.176;  -62.750; -744.000; -747.000
798.432;  -54.675; -824.000; -596.000
798.688;  -71.000;-1174.000;-1078.000
798.943;   75.650; -165.000; -147.000
799.199;    4.300;-1005.000; -959.000
799.455;  220.750;  369.000;  316.000
799.710;  123.850; -813.000; -380.000
799.966;  299.250; -162.000; -160.000
800.221;  489.875; -638.000; -721.000
800.477;10446.250; -743.000; -710.000
800.732; 9291.250; -773.000; -800.000
800.988;  652.525;  205.000;  -19.000
801.243; 1874.325; -454.000; -344.000
801.498; 8165.825; -814.000; -739.000
801.754;  482.050; -289.000; -163.000
802.009;   85.125; -257.000; -335.000
802.264;  -33.500; -967.000;-1033.000
802.520;   21.125;  222.000;   -3.000
802.775;  -53.050; -524.000; -359.000
803.030;   40.050;  395.000;  356.000
803.285; -129.250; -840.000; -903.000
803.540;  -56.675; -686.000; -699.000
803.795;  -36.500; -648.000; -583.000
804.051;  -43.625; -279.000; -346.000
804.306;   17.000;  168.000;  128.000
804.561;  112.225;  451.000;  362.000
804.816;  128.125;  714.000;  861.000
805.071;   -0.375; -185.000; -280.000
805.325;  202.900; -257.000; -427.000
805.580; -106.775; -841.000; -877.000
805.835;  -14.325; -204.000; -297.000
806.090;  -79.925; -760.000; -676.000
806.345;  -25.750; -344.000; -264.000
806.600;  -30.125; -549.000; -632.000
806.854;  -39.875; -408.000; -538.000
807.109;  -19.050; -493.000; -577.000
807.364;    0.475; -407.000; -328.000
807.618;  -12.025; -415.000; -381.000
807.873;   46.175; -470.000; -494.000
808.128;   93.800; -257.000; -518.000
808.382;   93.225; -224.000; -332.000
808.637;   57.675; -440.000; -511.000
808.891;  190.475; -257.000; -180.000
809.146;   75.050; -902.000; -794.000
809.400;  264.950; -848.000; -923.000
809.654;  297.600; -779.000; -551.000
809.909;  458.875; -841.000; -927.000
810.163; 6335.200; -813.000; -651.000
810.418;16388.700; -940.000; -861.000
810.672; 1015.800; -685.000; -690.000
810.926;  711.475; -993.000; -973.000
811.180; 1381.025; -439.000; -372.000
811.434;31878.600;  240.000;  135.000
811.689;12938.800; -231.000; -365.000
811.943;  609.425; -936.000; -953.000
812.197;  330.325; -893.000; -671.000
812.451;  113.700; -379.000; -514.000
812.705;  -23.825; -809.000; -619.000
812.959;    0.500; -263.000; -388.000
813.213;   -8.275; -283.000; -209.000
813.467;   56.625;  470.000;  253.000
813.721; -105.900; -764.000; -792.000
813.975; -112.500; -826.000; -877.000
814.229;   42.775;  430.000;  353.000
814.482;  -70.325; -517.000; -566.000
814.736; -120.950; -766.000; -744.000
814.990; -122.225; -779.000; -872.000
815.244;  -56.850; -228.000; -285.000
815.497;  -98.725; -636.000; -601.000
815.751;  -21.275; -141.000;   82.000
816.005;  -81.950; -470.000; -586.000
816.258;  -64.100; -510.000; -363.000
816.512; -110.675; -693.000; -610.000
816.766;  -10.950;  121.000;  157.000
817.019;   23.950;  148.000;  149.000
817.273; -124.000;-1000.000; -802.000
817.526;  -35.950; -206.000; -173.000
817.779;  -61.300;-1049.000; -960.000
818.033;  -75.850; -693.000; -807.000
818.286; -127.375; -725.000; -792.000
818.540;  -87.525; -403.000; -403.000
818.793;  -80.900; -402.000; -489.000
819.046;  -95.750; -582.000; -520.000
819.299;  -41.425; -157.000; -166.000
819.553; -108.975; -552.000; -592.000
819.806; -169.825;-1016.000; -838.000
820.059;  -57.425; -334.000; -354.000
820.312;   -2.425;  152.000;  185.000
820.565;  -12.500;  110.000;  -27.000
820.818;  -41.700;  -59.000; -173.000
821.071; -166.475;-1041.000; -957.000
821.324; -109.325; -536.000; -540.000
821.577; -101.300; -457.000; -483.000
821.830;  -78.000; -270.000; -172.000
822.083; -123.900; -733.000; -288.000
822.336;  -50.725; -261.000; -167.000
822.589; -127.650; -805.000; -688.000
822.842; -150.550; -875.000; -770.000
823.094; -168.100;-1076.000;-1114.000
823.347; -142.775; -925.000; -729.000
823.600;    7.600;  402.000;  187.000
823.853;  -72.800; -311.000; -267.000
824.105;  -80.925; -331.000; -575.000
824.358; -118.875; -617.000; -716.000
824.611;   26.625;  234.000;   40.000
824.863;  -63.175; -612.000; -591.000
825.116;   45.675;  -33.000;   27.000
825.368;   65.000; -366.000; -372.000
825.621;  146.950; -186.000; -240.000
825.873;   83.025; -704.000; -737.000
826.126;  564.575; -669.000; -641.000
826.378;11472.350; -389.000; -505.000
826.630; 2860.700; -890.000; -898.000
826.883;   45.050; -754.000; -693.000
827.135;   24.650; -279.000; -270.000
827.387; -122.650; -893.000; -839.000
827.639;  -27.475;  -86.000;   32.000
827.892; -124.800; -742.000; -582.000
828.144; -145.950; -848.000; -804.000
828.396;  -58.275;  104.000;  -80.000
828.648;  -99.975; -440.000; -333.000
828.900; -140.150; -702.000; -795.000
829.152; -120.300; -684.000; -683.000
829.404;  -71.275; -215.000; -267.000
829.656;  -46.950;  321.000;  214.000
829.908;  -39.550;  393.000;  229.000
830.160; -163.625;-1064.000;-1047.000
830.412; -106.775; -481.000; -430.000
830.664; -119.450; -557.000; -665.000
830.916;  -86.700; -268.000; -206.000
831.167; -187.175;-1073.000; -951.000
831.419; -108.725; -623.000; -566.000
831.671; -140.025; -764.000; -809.000
831.923;  -87.875; -311.000; -447.000
832.174;  -78.125; -273.000; -331.000
832.426; -119.900; -493.000; -582.000
832.678; -185.400;-1043.000;-1091.000
832.929; -163.075; -947.000; -935.000
833.181;  -70.725; -575.000; -677.000
833.432;  -50.775;  -59.000; -186.000
833.684;  -17.500;  112.000;  -27.000
833.935; -120.775; -610.000; -566.000
834.187; -115.875; -829.000; -823.000
834.438;  -53.075;  -58.000;  -25.000
834.689;  -60.625; -255.000; -123.000
834.941;  -69.975; -343.000; -244.000
835.192; -108.100; -590.000; -533.000
835.443; -107.525; -419.000; -506.000
835.695;  -16.900;  138.000;  -16.000
835.946; -109.350; -608.000; -378.000
836.197; -106.200; -599.000; -622.000
836.448;  -94.150; -528.000; -395.000
836.699;  -63.800; -253.000; -341.000
836.950;  -10.100;   72.000;    7.000
837.201; -145.025;-1003.000; -987.000
837.452;  -57.925; -356.000; -170.000
837.703; -117.150; -791.000; -737.000
837.954;  -46.900; -205.000; -365.000
838.205;  -76.925;-1029.000;-1008.000
838.456;  147.925; -196.000; -282.000
838.707;   -4.725; -423.000; -519.000
838.958;   -1.700; -634.000; -647.000
839.209;  253.525;   18.000;   40.000
839.460;   99.725; -439.000; -201.000
839.710;  164.450; -135.000; -297.000
839.961;  404.050;  730.000;  612.000
840.212;  330.850; -382.000; -497.000
840.462; 1110.425; -328.000; -277.000
840.713;17701.375; -571.000; -536.000
840.964; 7200.225;  -62.000; -143.000
841.214;  500.475; -384.000; -624.000
841.465;  526.975; -214.000; -141.000
841.715;  479.425; -417.000; -380.000
841.966;  611.025; -746.000; -685.000
842.216; 8455.150; -330.000; -431.000
842.466;32671.125; -169.000; -313.000
842.717; 1818.875; -964.000; -952.000
842.967;  281.950; -635.000; -641.000
843.217;  252.650;   20.000;   28.000
843.468;   65.300; -104.000; -132.000
843.718;  -26.800; -718.000; -726.000
843.968;  -98.850; -837.000; -765.000
844.218;    7.825; -315.000; -262.000
844.469;  -58.550; -577.000; -561.000
844.719; -104.450; -537.000; -682.000
844.969;  -98.575; -550.000; -580.000
845.219; -138.000; -814.000; -862.000
845.469;  -76.700; -392.000; -342.000
845.719; -131.125; -792.000; -884.000
845.969;  -16.050;  119.000;  174.000
846.219; -115.925; -738.000; -720.000
846.469;    8.600;  464.000;  432.000
846.718;  -53.500; -115.000;   31.000
846.968; -141.575; -827.000; -827.000
847.218;  -54.600; -224.000; -371.000
847.468;    1.375; -586.000; -555.000
847.718; -145.525; -827.000; -798.000
847.967; -145.225; -826.000; -915.000
848.217;  -88.050; -449.000; -569.000
848.467;  -65.375; -405.000; -376.000
848.716; -106.825; -708.000; -725.000
848.966;  -10.550; -372.000; -358.000
849.215;  -53.400; -428.000; -419.000
849.465; -103.775; -785.000; -615.000
849.714; -136.575;-1132.000;-1150.000
849.964;  -80.075; -551.000; -613.000
850.213;  -33.550; -393.000; -355.000
850.463;   70.525;  137.000;  340.000
850.712;    4.400; -542.000; -567.000
850.961;   14.375; -739.000; -678.000
851.211;   93.650; -513.000; -504.000
851.460;  167.825; -635.000; -650.000
851.709;  577.575;  -25.000;   18.000
851.958;10284.200; -912.000; -750.000
852.208;12713.050; -859.000; -879.000
852.457;  471.725; -181.000;  -13.000
852.706;   73.550; -791.000; -823.000
852.955;    8.300; -507.000; -528.000
853.204;  -75.200; -521.000; -461.000
853.453;  -83.450; -418.000; -458.000
853.702; -130.825; -660.000; -750.000
853.951; -118.425; -532.000; -520.000
854.200; -116.800; -613.000; -562.000
854.449; -138.175; -695.000; -661.000
854.698;  -91.975; -340.000; -279.000
854.946;  -67.325; -181.000; -284.000
855.195; -154.775; -843.000; -868.000
855.444;  -94.550; -395.000; -420.000
855.693; -112.475; -345.000; -432.000
855.941; -133.375; -387.000; -516.000
856.190;  -50.325; -256.000; -382.000
856.439; -142.500; -652.000; -703.000
856.687;  -68.775;  -99.000;  -72.000
856.936; -116.000; -621.000; -323.000
857.184; -182.400;-1067.000;-1020.000
857.433; -106.875; -423.000; -512.000
857.681; -167.675; -989.000; -953.000
857.930;  -83.425; -282.000; -433.000
858.178; -173.650; -856.000; -929.000
858.427; -153.375; -802.000; -781.000
858.675; -110.625; -377.000; -544.000
858.923; -119.675; -527.000; -819.000
859.172; -181.825;-1094.000;-1070.000
859.420; -108.300; -339.000; -239.000
859.668; -137.550; -624.000; -628.000
859.916;  -44.475;  109.000;  115.000
860.164; -115.750; -699.000; -603.000
860.413;  239.250; -878.000; -696.000
860.661;  190.750; -709.000; -577.000
860.909;  -93.150; -339.000; -325.000
861.157;  -92.700; -277.000; -444.000
861.405; -138.575; -534.000; -670.000
861.653;   12.575;  310.000;  310.000
861.901;  140.700; -543.000; -613.000
862.149;  -10.100; -801.000; -824.000
862.396;  -82.450; -297.000; -187.000
862.644;  -99.500; -368.000; -347.000
862.892;  -52.475;   98.000;  138.000
863.140; -110.325; -549.000; -530.000
863.388; -162.750; -815.000; -759.000
863.635; -131.125; -642.000; -601.000
863.883;  -24.225;  231.000;  190.000
864.131; -107.200; -288.000; -357.000
864.378; -144.700; -675.000; -540.000
864.626; -104.350; -347.000; -415.000
864.873; -116.350; -556.000; -505.000
865.121; -147.575; -714.000; -799.000
865.368;  -58.425; -173.000;   75.000
865.616;  -41.450;  -33.000;  -40.000
865.863;  -83.825; -462.000; -506.000
866.111; -110.425; -795.000; -824.000
866.358;   33.225; -426.000; -420.000
866.605; 2385.200;  -64.000; -804.000
866.853; 2458.250; -621.000; -537.000
867.100;  -29.125; -728.000; -775.000
867.347; -110.325; -672.000; -611.000
867.594;  -98.025; -740.000; -714.000
867.841;   71.850;   97.000;   17.000
868.089; -151.500; -746.000; -698.000
868.336; -113.500; -477.000; -420.000
868.583; -145.375; -637.000; -741.000
868.830;  -66.875; -131.000; -170.000
869.077; -162.200; -859.000; -787.000
869.324; -142.125; -502.000; -458.000
869.571; -139.450; -398.000; -430.000
869.818; -124.900; -485.000; -439.000
870.065;  -98.725; -439.000; -513.000
870.311; -117.475; -456.000; -542.000
870.558; -104.975; -332.000; -311.000
870.805; -103.100; -320.000; -384.000
871.052; -107.900; -494.000; -369.000
871.298;  -68.525; -204.000; -131.000
871.545;  -69.600; -151.000; -185.000
871.792;  -98.700; -173.000; -222.000
872.038;  -57.525;   43.000; -126.000
872.285; -128.600; -496.000; -387.000
872.532;  -89.600; -357.000; -387.000
872.778;    3.550;  556.000;  403.000
873.025; -104.075; -384.000; -359.000
873.271;   10.750;  501.000;  578.000
873.517;  -26.875; -133.000; -209.000
873.764;  -38.550; -193.000;  -80.000
874.010;  -72.025; -143.000; -230.000
874.257;  -44.950;  123.000;   90.000
874.503; -139.500; -579.000; -479.000
874.749;  -77.525;   31.000;  275.000
874.995;  -81.875;  -80.000;  -20.000
875.242; -136.875; -540.000; -478.000
875.488; -102.700; -414.000; -439.000
875.734;  -58.400; -106.000; -234.000
875.980;  155.925; -872.000;-1032.000
876.226;  325.000; -157.000; -255.000
876.472;  -12.625;  343.000;  237.000
876.718;  -58.675;  184.000;  158.000
876.964;  -34.050;   56.000;   55.000
877.210; -140.375; -547.000; -677.000
877.456; -146.600; -630.000; -557.000
877.702; -180.525; -821.000; -832.000
877.948; -110.650; -377.000; -497.000
878.193;   -4.000;  361.000;  255.000
878.439; -114.025; -487.000; -472.000
878.685; -124.775; -272.000; -343.000
878.931; -133.975; -618.000; -676.000
879.176;  -92.350; -201.000; -201.000
879.422; -173.675; -933.000; -820.000
879.668;   59.500;   10.000;   79.000
879.913;  133.150;   53.000;  137.000
880.159;  -64.425; -112.000;  -17.000
880.404;  -53.325; -152.000; -162.000
880.650;  -57.750;   91.000;  141.000
880.895; -159.525; -670.000; -710.000
881.141; -129.500; -454.000; -428.000
881.386; -138.200; -503.000; -658.000
881.631;  -85.075; -311.000; -166.000
881.877;  -34.925;  112.000;  -13.000
882.122; -138.825; -684.000; -600.000
882.367;  -86.300; -136.000; -186.000
882.612;  -79.225;  -80.000; -176.000
882.858; -170.975; -877.000; -823.000
883.103; -107.800; -297.000; -267.000
883.348; -152.975; -759.000; -852.000
883.593; -159.525; -677.000; -602.000
883.838;  -59.450; -311.000;  -24.000
884.083;   26.600;  353.000;  288.000
884.328; -109.125; -564.000; -545.000
884.573;  -59.500; -196.000; -143.000
884.818;  165.500; -694.000; -531.000
885.063;  151.750; -348.000; -315.000
885.308; -108.050; -475.000; -398.000
885.553;   -5.775;  245.000;  325.000
885.797; -137.975; -545.000; -615.000
886.042;  -63.975;    8.000;   58.000
886.287;  -91.450; -253.000; -211.000
886.532;  -68.450;   26.000;  204.000
886.776;  -98.900; -407.000; -525.000
887.021; -152.025; -621.000; -574.000
887.265; -159.075; -685.000; -689.000
887.510; -148.350; -557.000; -496.000
887.755;  -86.325; -194.000; -164.000
887.999; -137.225; -552.000; -575.000
888.244;  -64.900;  -58.000;  161.000
888.488;   -2.975;  371.000;  393.000
888.732; -135.800; -368.000; -520.000
888.977; -128.075; -622.000; -567.000
889.221; -153.800; -683.000; -659.000
889.465; -115.150; -422.000; -566.000
889.710;  -77.800;  -56.000; -299.000
889.954;   -5.575;  579.000;  467.000
890.198; -137.700; -584.000; -707.000
890.442; -149.000; -716.000; -712.000
890.687; -174.250; -800.000; -753.000
890.931; -104.000; -273.000; -210.000
891.175; -142.475; -502.000; -500.000
891.419;  -80.800; -105.000; -110.000
891.663;  -90.175; -239.000; -112.000
891.907; -170.650; -801.000; -545.000
892.151; -170.525; -920.000; -815.000
892.395; -125.000; -274.000; -387.000
892.638;  -18.225;  408.000;  291.000
892.882; -180.625; -780.000; -867.000
893.126;   11.150;  758.000;  558.000
893.370; -103.375; -167.000; -168.000
893.614; -159.150; -714.000; -715.000
893.857; -114.425; -183.000; -197.000
894.101; -141.575; -527.000; -631.000
894.345;  -60.300;  300.000;  150.000
894.588;   17.075;  569.000;  380.000
894.832;  -93.375; -178.000;  -84.000
895.075;  -79.575;   15.000;  -92.000
895.319; -148.950; -552.000; -420.000
895.563; -112.600; -413.000; -353.000
895.806; -147.575; -628.000; -741.000
896.049;  -70.425; -576.000; -368.000
896.293;   77.925;  527.000;  405.000
896.536;  -72.925; -465.000; -468.000
896.779;  -70.325; -149.000;   -1.000
897.023; -147.875; -751.000; -714.000
897.266;  -28.800;  325.000;  269.000
897.509; -177.075; -900.000; -901.000
897.752;  -53.900;  149.000;  171.000
897.996; -191.325; -972.000; -864.000
898.239;  -46.925;  168.000;  102.000
898.482; -129.800; -431.000; -453.000
898.725;  -42.275;  101.000;   53.000
898.968; -147.625; -609.000; -744.000
899.211; -118.350; -513.000; -361.000
899.454; -113.200; -633.000; -539.000
899.697;  -82.675;   90.000;  -43.000
899.940; -174.500; -761.000; -757.000
900.182; -111.375; -335.000; -405.000
900.425; -101.775; -150.000; -298.000
900.668;  -22.300;  491.000;  350.000
900.911; -115.325; -292.000; -345.000
901.154;  -58.175;  141.000;   -3.000
901.396; -141.875; -407.000; -412.000
901.639; -133.400; -430.000; -496.000
901.882; -192.800; -790.000; -809.000
902.124;  -94.025;  -29.000; -143.000
902.367; -120.250; -315.000; -361.000
902.609; -145.150; -476.000; -453.000
902.852;  -92.550; -108.000; -260.000
903.094; -132.950; -458.000; -337.000
903.337;  -72.675;  -26.000;   53.000
903.579; -124.375; -228.000; -441.000
903.821; -164.100; -597.000; -744.000
904.064;  -63.325;   85.000;  127.000
904.306;  -78.350; -126.000; -166.000
904.548; -111.125; -152.000; -366.000
904.790; -102.875; -195.000; -340.000
905.033; -138.225; -625.000; -577.000
905.275; -125.450; -513.000; -524.000
905.517;   30.250;  468.000;  256.000
905.759;  -80.700; -667.000; -761.000
906.001; -112.475; -322.000; -369.000
906.243;  -67.050; -162.000; -224.000
906.485;  106.375; -265.000; -207.000
906.727;   89.575; -499.000; -542.000
906.969;  -38.300;  -30.000; -135.000
907.211;   91.325; -316.000; -382.000
907.453;  228.875; -188.000; -237.000
907.695;   -6.750; -158.000; -385.000
907.936;   34.875;  818.000;  706.000
908.178;  -62.025;   92.000; -135.000
908.420;  -80.625; -111.000; -162.000
908.662; -135.225; -633.000; -682.000
908.903;  -90.350; -208.000; -123.000
909.145;  -70.000; -240.000; -305.000
909.386;    1.175;  315.000;  280.000
909.628;   41.125;  363.000;  397.000
909.870;   -7.900;   29.000;  264.000
910.111; -110.400; -809.000; -949.000
910.353;   -2.750; -123.000; -161.000
910.594;   14.375; -574.000; -606.000
910.835;   69.850; -265.000; -326.000
911.077;  130.725; -503.000; -604.000
911.318;  266.350; -505.000; -471.000
911.559;  459.900; -577.000; -880.000
911.801; 1323.200; -284.000; -280.000
912.042;10303.800;  -50.000; -159.000
912.283;26833.575;  404.000;  371.000
912.524; 4091.500; -396.000; -457.000
912.765;  464.875; -193.000;   79.000
913.006;  213.350; -307.000; -338.000
913.247;   43.225; -270.000; -290.000
913.488;  -15.450;  -43.000;   30.000
913.729;  -81.350; -373.000; -373.000
913.970;  -65.850;  -96.000; -292.000
914.211;  -85.050; -160.000; -198.000
914.452;  -64.775; -118.000;  -11.000
914.693;   10.625;  510.000;  592.000
914.934;    5.025;  510.000;  440.000
915.175;  -66.625;   53.000;  -95.000
915.415;  -79.725; -137.000;   27.000
915.656;  -65.800;  -28.000;  192.000
915.897;  -97.125; -252.000;  -82.000
916.137;  -83.675;   74.000;   -9.000
916.378; -140.225; -573.000; -517.000
916.619;  -92.100; -159.000;  -63.000
916.859;  -29.950;  303.000;  330.000
917.100;  130.050; 1655.000; 1070.000
917.340;   52.950;  930.000;  728.000
917.581;   42.500;  965.000;  789.000
917.821;  -18.000; -171.000;  143.000
918.061;   -7.550; -199.000;  -72.000
918.302;  -45.675; -152.000; -211.000
918.542;  -36.300;  -22.000;    3.000
918.782;   52.225;  369.000;  377.000
919.023;  107.325;  360.000;  427.000
919.263; 1710.125; 8131.000;  202.000
919.503; 1080.075; -137.000;  -54.000
919.743;  586.975;  390.000;  266.000
919.983;  235.000; -134.000;  -26.000
920.223;   77.725;  135.000;   14.000
920.463;  136.025;  631.000;  554.000
920.703;  123.000;   84.000;   39.000
920.943;  155.250; -110.000;   90.000
921.183;  248.900; -414.000; -405.000
921.423;  505.425;  307.000;  546.000
921.663;  725.125; -174.000; -257.000
921.903; 1578.500;  237.000;  173.000
922.143; 8838.275;  372.000;  389.000
922.383;34234.850;  158.000;  115.000
922.622;11529.000; -120.000;  -15.000
922.862; 1244.725;  796.000;  785.000
923.102;  487.300;  -51.000;   33.000
923.341;  192.925;   59.000;   74.000
923.581;  110.275;  450.000;  360.000
923.821;   15.575;  301.000;  398.000
924.060;   11.725;  351.000;  193.000
924.300;  -75.525;  -16.000; -128.000
924.539;   -8.275;  584.000;  473.000
924.779;   11.875;  812.000;  597.000
925.018;  -37.400;  247.000;  353.000
925.257;    2.700;  595.000;  666.000
925.497;  -36.300;  447.000;  412.000
925.736;  -79.325;  -35.000;  102.000
925.975;   -6.150;  687.000;  669.000
926.214;   22.800;  907.000;  850.000
926.454;   17.525;  706.000;  757.000
926.693;  -48.800;  419.000;  543.000
926.932;   32.725; 1021.000;  825.000
927.171;   45.225; 1107.000; 1044.000
927.410;   52.200; 1144.000;  967.000
927.649;   28.700;  924.000;  742.000
927.888;   -7.100;  590.000;  564.000
928.127;  -11.175;  680.000;  678.000
928.366;   18.600;  842.000;  826.000
928.605;   23.800;  831.000;  737.000
928.844;  242.050; 1451.000; 1393.000
929.083;  578.250;  770.000;  613.000
929.321;  316.600; 1335.000; 1359.000
929.560;   81.525; 1158.000; 1122.000
929.799;  -15.550;  574.000;  475.000
930.038;   74.375; 1025.000; 1394.000
930.276;  -40.125;  334.000;  397.000
930.515;    3.750;  827.000;  681.000
930.753;  -29.925;  614.000;  589.000
930.992;  -12.850;  664.000;  717.000
931.230;   -9.150;  847.000;  847.000
931.469;  171.425; 2162.000;  892.000
931.707;   73.850;  840.000;  751.000
931.946;   59.025; 1278.000; 1344.000
932.184;   76.625; 1437.000; 1175.000
932.423;   43.975; 1265.000;  963.000
932.661;   94.400; 1296.000; 1428.000
932.899;   28.700;  987.000;  821.000
933.137;   -3.525;  754.000;  564.000
933.376;  148.750; 1664.000; 1335.000
933.614;  166.750; 1759.000; 1196.000
933.852;   49.875; 1357.000; 1171.000
934.090;  130.825; 1722.000; 1747.000
934.328;  112.675; 1252.000; 1457.000
934.566;   96.850; 1431.000; 1110.000
934.804;  135.150; 1263.000; 1309.000
935.042;  473.400; 1861.000; 1850.000
935.280; 1925.950; 2088.000; 2063.000
935.518; 1803.650; 2113.000; 2007.000
935.756;  377.225; 2481.000; 2316.000
935.994;  178.050; 1808.000; 1751.000
936.231;  337.500; 2890.000; 2950.000
936.469;  199.850; 2367.000; 2378.000
936.707;  152.125; 2220.000; 2167.000
936.945;  226.050; 2825.000; 2882.000
937.182;  202.050; 2679.000; 2741.000
937.420;  299.100; 3602.000; 3031.000
937.657;  391.250; 3365.000; 3478.000
937.895;  349.125; 3331.000; 3488.000
938.133;  310.750; 3540.000; 3528.000
938.370;  325.600; 3896.000; 4191.000
938.607;  395.025; 4488.000; 4205.000
938.845;  559.050; 5587.000; 5549.000
939.082;  482.175; 5387.000; 5177.000
939.320;  542.675; 5799.000; 5728.000
939.557;  642.450; 6549.000; 6491.000
939.794;  704.475; 7285.000; 7097.000
940.031;  895.550; 8421.000; 8368.000
940.269; 1082.575; 9552.000; 9107.000
940.506; 1117.825;10901.000;10507.000

