
Integration time [ms]: 100.000
Averaging Nr. [scans]: 40
Smoothing Nr. [pixels]: 0
Data measured with spectrometer [name]: 2101013U2
Wave   ;Sample   ;Dark     ;Reference
[nm]   ;[counts] ;[counts] ;[counts] 

394.013;   47.659; -450.257; -315.536
394.305;  176.332; -461.258; -419.536
394.596; 1112.628; -676.269; -527.514
394.887; 2794.045; -796.268; -654.518
395.178; 1095.126;  145.736;   11.476
395.470;   70.262; -210.263; -356.526
395.761;  178.710;  305.734;  394.479
396.052;  235.427; -545.284; -306.489
396.343;  247.998; -557.276; -454.503
396.634;   89.641; -200.279; -290.497
396.926;   85.292; -618.268; -565.517
397.217;  106.102;   11.725;  -17.504
397.508;   45.418; -366.273; -154.507
397.799;   40.541; -555.279; -571.497
398.090;  -22.765; -973.280; -902.495
398.381;   77.752;   11.708;  -11.473
398.672;  -15.697; -585.292; -742.473
398.963;   34.022; -348.279; -373.498
399.254;   98.562;   54.709; -209.475
399.545;  -36.043;-1017.266; -883.520
399.836;   63.537; -407.277; -343.501
400.127;   48.353; -205.295; -209.468
400.418;   47.888; -423.274; -392.506
400.709;   42.398; -359.281; -333.493
401.000;   40.941; -268.291; -309.476
401.290;  107.989;  225.698;  115.545
401.581;   51.685; -166.286; -228.485
401.872;    8.425; -542.298; -486.462
402.163;   35.346; -313.296; -252.467
402.454;   97.988; -123.291; -163.475
402.744;   55.537; -844.297; -813.465
403.035;  383.643; -226.293;  -86.471
403.326;  514.906; -366.292; -384.474
403.617;  336.844;  204.701;  165.539
403.907;  252.383; -593.283; -679.490
404.198; 2449.868; -545.307; -599.446
404.489; 6378.788; -618.283; -588.491
404.779; 2096.118; -618.302; -660.456
405.070;  223.196;  -67.304; -174.451
405.360;  347.920; -259.293; -238.472
405.651;  369.654;  125.699;   98.542
405.942;  172.930;  209.714;  127.516
406.232;  210.095; -432.285; -413.487
406.523;  424.063;  641.706;  758.530
406.813;   70.082; -579.286; -644.484
407.104;  300.251;  261.708;  144.527
407.394;  144.221; -604.299; -591.462
407.685;  163.769;  336.715;  222.513
407.975;   42.387; -400.283; -382.490
408.265;  129.327; -134.289; -190.478
408.556;   44.985; -472.291; -459.475
408.846;  163.239;  474.706;  429.530
409.137;   86.311;   -1.288; -216.480
409.427;   48.795; -193.285; -271.487
409.717;   23.471; -776.273; -692.508
410.007;  145.288;    4.715; -170.486
410.298;   83.106; -360.295; -342.469
410.588;   71.417; -495.285; -510.486
410.878;   17.222; -792.287; -873.482
411.168;  102.652; -481.298; -478.463
411.459;  107.106; -295.283; -242.489
411.749;   53.933; -609.292; -507.474
412.039;   56.684; -755.289; -386.480
412.329;  201.654;   40.722;  132.501
412.619;  175.583;  -62.286; -148.485
412.909;  352.580;  639.711;  594.521
413.199;  321.536; -130.280; -251.495
413.490;  381.196;  521.710;  352.523
413.780;  134.090;-1013.279; -913.496
414.070;  324.974;  -46.276;  235.497
414.360;  345.301; -729.278; -666.498
414.650;  431.818; -726.288; -688.482
414.940;  541.214; -538.280; -441.496
415.230;  923.690;   50.712;   74.519
415.520; 6166.452;  155.730;   66.486
415.809;24363.147; -305.281; -125.493
416.099;19019.914; -388.277; -229.501
416.389; 5382.260;  435.726;  236.494
416.679; 3187.591;   91.738;   85.473
416.969;  558.902; -527.287; -503.483
417.259;  597.542;  341.721;  171.503
417.549;  681.571;  522.718;  318.508
417.838; 1683.369; -205.268; -147.518
418.128; 5644.476;  650.710;  492.522
418.418; 4749.353; -491.272; -579.509
418.708; 3177.910;    9.726;  -48.506
418.997;12021.131; -474.275; -480.505
419.287;12634.967; -733.273; -790.507
419.577;11923.106; -160.283; -123.489
419.866;39417.487; -588.277; -498.501
420.156;40217.798; -242.270;  -55.513
420.446; 7240.458; -112.263;  -26.526
420.735;  815.917; -376.271; -446.512
421.025;  830.125; 1830.722;  315.502
421.314;  616.990; -203.271; -226.512
421.604; 1242.037;   89.732;  233.484
421.893;  718.437; -705.271; -602.511
422.183;  235.308; -487.263; -461.526
422.472;  367.688;  -36.271; -107.511
422.762;  432.887; -416.266; -379.521
423.051;  249.449; -916.276; -916.503
423.341;  306.794; -491.273; -439.507
423.630;  384.693; -121.265;   15.477
423.919;  383.806;   58.725;   49.495
424.209;  376.389;  -31.263;   56.473
424.498;  513.692;   68.732;  161.483
424.787; 1096.898; -535.267; -601.518
425.077; 3380.742;   34.735;   29.478
425.366; 4654.019; -734.262; -744.528
425.655;10231.095;  639.727;  259.493
425.945;22909.249; -313.247; -268.554
426.234;12780.767;  117.741;  300.467
426.523; 5148.822;  -86.259; -350.534
426.812; 7117.508;  107.734;  159.480
427.101;10530.309; -127.269; -323.515
427.390;13156.752;  -55.270;  -86.514
427.680; 2838.542; -624.257; -411.538
427.969;  466.928; -330.255; -301.540
428.258;  292.084; -385.257; -477.536
428.547;  517.332;  449.728;  397.490
428.836; 1155.794; -421.253; -398.543
429.125; 1635.199; -199.259;  -72.534
429.414;  774.192; -330.251; -294.548
429.703; 3192.242; -231.251; -213.548
429.992; 9581.446; -938.250; -828.549
430.281; 6318.801; -397.264; -331.524
430.570;  567.982;  -21.252;   32.454
430.859;  508.372;  279.741;  352.466
431.148;  400.545;  636.752;  631.446
431.437;  292.182;  391.748;  367.454
431.725;  144.310; -544.257; -481.536
432.014;  137.102; -845.253; -756.545
432.303;  360.946; -149.239; -105.569
432.592;  574.883; -460.263; -178.525
432.881; 1042.771; -601.248; -437.554
433.169; 6412.154; -343.255;  -61.540
433.458;13019.255;  445.765;  540.424
433.747; 5448.200; -397.261; -289.529
434.036;  854.072; -275.242; -280.564
434.324; 2084.833; -395.249; -379.551
434.613; 3707.240;   40.757;  159.437
434.902; 1238.386;  333.760;  439.433
435.190;  481.445;   75.761;  295.431
435.479;  268.847;  -52.245;   83.441
435.767;   89.380; -411.244; -427.561
436.056;  206.017; -340.242; -294.563
436.345;  356.813; -372.240; -223.568
436.633;  386.353;   60.750;  383.450
436.922;  238.340;  208.760;  414.432
437.210;  480.645; -194.236;    1.426
437.499; 1523.628; -583.235; -432.576
437.787; 1711.894; -339.236;  -10.574
438.075;  442.875;   56.761;  162.430
438.364;  596.378;  -44.238;  250.429
438.652;  366.008; -286.226; -138.592
438.941;  117.922;    3.770;  269.415
439.229;  -10.945; -665.252; -466.545
439.517;   22.561; -160.234;  -85.577
439.806;   -8.401; -501.225; -290.595
440.094;  177.169;  377.766;  650.421
440.382;  164.148; -653.233; -302.580
440.670;  175.152; -361.235; -285.576
440.959;   11.866; -347.223; -170.599
441.247;   70.408; -151.229; -109.587
441.535;   84.160; -266.235;   31.423
441.823;   33.541; -497.234; -305.578
442.111;  170.112;  173.771;  327.412
442.400;  448.571; -628.245; -335.559
442.688; 1149.118; -111.234; -620.579
442.976;  812.129; -786.213; -450.617
443.264;   88.730; -324.224; -364.597
443.552;   88.984; -258.226;   51.408
443.840;  164.733;  602.765;  876.423
444.128;  118.747;  265.767;  269.420
444.416;   -0.410; -694.228; -312.588
444.704;   11.821; -465.219;  -92.605
444.992;   69.937;   -0.226;  240.407
445.280;   44.472; -517.230;  -94.585
445.568;   18.083; -694.212; -396.618
445.856;  305.555; -174.221;  357.398
446.143;  630.142;  -54.220;   -7.604
446.431;  533.219;  -25.228;  625.411
446.719;  226.115;  489.783;  675.391
447.007;  176.642;  481.769;  705.416
447.295;  177.788;  597.777;  871.402
447.583;   92.731; -464.229;  -34.587
447.870;  139.552; -434.221; -202.601
448.158;  356.371; -104.230;  129.415
448.446;  271.468; -800.219; -338.604
448.733;  151.057;   13.776;  269.403
449.021;  222.607;   60.788;  341.382
449.309;  165.447; -296.210;  208.379
449.596;  200.911;  128.783;   59.392
449.884;  143.670; -571.222; -325.600
450.172;  161.149; -756.227; -406.590
450.459;  461.537;  645.786;  780.387
450.747; 2504.060; -411.218; -147.608
451.034; 8033.220;  493.772;  889.411
451.322; 6646.740; -413.214; -170.614
451.609;  559.908;  292.777;  508.403
451.897;  595.211; -550.203; -183.634
452.184; 1867.038; -622.223; -400.598
452.472; 1767.594;   97.792;  269.375
452.759;  341.619;  512.781;  864.395
453.047;  109.305; -407.212; -125.617
453.334;   51.402; -732.219; -216.606
453.621;   65.393; -438.214; -161.615
453.909;   99.753;   13.796;  384.368
454.196;   90.623; -299.199; -123.641
454.483;  191.649;  317.798;  540.364
454.771;  123.322; -215.208;  196.374
455.058;   36.775; -316.207;  102.374
455.345;  100.828;   71.807;  344.347
455.632;   87.053; -128.207;  235.373
455.919;   40.921;  -82.196;  182.354
456.207;  -64.522; -774.198; -450.642
456.494;   -7.864; -475.200;  -66.639
456.781;   -6.756; -399.202; -198.635
457.068;   45.185; -253.206;  -29.628
457.355;  -26.714; -698.206; -401.629
457.642;    3.292; -552.205; -290.630
457.929;    5.420; -778.194; -417.651
458.216;   51.605; -575.212; -354.617
458.503;  249.649; -173.193;  -19.652
458.790;  245.970; -864.208; -630.625
459.077;  280.199;  -77.202;  110.364
459.364;  825.012; -350.195; -210.649
459.651; 1765.958;  -46.206;  220.372
459.938;  805.935; -864.209; -665.623
460.225;  139.377;  132.799;  276.363
460.512;  -46.132; -836.197; -688.645
460.799;  100.209;  -32.218;  320.392
461.086;   66.390; -370.200; -251.640
461.372;   19.953; -509.198; -279.642
461.659;   95.322; -165.196;  108.354
461.946;   36.598; -445.193;  -54.651
462.233;  239.538;  842.800;  888.361
462.519;  344.160; -814.201; -464.639
462.806; 1019.443; -768.197; -497.645
463.093;  881.069; -445.191;  -66.656
463.380;  -42.115; -920.186; -824.664
463.666;   31.195; -259.197;  -18.646
463.953;   99.307; -406.195; -243.648
464.239;  180.882; -173.195;  -77.648
464.526;  381.768;  413.806;  743.350
464.813;  324.055; -565.190; -304.658
465.099;  336.874;  606.807;  607.348
465.386;  325.478;  903.807;  921.348
465.672;   -1.256; -694.197; -522.645
465.959;    2.348; -598.188; -520.662
466.245;   -7.697; -468.193; -359.652
466.532;   68.530; -109.195;   63.352
466.818;   44.485; -357.186; -216.664
467.104;  -12.225; -488.182; -415.672
467.391;  -19.318; -628.189; -459.658
467.677;   16.788; -289.186;    9.335
467.964;    2.314; -682.189; -471.660
468.250;   36.641; -331.186; -160.665
468.536;   64.483;   90.811;  180.341
468.822;  -38.572; -821.184; -574.668
469.109;  139.506;  351.827;  471.311
469.395;  183.888;  729.808;  787.346
469.681;  185.336;   46.811;  156.341
469.967; 1286.566; -699.188; -382.660
470.254; 2766.874; -494.188; -306.662
470.540; 1774.221; -601.196; -476.646
470.826;  252.561; -488.181; -397.675
471.112;  303.206;  288.816;  113.331
471.398;   77.761; -253.183;  -58.670
471.684;   26.114; -626.177; -447.680
471.970;    2.315; -918.180; -981.675
472.256;   23.162; -521.192; -441.654
472.542;   -2.183; -499.171; -434.691
472.828;    5.796; -743.182; -607.672
473.114;   20.961; -380.166; -283.700
473.400;    0.306; -504.175; -293.684
473.686;   27.492; -452.166; -400.701
473.972;   55.646; -230.174; -131.687
474.258;  -36.969; -925.173; -843.689
474.544;  215.681; -183.178;   -2.679
474.830;  321.933;  -65.175;   45.316
475.116;  504.132; -123.190; -196.658
475.401;  697.867; -558.180; -467.676
475.687;  210.716; -725.180; -718.676
475.973;   -0.896; -673.181; -770.673
476.259;  245.685;  736.825;  764.315
476.544;  361.098; -539.176; -437.682
476.830;  873.113; -398.172; -322.690
477.116;  765.321; -430.177; -336.682
477.401;  137.542;  346.820;  358.324
477.687;  -24.619; -289.175; -405.684
477.973;   17.907;   21.819;   28.326
478.258;  -18.513; -448.163; -348.706
478.544;   51.821;   21.815;   61.334
478.829;  -71.653; -818.171; -738.692
479.115;  -50.937; -749.172; -651.690
479.401;  -17.259; -444.174; -449.686
479.686;   32.316; -253.180;  -74.676
479.972;  -33.014; -886.178; -776.680
480.257;   31.962; -258.166;  -65.700
480.542;   -5.649; -614.170; -469.693
480.828;  228.429; 1288.824; 1392.317
481.113;  -29.048; -464.176; -426.683
481.399;  -15.039; -236.161; -202.711
481.684;  -54.564; -620.166; -462.700
481.969;   30.250; -158.159;  -73.713
482.255;  -20.638; -439.169; -285.695
482.540;   -6.463; -569.178; -441.680
482.825;    5.955; -395.187; -404.663
483.110;  106.915;  -85.169; -105.696
483.396;  192.021; -840.157; -652.718
483.681;  518.771;  543.826;  730.313
483.966;  159.044; -696.160; -700.712
484.251;   10.770; -404.174; -310.687
484.536;  -10.053; -356.165; -378.703
484.822;    7.673; -205.173; -218.687
485.107;  -34.090; -599.152; -502.726
485.392;  105.278;  662.836;  541.296
485.677;   57.900;  354.832;  163.302
485.962;  117.494;  160.843;  270.283
486.247;   80.895;  -14.162;   -8.707
486.532;   47.363; -178.166; -325.701
486.817;  166.781;  381.839;  431.291
487.102;  114.693; -453.154; -514.722
487.387;  715.848; -637.156; -652.718
487.672; 1236.258; -154.164;  -38.705
487.957;  784.163; -394.160; -286.711
488.241;  201.701; -290.150; -314.729
488.526;  773.236; -280.152; -148.726
488.811; 1278.464; -881.177; -818.680
489.096;  940.195; -666.154; -702.723
489.381;  530.382;    3.847;  162.275
489.666;  398.536; -428.161; -510.710
489.950;  182.823;  558.846;  627.277
490.235;  -33.529; -480.151; -458.728
490.520;  -58.240; -756.161; -723.710
490.804;  -75.825; -827.156; -736.719
491.089;   10.867; -469.149; -299.732
491.374;   18.757; -132.164;  -75.704
491.658;  -15.296; -817.147; -717.735
491.943;  154.340; -657.152; -609.727
492.227;  245.688; -178.155;  -38.721
492.512;   36.218; -294.157; -341.717
492.797;  -69.989; -713.149; -716.731
493.081;  -60.569; -588.147; -598.735
493.366;  -42.763; -751.161; -635.711
493.650;  203.610;  831.859;  917.254
493.935;   37.328; -648.147; -447.734
494.219;  -44.928; -778.142; -687.743
494.503;  -42.944; -585.150; -487.730
494.788;   41.985;   46.842;   74.285
495.072;  102.803;  184.850;  434.271
495.356;  169.320; -463.148; -343.733
495.641;  445.688; -812.146; -736.736
495.925;  432.205; -976.156; -903.719
496.209;   32.892; -599.149; -451.732
496.494;  -44.877; -763.142; -544.744
496.778;   15.093; -364.154; -360.722
497.062;  -43.895; -819.156; -627.719
497.346;  -35.860; -869.160; -640.711
497.631;  138.474;  580.852;  560.266
497.915;   82.649;  -64.145;  175.261
498.199;   33.421; -341.157; -277.718
498.483;   30.034; -562.152; -508.725
498.767;  192.879;  301.850;  300.271
499.051;  199.914; -126.149; -100.732
499.335;   28.162; -693.149; -739.731
499.619;  -34.414; -381.129; -423.767
499.903;   18.662; -272.155;  -65.721
500.187;   25.475; -588.153; -316.724
500.471;    5.890; -796.152; -595.727
500.755;  115.135;   62.839;  -96.710
501.039;    6.288; -270.155; -357.721
501.323;   80.837;  -21.141;  264.254
501.607;   35.563; -447.163; -503.706
501.891;  -11.202; -607.156; -512.718
502.174;  -43.865; -726.144; -585.741
502.458;   78.519;   89.849;  370.273
502.742;   25.085; -180.138; -191.751
503.026;  111.353; -412.147; -254.734
503.310;  186.874; -437.159; -375.713
503.593;  133.004; -464.147; -325.735
503.877;  106.201; -232.133; -156.760
504.161;  171.377;    2.847;  -50.724
504.444;  123.012; -841.158; -710.716
504.728;  480.481; -487.164; -522.704
505.012;  739.501; -257.150;  -76.729
505.295;  561.986; -417.161; -212.711
505.579;  546.930; -256.156; -496.719
505.862;  791.520; -555.145; -333.738
506.146;  796.751; -681.159; -758.714
506.429;  416.527;  568.841;  461.286
506.713;   65.873; -732.151; -667.728
506.996;  337.492;   90.846;  295.278
507.280;  336.326; -633.165; -474.703
507.563;  250.411; -469.155; -261.721
507.847;  116.051; -423.153; -112.724
508.130;  104.937; -665.161; -456.711
508.413;  136.458; -758.167; -577.700
508.697;  255.108; -151.167;   12.300
508.980;  161.327; -422.153; -312.724
509.263;   -2.193; -466.155; -450.720
509.547;   22.400; -124.150;   82.271
509.830;   51.114; -172.160;  140.289
510.113;   79.404;  128.844;  298.281
510.396;   43.533; -530.152; -300.725
510.680;  123.971; -818.145; -812.738
510.963;  503.372;  184.846;  180.277
511.246;  414.383; -493.150; -357.730
511.529;  251.201; -482.145;  -83.739
511.812;  398.047; -250.134;   10.241
512.095;  273.170; -740.151; -396.728
512.378;   65.158; -317.147; -245.736
512.661;   29.343; -703.137; -623.753
512.944;   19.449; -750.142; -637.744
513.227;   68.865; -170.137; -171.752
513.510;   27.635; -479.144; -671.741
513.793;   34.916; -485.140; -435.747
514.076;  122.232;  -43.127;  -39.771
514.359;  100.493; -294.149; -135.732
514.642;   92.202; -442.142; -567.744
514.925;  776.764;  581.860;  561.253
515.208; 1052.144; -498.134; -443.758
515.491;  719.158; -276.133; -182.761
515.773;  395.838; -410.143; -337.742
516.056; 2222.574;  249.864;  409.246
516.339; 2958.203; -754.136; -652.755
516.622; 1865.656; -518.150; -488.730
516.904; 1100.570;  882.857;  975.257
517.187;  502.214; -730.138; -523.752
517.470;  389.319; -568.143; -510.743
517.752;  460.506; -624.136; -470.756
518.035;  366.176; -708.139; -725.749
518.318;  403.529; -799.136; -744.755
518.600; 2584.811; -300.132; -325.762
518.883; 3599.201;  310.858;   88.256
519.165; 1765.232; -585.138; -426.751
519.448;  402.736;  -61.132;  -19.762
519.730;  190.640; -573.126; -415.773
520.013;  297.004;  588.867;  664.240
520.295;  727.649;  -94.134;  -15.759
520.578; 1613.874; -335.131; -305.764
520.860; 1832.636; -254.132;   56.238
521.143;  993.633; -763.135; -584.756
521.425;  478.527; -251.125; -279.775
521.707;  704.182; -622.127; -380.771
521.990; 1860.933; -199.127;  167.229
522.272; 2162.193; -116.140;   -4.748
522.554;  949.414; -237.143; -157.742
522.836;  327.472;  -24.134;   99.241
523.119;  210.001; -496.148; -189.734
523.401;  154.606; -448.130; -314.766
523.683;  102.294; -865.137; -693.753
523.965;  303.587;  408.862;  260.248
524.247;  292.449;   54.878;  170.220
524.529;  215.299; -451.134; -367.759
524.812;  375.983;   -3.130;  191.234
525.094;  908.811; -773.138; -631.751
525.376; 1444.737; -143.124;   78.223
525.658;  876.951; -441.136; -339.754
525.940;   34.346; -805.131; -671.764
526.222;   30.904; -188.136;  -88.755
526.504;   91.668; -190.131;   32.237
526.786;  140.776; -960.133; -647.760
527.068;  277.992; -124.123;  -67.778
527.349;  102.722; -865.137; -774.754
527.631;  142.986; -137.132;   22.238
527.913;  130.707; -664.127; -450.771
528.195;  189.470; -761.125; -639.774
528.477;  274.144;  -93.134;  -30.758
528.759;  149.333; -648.130; -522.766
529.040;   77.191; -569.123; -293.778
529.322;   57.373; -235.125;  -10.774
529.604;  146.410;  -47.130;   93.233
529.886;  130.239; -546.126; -302.773
530.167;  121.576;  232.870;  192.235
530.449;   50.233;    1.853;   63.265
530.731;   29.023; -572.122; -459.779
531.012;   74.919; -513.120; -216.784
531.294;   88.808; -118.116;  -43.792
531.575;  152.202;  290.875;  538.225
531.857;   55.264; -548.135; -266.757
532.138;  104.435; -113.141;   40.254
532.420;  177.410;  294.865;  403.244
532.701;  202.204; -722.133; -751.760
532.983;  340.007;  232.867;  182.239
533.264;  112.712; -243.126;  175.228
533.546;  -26.621; -491.136; -508.755
533.827;   35.625;  173.867;   -1.759
534.109;   27.589; -352.135;  -80.757
534.390;   88.040; -725.132; -582.762
534.671;  245.660; -270.135;  -82.756
534.953;  148.019; -751.123; -611.779
535.234;   13.743; -426.117; -255.789
535.515;  -78.748; -891.119; -735.785
535.796;  -11.572; -431.128; -193.770
536.078; -113.614;-1050.124; -904.777
536.359;   20.344;  -22.123;    3.221
536.640;  -16.628; -480.125; -197.774
536.921;  147.540;  225.871;  143.232
537.202;  388.083;  -87.138;  -16.751
537.483;  485.373;  251.869;  377.236
537.764;  183.602;   17.870;   98.235
538.045;  -47.132; -543.134; -371.758
538.326;  -47.133; -596.129; -447.768
538.607;   33.508; -686.127; -476.771
538.888;  174.410;   98.879;    5.218
539.169;  192.704; -704.122; -535.781
539.450;  312.189;  236.871;   16.233
539.731;  227.714; -361.121; -182.783
540.012;  137.769;  199.880;  412.216
540.293;   81.631;   82.876;  158.224
540.574;   -0.521; -895.113; -717.796
540.855;  441.312;  435.879;  377.218
541.136;  525.952;   47.878;  139.220
541.416;  289.808; -161.130; -220.766
541.697;  222.594; -274.131; -170.763
541.978; 1098.037; -270.135; -315.757
542.259; 1397.533; -211.127; -236.771
542.539;  641.827; -191.116; -186.790
542.820;  187.827;  461.875;  480.225
543.101;  123.498;  -52.145;  -77.738
543.381;   19.408; -638.127; -591.771
543.662;  274.505;  159.873; -254.771
543.942;  616.254; -751.127; -830.770
544.223; 1104.203;  193.878;  161.219
544.504;  735.486; -275.124; -182.777
544.784;  616.989; -592.126; -408.773
545.065; 1711.005;  104.884; -254.791
545.345; 2028.502;  227.881;   14.215
545.626; 1340.203;  -14.113; -108.796
545.906;  926.376;   77.869;   98.235
546.186;  388.644;   92.874;  -95.773
546.467;  201.589;   99.877;  -95.778
546.747;  355.876;  264.884;  327.210
547.027;  389.785;   91.876;  111.223
547.308;  356.078; -376.127; -530.770
547.588;  401.968;  299.871;  371.232
547.868;  209.977;  458.870;  588.235
548.149;  203.913;  609.885;  593.207
548.429;  138.081; -347.127; -299.771
548.709;  204.418; -645.120; -461.784
548.989;  499.562;   84.882;   88.213
549.269; 2260.484;   10.868;  139.239
549.550; 5149.443;  215.877;  117.222
549.830; 4616.096; -758.111; -556.799
550.110;  941.278; -468.110; -320.801
550.390;  877.048; -128.122;  -56.779
550.670; 1196.749; -868.114; -783.795
550.950;  856.737; -509.121; -471.782
551.230;  204.483;  549.879;  460.218
551.510;   -7.764; -381.121; -326.782
551.790;   34.786; -173.109; -127.803
552.070;  274.888;  940.877; 1181.223
552.350;  432.806; -492.119; -377.786
552.630;  631.381;   -2.121;   77.219
552.909;  400.306;  181.884;   73.209
553.189;  256.891;  -49.132;   33.237
553.469;  211.331; -703.119; -514.786
553.749;  201.159; -469.127; -357.772
554.029;  182.022;   33.883;  -24.790
554.308;  162.342; -154.115;  -37.794
554.588;   70.877; -196.128; -204.770
554.868;   71.363; -366.121;  -47.782
555.147;  166.814; -114.115;  -46.793
555.427;  662.158; -260.116; -250.792
555.707; 4173.337; -284.115; -200.793
555.986; 5028.674; -719.111; -538.800
556.266; 2668.725;   23.884;   72.210
556.546;  111.911; -888.121; -675.782
556.825;  277.621; -657.114; -556.794
557.105; 1924.449; -125.128;   17.230
557.384; 2238.805;  122.884;  187.209
557.664;  877.358; -717.116; -508.792
557.943;  138.787; -557.121; -411.782
558.222;  201.765; -345.118; -344.788
558.502;  294.391; -116.115;  -76.793
558.781;  534.211;  194.885;  499.208
559.061;  438.365; -232.118; -227.788
559.340;  311.495;  302.883;  353.211
559.619;  754.350;   93.884;  148.210
559.899; 1082.546; -239.117; -266.789
560.178; 1004.340; -778.115; -593.793
560.457; 3392.723; -623.117; -562.790
560.736; 4671.300; -472.111; -482.800
561.015; 3119.822; -500.128; -502.769
561.295;  410.931;  180.893;  215.193
561.574;  367.638;  119.885;  116.207
561.853;  490.915;  274.891;  303.197
562.132;  534.143;  -45.114;  182.206
562.411;  471.506;  396.879;  553.219
562.690;  149.136; -592.115; -458.792
562.969;  161.335;  472.888;  630.203
563.248;  541.829; 2966.878; 2487.219
563.527;  267.675; -290.111; -408.800
563.806;  412.906; -650.127; -521.771
564.085;  445.246; -297.105; -206.810
564.364;  263.675; -594.117; -405.790
564.643;  555.457; -276.121; -223.781
564.922; 2038.634;  221.890;  397.198
565.201; 2055.438; -640.109; -700.803
565.479;  876.735; -297.115; -219.792
565.758;  359.425; -810.128; -712.770
566.037;  509.889; -155.109; -100.803
566.316;  263.655; -286.116;  -28.791
566.595;   52.187;  -17.115;  -12.793
566.873;   99.877; -166.111;  -79.801
567.152;  -62.516; -490.113; -590.797
567.431;   14.651; -113.116;    6.210
567.709;   15.106; -344.107; -212.807
567.988;  273.021; -810.114; -769.794
568.266;  567.287; -160.115;  -68.793
568.545;  409.643; -644.100; -514.819
568.824;  631.184;  160.885;  356.208
569.102;  593.221; -351.114; -235.794
569.381;  248.133; -492.116; -407.792
569.659;  -27.844; -553.113; -553.796
569.938;   31.302; -743.122; -465.780
570.216;  117.767; -225.109; -225.804
570.494;  -11.476; -632.114; -572.795
570.773;   34.635;  202.879;  114.218
571.051;    0.916; -373.123; -357.778
571.330;   69.903; -221.113; -174.796
571.608;   42.686; -181.098; -173.823
571.886;  -51.331; -671.111; -581.799
572.164;  -54.087; -739.121; -621.782
572.443;  -40.250; -562.105; -512.811
572.721;  -38.652; -399.117; -289.790
572.999;  -21.533; -280.117; -168.788
573.277;  103.243;  379.894;  620.191
573.555;  313.346;   94.894;   37.190
573.834; 1439.491;  -86.117; -114.788
574.112; 1700.359;  880.893;  811.193
574.390;  532.376; -143.111;  -96.801
574.668;    2.936;  -91.112;  -61.797
574.946;   -6.629; -165.106; -187.810
575.224;   11.963;   71.891;  -16.803
575.502;  -24.222; -200.116; -204.791
575.780;  -91.738; -767.112; -829.798
576.058;  201.200; 1589.889; 1004.200
576.336;  -19.795; -210.110; -129.801
576.614;  -59.638; -511.112; -340.798
576.891;   66.867; -711.115; -823.794
577.169;  533.600; -158.108; -285.805
577.447;  602.433;  169.893;  202.193
577.725;  292.241;  629.888;  854.201
578.003;   16.514;  -71.112; -371.798
578.280;   98.284; -208.104; -242.812
578.558;   67.466; -450.115; -422.793
578.836;  123.699; -210.114; -145.795
579.114;   40.035; -630.112; -670.797
579.391;   80.693;   -6.117;  -18.789
579.669;  -73.657; -595.114; -704.794
579.947;  184.855; -326.107; -127.806
580.224;  346.180; -692.107; -524.806
580.502;  350.209;  127.893;   76.193
580.779;   14.824;  -42.117;   75.210
581.057;  -72.033; -584.109; -470.804
581.334;  -95.726; -726.102; -695.815
581.612;   33.172;   54.895;  511.190
581.889;  -26.238;  -83.101; -129.818
582.167;  -30.099; -298.099; -190.821
582.444; -114.268; -845.102; -814.817
582.721;  100.532;  657.899;  715.183
582.999;   62.874; -326.100; -167.821
583.276;  581.371; -812.123; -713.779
583.553;  772.227; -364.102; -294.816
583.831;  252.106; -607.104; -631.812
584.108;   62.598;  349.892;  174.195
584.385;    5.948; -122.102;  -98.815
584.662;  -75.173; -651.111; -828.801
584.940;   32.651;  204.889;  204.199
585.217;  -16.520;  -73.113; -303.796
585.494;   39.660;   71.890;  118.198
585.771;  233.693; -250.109; -354.804
586.048;  524.405; -196.113;  -76.796
586.325;  347.480; -721.110; -773.801
586.602;  117.309;  230.896;  213.188
586.879;  -15.580; -499.100; -580.820
587.156;   58.247; -156.105; -331.810
587.433;  -31.570; -701.102; -667.817
587.710;   76.687;  152.888;  234.202
587.987;  304.653; -264.105; -236.811
588.264;  803.939;  315.888;  387.202
588.541; 1413.512;  -61.104;   26.187
588.818; 2805.145;   72.892;  171.196
589.095; 2415.107; -163.104; -174.812
589.371;  404.991; -459.109; -414.804
589.648;    2.459; -581.107; -437.807
589.925;   14.000; -517.114; -621.795
590.202;   20.362; -741.112; -607.798
590.478;   96.279; -166.105;  -73.811
590.755;  292.876; -241.108; -132.806
591.032; 2658.632; -741.110; -699.802
591.308; 3593.651; -732.094; -790.831
591.585; 1903.631; -573.110; -560.802
591.862;  150.731;-1056.102; -950.817
592.138;   57.849; -475.108; -474.805
592.415;  161.710; -486.104; -495.813
592.691; 1512.233;  460.896;  518.188
592.968; 1923.488; -208.098; -123.824
593.244;  954.226; -695.116; -595.790
593.521;   83.006; -105.102;  -42.817
593.797;  -18.626; -810.122; -720.780
594.074;  352.951; -611.096; -588.826
594.350;  683.037;  828.905;  729.172
594.626;  317.877; -303.111; -283.801
594.903;  116.357; -643.101; -645.817
595.179;  205.589;  243.896;  418.187
595.455;   22.610; -136.107; -150.807
595.731;   -9.010;  -19.103;  -38.814
596.008;  -43.079; -464.111; -434.800
596.284;   46.373; -187.100; -242.820
596.560;   56.058; -501.093; -493.833
596.836;  214.449; -173.105;  -70.810
597.112;  355.624; -582.108; -437.805
597.388;  288.274;  -49.097;  -48.826
597.665;  121.808;  437.887;  530.203
597.941;  -64.413; -572.089; -658.839
598.217;   25.185; -323.110; -293.802
598.493;  264.769;   61.891; -204.804
598.769;  549.367; -175.100;  -50.819
599.045;  325.802; -490.108; -562.806
599.321;   51.722; -193.100; -261.820
599.597;  154.244; -355.109; -476.804
599.872;  506.262;  409.896;  429.187
600.148;  382.350;  -61.097; -172.826
600.424;  306.757;   91.893;  202.193
600.700;  258.609; -170.107; -280.807
600.976;  128.719; -442.097; -464.825
601.252;  284.065; -226.109; -272.803
601.527;  244.063; -833.104; -840.813
601.803;  170.430; -453.105; -404.812
602.079;  179.342; -124.100; -118.819
602.354;  584.793; -620.092; -531.835
602.630;  876.405; -140.113; -482.796
602.906; 2496.587; -910.101; -863.818
603.181; 7071.206; -627.119; -534.786
603.457; 5984.798;   98.903; -278.826
603.733;  883.239; -605.120; -626.783
604.008; 1033.621; -245.106; -164.810
604.284; 3197.008; -636.101; -580.817
604.559; 2782.391;   -3.112;  -42.799
604.835;  497.074; -163.105; -225.810
605.110;  432.227; -732.099; -892.821
605.385;  717.685;  224.907;  267.167
605.661;  685.365; -625.095; -729.829
605.936; 1233.753; -664.108; -737.806
606.211; 1068.497;  -17.103; -170.815
606.487;  218.170; -329.114; -376.794
606.762;   18.281; -791.119; -745.786
607.037;   -8.826; -501.105; -433.810
607.313;  -54.617; -589.096; -574.828
607.588;   -4.879; -375.106; -137.810
607.863;   39.887;  -28.101; -143.818
608.138;  193.659;  513.890;  516.198
608.413;   34.156; -576.099; -592.822
608.688;   44.674; -203.108; -267.805
608.964;  215.165; -509.106; -218.809
609.239;  275.897; -107.105; -212.810
609.514;  263.730;  281.895;  240.188
609.789;  687.084; -187.104; -716.812
610.064;  918.957; -435.096; -609.827
610.339;  961.066; -855.109; -799.804
610.614; 1269.197; -131.100; -315.820
610.889;  726.905;  215.895;  107.188
611.163;   39.831; -407.104; -591.812
611.438;   74.346;   81.886; -167.794
611.713;    8.908; -467.101; -499.817
611.988;   71.286; -144.101; -328.818
612.263;  -31.001; -771.102; -717.815
612.538;  228.605;  385.887;  251.204
612.812;  186.848; -832.100; -911.820
613.087;  152.811; -358.098; -338.823
613.362;  -41.290; -497.107; -557.807
613.637;   51.693;  261.897;  138.186
613.911;   -7.832; -256.092; -345.835
614.186;  129.633; -249.107; -292.807
614.460;  748.162; -842.081; -758.854
614.735;  837.710;  -55.087;  -17.843
615.010;  175.050;   43.912;  -82.841
615.284;  252.223;  360.892;  246.195
615.559;  392.667; -792.092; -955.835
615.833;  300.304;  -76.099;  -87.822
616.108;   -1.121; -225.090; -390.837
616.382;  143.737;  274.913;  402.156
616.656;  184.829; -241.090; -232.837
616.931;  525.629; -785.099; -700.822
617.205; 1123.713; -973.104; -979.813
617.480; 1009.150;  -91.125;    6.225
617.754;  183.873; -396.125; -128.774
618.028;   24.018; -369.129; -382.768
618.302;   53.247;   73.892;  -25.805
618.577;  -50.881; -371.103; -518.815
618.851;  -48.013; -399.109; -600.803
619.125;  -48.776; -335.134; -378.759
619.399;  -30.562; -244.104; -374.813
619.673;  -50.116; -330.115; -515.792
619.947;  -58.601; -333.114; -448.795
620.222;  -19.622; -198.110; -204.801
620.496;   -5.038;  -47.121;  -96.782
620.770;   19.904; -187.122;  -93.781
621.044;  201.122;  323.895;  346.190
621.318;  769.165; -653.120; -614.783
621.592;  697.238; -430.121; -409.783
621.866;  387.042; -476.112; -572.799
622.140;   31.328; -207.116; -356.791
622.413;   61.071;  138.889;  112.200
622.687;  -31.391; -746.101; -492.817
622.961;   17.897; -130.108; -143.805
623.235;  -57.003; -633.111; -661.800
623.509; -106.671; -816.105; -848.811
623.783;    6.131;  -12.107;   48.193
624.056;  -14.809; -254.120; -280.783
624.330;   43.811;   63.888;   -3.797
624.604;   66.250; -271.116; -355.790
624.877;   74.183;  180.890;   26.198
625.151;   48.518; -249.114; -238.794
625.425;  -36.435; -150.103; -283.814
625.698;  -49.424; -367.119; -374.785
625.972;  -95.015; -799.110; -765.802
626.245;   77.101;  685.884;  484.210
626.519;  -52.230; -426.120; -340.784
626.792;  -38.441; -192.107; -380.807
627.066;  -89.278; -485.122; -662.779
627.339;  -99.294; -736.110; -663.802
627.613;   41.269;  351.880;  148.216
627.886;  -58.263;  187.891; -612.803
628.160;  -11.135;  312.880; -161.783
628.433;  -86.472; -695.125; -703.775
628.706;  -82.430; -517.120; -615.784
628.979;   35.635;  296.876;  117.223
629.253;  -88.220; -785.119; -833.786
629.526;  390.113; -334.126; -253.772
629.799;  359.692; -641.123; -479.778
630.072;  174.170; -497.128; -516.769
630.346;  -57.274;-1115.116;-1080.790
630.619;  508.585; -467.107; -545.808
630.892;  675.173;  709.889;  593.200
631.165;  367.588;  790.896;  679.187
631.438;  -87.086;-1092.112;-1055.798
631.711;   55.420;  453.877;  257.221
631.984;  -67.153; -523.117; -624.789
632.257;  -65.107; -636.117; -681.789
632.530;  -56.049; -412.119; -433.785
632.803;   30.316; -109.115;    7.207
633.076;  -64.112; -360.123; -422.777
633.349;    5.249;  173.872;  121.231
633.622;  -38.825; -187.119; -240.785
633.895; -122.634; -903.120; -823.783
634.167;  -68.160; -496.126; -525.773
634.440;  -10.292;  -19.116; -137.792
634.713;   -3.071;  -22.119; -120.786
634.986;   73.239;  593.871;  453.233
635.258;  -84.960; -507.115; -597.793
635.531;   88.089;  742.882; -343.788
635.804;  -19.330; -303.117; -318.789
636.077;  -98.771; -830.116; -852.791
636.349;    3.813; -586.115; -474.793
636.622;  397.512; 1695.874; 1392.228
636.894;  266.146; -474.120; -909.784
637.167;  166.706; -836.127; -789.771
637.439;   24.202; -278.128; -213.770
637.712;  -55.886; -312.126; -293.772
637.984;  -91.195; -635.116; -707.791
638.257;  402.764;  515.877;  488.222
638.529;  568.704; -881.125; -924.776
638.802;  252.245; -508.128; -449.769
639.074; -111.922; -927.122; -952.781
639.346; -121.635; -942.135; -930.757
639.619;    2.650;  -79.142; -319.744
639.891;  -10.503;  -83.122; -168.779
640.163;  -83.701; -689.122; -756.780
640.435;   25.501;  273.878;  103.220
640.708;    5.977;  -72.122; -132.780
640.980;  -23.871; -366.122; -362.781
641.252;  202.156;  -25.121;  -71.781
641.524; 1844.208;  580.879;  573.219
641.796; 1846.860;-1094.121; -907.782
642.068;  320.512; -191.121; -300.782
642.340;  -63.562; -486.121; -566.783
642.613;   41.990;  294.880;  323.217
642.885; -106.258; -787.120; -878.783
643.157;  -50.131; -810.120; -658.784
643.428;   61.546;  170.880;  218.216
643.700;  -77.753; -498.120; -425.784
643.972;  -30.951;  -16.119; -133.785
644.244; -100.899; -474.119; -559.785
644.516;  -49.322; -250.119; -114.786
644.788;   63.330;  662.881;  548.214
645.060;  -33.743;  -12.119; -124.786
645.332; -101.617; -525.118; -535.787
645.603;   17.935;  479.882;  342.213
645.875;  -74.838; -334.118; -369.787
646.147;  154.139; 1487.882; 1242.212
646.418;  -72.434; -931.117; -918.788
646.690;  153.943; -714.117; -715.789
646.962;   52.169; -413.117; -451.789
647.233;  -11.779;   15.883;   11.211
647.505; -112.477; -595.117; -475.790
647.776;   23.650;  328.884;  229.210
648.048;    4.952; -248.116; -418.790
648.320;  -86.646; -752.116; -679.791
648.591; -147.470;-1055.116; -958.791
648.862;  -80.293; -505.116; -577.792
649.134;   24.334;  115.885;  198.208
649.405;  -50.514; -661.115; -618.792
649.677;  -51.687; -475.115; -598.793
649.948;  -12.435; -181.115; -296.793
650.219;   -2.384;  -37.115; -147.793
650.491;  -75.382; -431.114; -520.794
650.762; -117.155; -705.114; -731.794
651.033;  -90.903; -437.114; -424.795
651.304;  -98.126; -743.114; -728.795
651.576;  -69.849; -680.114; -645.795
651.847;  -33.623; -250.113; -140.796
652.118;  -33.046;  -32.113; -189.796
652.389; -114.644; -639.113; -722.796
652.660;  -43.817; -147.113;  -89.797
652.931; -153.790; -897.112; -871.797
653.202;  -85.988; -382.112; -541.798
653.473;  -63.737; -633.112; -533.798
653.744;  155.890; -595.112; -590.798
654.015;  134.967; -356.112; -303.799
654.286;  -73.706; -642.111; -663.799
654.557;  -52.629; -586.111; -521.799
654.828; -153.677;-1114.111;-1088.800
655.099;  -73.476; -404.111; -291.800
655.370;  -95.174; -427.111; -543.801
655.641; -132.197; -656.110; -714.801
655.911; -101.145; -618.110; -638.801
656.182;   47.882;  437.890;  387.198
656.453;   85.284;  830.890;  746.198
656.724;  -70.415; -466.110; -426.802
656.994;  -86.038; -553.109; -568.803
657.265;  -92.086; -862.109; -873.803
657.536;  -78.509; -500.109; -377.804
657.806; -101.957; -561.109; -593.804
658.077; -138.580; -866.109; -950.804
658.347;  -86.429; -523.108; -598.805
658.618; -125.802; -646.108; -694.805
658.888;  -24.575;  -41.108;  112.195
659.159;  -76.598; -432.108; -548.806
659.429;  -21.346; -292.108; -349.806
659.700;   21.180; -435.107; -390.807
659.970;    8.282; -370.107; -359.807
660.241;   28.084; -754.107; -921.807
660.511;  513.661; -147.107; -174.808
660.781;  101.213; -793.106; -748.808
661.052;  -45.735; -222.106; -381.808
661.322;  -28.434;   21.894;   -9.809
661.592;   14.618;  257.894;  148.191
661.862;  -77.155; -369.106; -382.810
662.133;  -86.503; -551.105; -502.810
662.403; -121.201; -770.105; -676.810
662.673;  -55.724; -256.105; -213.811
662.943; -110.248; -612.105; -551.811
663.213;  -10.721;  -85.105;  -81.811
663.483;  -97.969; -593.104; -568.812
663.753;  -53.217; -194.104; -152.812
664.023;   -6.515;   68.896;  -32.813
664.293;  -59.863; -319.104; -126.813
664.563; -119.312; -694.104; -648.813
664.833; -124.485; -743.103; -608.814
665.103; -127.183; -730.103; -793.814
665.373; -110.781; -766.103; -806.814
665.643;  -84.754; -863.103; -918.815
665.913;   33.098; -534.103; -714.815
666.182;  163.124; -685.102; -719.816
666.452;  286.701;  -22.102;  -89.816
666.722;  -18.022; -724.102; -784.816
666.992; -127.445; -948.102; -921.817
667.261;  -89.893; -824.102; -808.817
667.531;  214.584;  134.899;   45.183
667.801;  510.285; -440.101; -412.818
668.070;  244.612;  714.899;  697.182
668.340;  -97.061; -883.101; -840.819
668.609;  103.666;  588.900;  301.181
668.879;  -84.532; -490.100; -558.819
669.149;  -75.980; -539.100; -516.820
669.418; -102.379; -698.100; -726.820
669.688;  -31.327; -482.100; -666.820
669.957;   75.325; -423.099; -546.821
670.226;  -17.648; -268.099; -331.821
670.496;  -97.821; -431.099; -635.822
670.765;  -81.519; -418.099; -501.822
671.034; -147.593; -872.099; -828.822
671.304;  -10.666;   55.902; -111.823
671.573; -146.439;-1085.098; -957.823
671.842;  100.888; -380.098; -294.823
672.112;   27.840; -692.098; -586.824
672.381;    4.117; -239.098; -214.824
672.650; -132.032;-1005.097;-1021.825
672.919;  -90.105; -631.097; -507.825
673.188;  -92.503; -681.097; -878.825
673.457; -155.026;-1101.097;-1143.826
673.726;  -74.274; -579.096; -646.826
673.995;  -44.922; -533.096; -479.826
674.265;  -12.746; -263.096; -333.827
674.534;   12.006; -183.096; -235.827
674.802;    5.708; -618.096; -703.828
675.071; 1097.960; -886.095; -801.828
675.340; 4143.012; -464.095; -339.828
675.609; 1397.238;  103.905;   82.171
675.878;   83.215; -949.095; -893.829
676.147;   30.217;  -26.095;   -8.829
676.416;  102.719; -210.094; -294.830
676.685;  767.896; 1000.906; -622.830
676.953;  110.223; -603.094; -452.831
677.222;  -31.251; -193.094; -273.831
677.491;  -28.399;  -24.094; -127.831
677.759;   10.578;   11.907;  172.168
678.028;  -16.570; -279.093; -222.832
678.297;   -8.893;   71.907;  197.168
678.565; -151.241; -898.093; -944.833
678.834;  -59.390; -311.093; -268.833
679.102;  -80.638; -411.092; -391.834
679.371; -139.536; -898.092; -727.834
679.639; -138.984; -797.092; -786.834
679.908; -107.907; -794.092; -724.835
680.176; -154.030; -895.091; -941.835
680.445;  -70.454; -346.091; -352.835
680.713;  -20.977;  -58.091;  -23.836
680.982;  -93.375; -523.091; -525.836
681.250; -107.948; -578.091; -507.837
681.518;  -94.846; -534.090; -751.837
681.787;  -18.444; -204.090; -167.837
682.055;  -59.168; -490.090; -422.838
682.323; -144.766; -993.090; -992.838
682.591;   29.011; -216.090; -538.838
682.859;   98.313;    9.911;  -35.839
683.128;   23.365;  232.911;  497.161
683.396; -169.533;-1102.089;-1122.840
683.664;  -33.557; -241.089;   21.160
683.932;    1.195;  144.911;  -76.840
684.200;  -80.253; -576.088; -320.841
684.468;  -14.851;  -73.088; -124.841
684.736;  -38.824; -214.088; -175.841
685.004; -129.672;-1024.088; -982.842
685.272;  -43.996; -880.088; -774.842
685.540;  -66.119; -499.087; -557.843
685.808;  -77.667; -651.087; -682.843
686.076; -115.215; -894.087; -969.843
686.343;  -61.763; -601.087; -815.844
686.611;   48.714; -195.087; -224.844
686.879;  497.015; -530.086; -553.844
687.147; 3508.142; -483.086; -480.845
687.414;  976.794;  -12.086; -169.845
687.682;    7.871; -658.086; -757.846
687.950;  332.248;  259.915;  263.154
688.217;    9.925; -792.085; -760.846
688.485;    4.326; -632.085; -636.847
688.753;  547.228;  -11.085; -102.847
689.020;  178.855; -820.085; -851.847
689.288;  -94.243; -853.084; -787.848
689.555;  -29.441; -195.084; -148.848
689.823;  -50.214; -241.084; -345.849
690.090;  -87.288; -546.084; -651.849
690.358; -151.586; -877.084; -897.849
690.625;   18.266;  120.917;   45.150
690.892;  -74.857; -403.083; -369.850
691.160;   -7.105;   72.917;  -35.850
691.427;    1.771;  141.917;  130.149
691.694; -135.152; -855.083; -929.851
691.962; -139.250;-1177.082;-1060.852
692.229;   22.752;  127.918;   56.148
692.496;   86.704;  130.918;  -49.852
692.763;   11.031; -164.082; -201.853
693.031;  -79.868; -739.082; -716.853
693.298;  -28.666; -509.081; -368.853
693.565;  329.336; -155.081; -163.854
693.832; 1335.663;   -5.081;   -9.854
694.099;  149.715; -643.081; -642.855
694.366;  -53.283; -882.081; -896.855
694.633;  -45.082; -920.080; -633.855
694.900;  757.045; 4367.920; -114.856
695.167;  452.772; -214.080; -380.856
695.434;  110.799; -646.080; -623.856
695.701;  189.876;  121.921;  -61.857
695.968;  490.228; -365.079; -361.857
696.234; 1013.254; -415.079; -646.858
696.501;10267.256; -776.079; -614.858
696.768; 5117.433; -554.079; -617.858
697.035;  305.310; -632.078; -667.859
697.302;   22.962; -448.078; -552.859
697.568;   21.989; -458.078; -497.859
697.835;  -37.935; -683.078; -624.860
698.102;   -7.233; -498.078; -407.860
698.368;   77.569;  384.923;  396.139
698.635;  -54.929;  -47.077; -424.861
698.901;  -22.852; -240.077; -348.861
699.168;   85.525; -534.077; -456.862
699.435;   59.276;  -72.077;  -13.862
699.701; -111.022; -868.076; -764.862
699.968;    2.705;  144.924; -441.863
700.234; -101.518; -783.076; -822.863
700.500;  -66.066; -448.076; -539.864
700.767;  -10.514;   -1.075;   26.136
701.033; -132.763;-1015.075; -963.864
701.299;  -56.111; -450.075; -483.865
701.566;  117.966;  950.925;  763.135
701.832;   27.968;  -31.075;  -76.865
702.098;  -97.255;-1054.074;-1034.866
702.365;  -78.803;-1098.074;-1030.866
702.631;  -21.152;-1038.074;-1063.867
702.897; 1420.325; -765.074; -676.867
703.163; 2268.152;  348.926;  254.133
703.429;  166.029; -256.073; -273.868
703.695;  -35.244; -796.073; -792.868
703.961;   19.783; -214.073; -210.868
704.227;  -61.266; -630.073; -725.869
704.493;  129.186;  613.927;  510.131
704.759;  -34.612; -565.072; -540.870
705.025;   33.490; -203.072; -194.870
705.291;  -21.983; -666.072; -562.870
705.557;  178.018;  719.928;   34.129
705.823;   20.395; -742.072; -694.871
706.089;  130.547; -307.071; -326.871
706.355;  362.424; -315.071; -244.872
706.620; 5388.576; -776.071; -729.872
706.886; 7519.478; -309.071; -362.873
707.152;  705.304; -818.070; -973.873
707.418;  -13.394;-1153.070;-1186.873
707.683;   -1.067; -550.070; -530.874
707.949;  -48.515; -547.070; -578.874
708.215;   -4.813; -129.070; -207.874
708.480;  -12.286; -520.069; -420.875
708.746;   86.990;   68.931;   28.125
709.011;  -65.208; -578.069; -612.876
709.277;  -79.256; -538.069; -543.876
709.542;  -53.429; -428.069; -387.876
709.808;    2.448;  -59.068;   89.123
710.073;  -87.850; -577.068; -695.877
710.339;  -22.249; -242.068; -228.877
710.604;   86.403; -780.068; -845.878
710.869;  332.630; -277.068; -366.878
711.135;  -79.568; -715.067; -628.879
711.400;  -84.541; -507.067; -608.879
711.665;  -72.789; -404.067; -479.879
711.931;  -92.438; -661.067; -677.880
712.196; -109.836; -876.067; -954.880
712.461;  108.266; -402.066; -490.880
712.726;  140.293; -727.066; -771.881
712.991;  -89.230; -647.066; -664.881
713.256;  -45.753; -350.066; -332.882
713.521;  -59.752; -417.065; -381.882
713.787;  -66.000; -454.065; -472.882
714.052;  -26.923; -214.065; -400.883
714.317; -101.446;-1045.065; -981.883
714.581;  995.206; -374.065; -268.883
714.846; 1327.333; -822.064; -888.884
715.111;  128.484;  261.936;  257.116
715.376;  -32.689;  -86.064; -223.885
715.641;  -11.537; -365.064; -367.885
715.906;  307.440;   15.936; -551.885
716.171;  145.092;  221.937;  209.114
716.436;   32.894;  -78.063; -104.886
716.700; -121.055; -818.063; -692.886
716.965; -116.528; -794.063; -807.887
717.230;  -72.376; -339.063; -392.887
717.494;  -23.274;  -40.062; -134.888
717.759;  -83.647; -784.062; -640.888
718.024;   10.455;  269.938;  250.112
718.288;   69.081;  685.938;  395.111
718.553; -154.167; -803.062; -977.889
718.817; -145.615; -883.061; -899.889
719.082;  -33.763; -115.061; -125.890
719.346; -145.611;-1000.061; -947.890
719.611;  -45.259; -300.061; -255.891
719.875; -108.733; -568.060; -537.891
720.140;  -61.731; -453.060; -603.891
720.404;   35.346; -136.060; -249.892
720.668;  888.073; -475.060; -411.892
720.933;  335.075;  146.940;  137.108
721.197; -103.074; -667.059; -600.893
721.461; -134.722; -851.059; -826.893
721.725;  -15.520;  -21.059; -250.894
721.990;  -54.468; -284.059; -204.894
722.254;  -25.441;  -26.059; -108.894
722.518;  -69.939; -286.058; -442.895
722.782;  -98.988; -743.058; -594.895
723.046;  138.939;  614.942;  570.105
723.310;   29.116;  374.942;  210.104
723.574; -103.207; -654.058; -614.896
723.838; -114.530; -576.057; -642.897
724.102;  -45.278; -226.057; -239.897
724.366; -149.077;-1032.057; -978.897
724.630; -107.500; -749.057; -571.898
724.894;  -84.448; -722.057; -514.898
725.158;  -23.571;   38.944; -295.898
725.422;  -53.094; -394.056; -327.899
725.685;  -65.842; -441.056; -349.899
725.949;  -73.516; -566.056; -519.900
726.213;  -82.814; -732.056; -811.900
726.477;  189.963;-1020.055; -933.900
726.740;  147.390; -274.055; -104.901
727.004;  338.092; -384.055; -510.901
727.268; 3250.794; -442.055; -400.901
727.531;  873.270; -961.055; -775.902
727.795;  -49.553; -713.054; -673.902
728.059;  -62.151; -552.054; -557.903
728.322;  -88.124; -841.054; -669.903
728.586;   31.903; -692.054; -701.903
728.849;  -81.120; -695.053; -756.904
729.112; -120.469; -812.053; -912.904
729.376; -132.167; -959.053; -905.904
729.639;  -85.340; -536.053; -536.905
729.903; -100.738; -733.053; -699.905
730.166;  -54.036; -437.052; -399.906
730.429;  -31.209; -317.052; -468.906
730.693;  -71.283; -355.052; -894.906
730.956;  223.519;  810.948;  651.093
731.219;  710.146; -310.052; -103.907
731.482;  130.973;-1003.051; -894.907
731.745;  104.250; -794.051; -935.908
732.009;   12.302;  -30.051;   50.092
732.272; -102.197; -904.051; -771.909
732.535;  -49.820; -300.051; -310.909
732.798; -157.143;-1083.050;-1166.909
733.061;  -60.341; -430.050; -456.910
733.324;    9.536;   31.950; -180.910
733.587;   69.788;  290.950;  365.090
733.850;  -68.936; -973.049;-1050.911
734.113;   24.841;   33.951;   32.089
734.376;  -10.482; -328.049; -447.912
734.639;  235.620; 1188.951; 1011.088
734.901;   62.922; -180.049; -402.912
735.164;  558.574; -883.048; -837.913
735.427; 1335.750; -166.048; -355.913
735.690;  129.977; -205.048; -234.913
735.952;  -21.946; -923.048; -925.914
736.215;  -21.669;-1113.048;-1009.914
736.478;   45.333; -771.047; -774.915
736.740;  230.409;   33.953;  129.085
737.003;  734.786; -658.047; -672.915
737.266; 4206.063;  -94.047;   46.084
737.528;  455.915; -682.047; -660.916
737.791;  313.967; -316.046; -327.916
738.053;  821.819;  465.954;  649.083
738.316;10936.245; -162.046; -136.917
738.578; 7358.647; -770.046; -736.918
738.841;  435.874; -382.046; -446.918
739.103;  180.701; -875.045; -777.918
739.365;  519.103;   79.955;  -69.919
739.628;    0.305; -884.045; -805.919
739.890;  -27.669; -758.045; -710.919
740.152;  -45.317; -692.044; -754.920
740.414;  -13.565; -408.044; -359.920
740.677;  -42.663; -785.044; -634.921
740.939;  -55.011; -587.044; -487.921
741.201;  289.491; -432.044; -572.921
741.463;   34.392; -689.043; -745.922
741.725;   11.894;  -21.043; -199.922
741.987;   58.621;  220.957;  116.078
742.249;    5.523; -751.043; -859.923
742.511;  226.900; -703.043; -794.923
742.773;   18.727; -546.042; -546.924
743.035;  126.478;  796.958;  533.076
743.297;  -37.720; -963.042;-1013.924
743.559;  773.632; -278.042; -262.925
743.821;   52.034; -735.042; -744.925
744.083;   10.636;  -44.041; -149.925
744.345;  -86.937; -869.041; -892.926
744.607;   41.214;   75.959;  122.074
744.868;  -45.859; -490.041; -554.927
745.130; -109.232; -994.041;-1008.927
745.392;   36.570;   -1.040;  -44.927
745.653;    2.547; -411.040; -378.928
745.915;  150.274;  896.960;  631.072
746.177;   67.800;   35.960;  -43.928
746.438;   -8.398; -428.040; -543.929
746.700;  -45.321; -947.039; -988.929
746.961;    3.456; -659.039; -740.930
747.223;  139.633; -190.039;  -74.930
747.484;   94.410; -391.039; -471.930
747.746;  150.061;  -23.038; -106.931
748.007;  107.238; -647.038; -689.931
748.269;  308.690; -468.038; -440.931
748.530;  484.267; -852.038; -638.932
748.791;  264.444; -354.038; -420.932
749.053;  448.596;  286.963;  163.067
749.314;  448.597; -236.037; -169.933
749.575;  507.074; -945.037; -905.933
749.836;  891.301; -217.037;   86.066
750.098; 2617.303;  -60.037;  -21.934
750.359;37908.380;  414.964;  555.066
750.620; 9193.532; -121.036; -220.935
750.881; 1085.908; -585.036; -513.935
751.142; 1400.685; -950.036; -938.936
751.403;17249.912; -789.036; -705.936
751.664; 7216.239;-1034.035; -999.936
751.925;  481.841; -175.035; -262.937
752.186;  278.692; -298.035; -278.937
752.447;  158.869; -590.035; -445.937
752.708;   33.346; -532.035; -648.938
752.969;    2.248; -566.034; -576.938
753.230;  -10.325; -777.034; -672.939
753.491;   -3.773; -650.034; -631.939
753.751;   64.903;  109.966;   19.061
754.012;  102.155;  258.967;  181.060
754.273;   58.257; -174.033;  -71.940
754.534;   11.134; -487.033; -580.940
754.794;  -91.289; -926.033; -911.941
755.055;  137.813; 1051.967;  881.059
755.316;  -50.061; -700.032; -566.942
755.576;  -30.509; -606.032; -576.942
755.837;  -49.532; -527.032; -695.942
756.097;  -27.655; -530.032; -564.943
756.358;  -82.803; -725.032; -770.943
756.618;  -64.451; -705.031; -641.943
756.879;   -5.025; -254.031; -349.944
757.139; -121.073;-1098.031;-1116.944
757.400;  -62.046; -538.031; -553.945
757.660;   -4.794; -365.031; -401.945
757.920;   20.458; -266.030; -228.945
758.181;  -26.765; -468.030; -351.946
758.441;  -99.264; -870.030; -809.946
758.701;  -25.937; -308.030; -215.946
758.961;  -22.410; -220.030; -278.947
759.222;  -57.308; -574.029; -502.947
759.482;  -72.956; -683.029; -723.948
759.742;  -88.754; -706.029; -547.948
760.002;   14.822;  -83.029; -143.948
760.262;   19.249;   50.972;  182.051
760.522;  -41.149; -498.028; -574.949
760.782;  -63.022; -738.028; -612.949
761.042;  -37.145; -618.028; -573.950
761.302;   50.357;   55.972;  -18.950
761.562;   62.808; -164.027; -154.951
761.822;   82.535; -710.027; -551.951
762.082;  -32.288;-1104.027;-1093.951
762.342;   76.414; -328.027; -403.952
762.601;   62.041; -567.027; -506.952
762.861;  373.568; -281.026; -207.952
763.121;  397.519; -406.026; -411.953
763.381; 7625.421; -499.026; -485.953
763.640; 7874.698; -139.026; -307.954
763.900;  359.975; -242.026; -203.954
764.160;   95.002; -458.025; -491.954
764.419;  -26.896; -726.025; -782.955
764.679;  -69.720; -795.025; -726.955
764.939;   -9.693; -124.025; -210.955
765.198;  -80.941; -608.025; -563.956
765.458;  -87.789; -710.024; -612.956
765.717;  -95.437; -454.024; -590.957
765.976;  -63.936; -428.024; -411.957
766.236;  -74.709; -475.024; -610.957
766.495;   18.618;  260.977;   73.042
766.755;  -97.455;-1090.023; -987.958
767.014;    1.122; -594.023; -665.958
767.273;  -54.876; -373.023; -397.959
767.533;  -47.300; -228.023; -307.959
767.792;  -35.248; -151.022; -188.960
768.051;  -64.371; -228.022; -276.960
768.310;  -84.744; -546.022; -650.960
768.569;    1.583; -161.022;    4.039
768.828;  -40.190; -285.022; -363.961
769.088; -118.039;-1050.021; -942.961
769.347;  -88.712; -755.021; -599.962
769.606; -108.510; -876.021; -857.962
769.865; -121.458;-1016.021;-1033.963
770.124;  -17.156; -411.021; -336.963
770.383;  -47.229; -778.020; -910.963
770.641;    1.747; -398.020; -400.964
770.900;  -80.926; -953.020; -846.964
771.159;  -53.324; -851.020; -951.964
771.418;  -21.972; -917.020; -779.965
771.677;  119.105; -224.019; -293.965
771.936;  127.507; -794.019; -865.966
772.194; 2246.958; -465.019; -437.966
772.453;10659.260; -213.019; -391.966
772.712;  750.587;  416.982;  329.033
772.970;  111.739;   32.982;   63.033
773.229;   91.416;  -22.018;  102.033
773.488; -101.782; -814.018; -770.968
773.746;   52.419;  296.982;  335.032
774.005;   -9.954;  190.983;  -22.969
774.263;   19.548;  243.983;  177.031
774.522; -100.675; -422.017; -548.969
774.780;  -79.673; -484.017; -417.970
775.039;  -90.396; -551.017; -531.970
775.297;  -37.245; -135.016; -351.970
775.555; -102.418; -489.016; -612.971
775.814; -123.866; -618.016; -570.971
776.072; -131.164; -749.016; -740.971
776.330; -109.012; -630.016; -520.972
776.589; -134.860; -703.015; -721.972
776.847; -128.159; -645.015; -624.973
777.105; -167.107;-1016.015;-1032.973
777.363;  -87.680; -459.015; -454.973
777.621; -134.053; -660.015; -717.974
777.879;  -24.076;  -42.014;   32.026
778.138; -107.924; -554.014; -717.974
778.396; -103.823; -585.014; -526.975
778.654; -167.446;-1015.014; -970.975
778.912;  -57.444; -269.014; -371.976
779.170; -132.942; -880.013; -803.976
779.427; -148.265; -922.013; -897.976
779.685; -138.238; -880.013; -832.977
779.943;  -81.862; -654.013; -593.977
780.201; -146.610; -964.012; -883.978
780.459; -111.558; -651.012; -610.978
780.717;  -83.706; -440.012; -390.978
780.974;  -93.604; -449.012; -490.979
781.232;  -65.803; -358.012; -338.979
781.490;  -70.201; -551.011; -472.979
781.747; -102.124; -555.011; -476.980
782.005;   24.678;  462.989;  254.020
782.263; -171.345; -542.011;-1004.981
782.520;  -87.118; -326.011; -501.981
782.778; -158.742;-1013.010;-1051.981
783.035; -170.090; -962.010; -938.982
783.293;  -64.138; -248.010; -206.982
783.550;  -62.336; -134.010; -198.982
783.808; -141.184; -764.010; -776.983
784.065; -158.232; -745.009; -874.983
784.322;  -40.806;   25.991;  -86.984
784.580; -137.229; -915.009; -771.984
784.837; -107.902; -392.009; -466.984
785.094; -131.675; -783.009; -762.985
785.352;  -73.623; -304.008; -404.985
785.609;  -99.121; -934.008; -839.985
785.866;  -78.170; -345.008; -401.986
786.123;  -69.368; -639.008; -583.986
786.380; -110.666; -665.008; -604.987
786.637;  -34.639; -225.007; -380.987
786.895;  -37.562; -456.007; -543.987
787.152;  -53.785; -135.007; -267.988
787.409;  -48.684; -123.007; -225.988
787.666;  -73.257; -299.006; -378.988
787.923; -102.655; -616.006; -695.989
788.179;  -95.828; -551.006; -584.989
788.436; -111.326; -585.006; -585.990
788.693;  -36.224;  -92.006;  -87.990
788.950;  169.427; -125.005; -112.990
789.207;  240.529; -381.005; -372.991
789.464;  -53.294; -161.005; -301.991
789.720;    2.883;  150.995;  110.009
789.977; -187.465;-1003.005; -671.992
790.234;  -40.013;   44.996;  -66.992
790.490; -154.662; -884.004;-1031.993
790.747;  -19.185;  -85.004;   22.007
791.004;  -19.683; -426.004; -348.993
791.260;  -81.781; -430.004; -560.994
791.517;  -88.629; -843.003; -788.994
791.773;  -50.102; -379.003; -342.994
792.030;  -95.976; -596.003; -660.995
792.286; -106.974; -686.003; -636.995
792.543;  -20.872;  -74.002; -159.995
792.799;  -60.320; -584.002; -382.996
793.055; -155.968;-1179.002;-1210.996
793.312; -103.691; -827.002; -816.997
793.568;  -66.490; -746.002; -599.997
793.824;   -2.838; -226.001; -284.997
794.081;   11.214; -447.001; -508.998
794.337;   55.741; -664.001; -561.998
794.593; 1422.993; -319.001; -271.999
794.849; 6526.520; -746.001; -772.999
795.105;  307.871; -270.000; -261.999
795.361;   13.223; -490.000; -457.000
795.617;  -67.700; -875.000; -945.000
795.873;  -55.250; -360.000; -407.000
796.129;  -36.800; -368.000; -306.000
796.385;  -27.000; -124.000; -156.000
796.641;   69.325;  412.000;  550.000
796.897;  -89.500; -666.000; -635.000
797.153;   56.750;  453.000;  357.000
797.409;  -91.100; -785.000; -868.000
797.665;  -78.450; -625.000; -732.000
797.921;  -79.625; -775.000; -762.000
798.176;  -65.475; -744.000; -747.000
798.432;  -63.075; -824.000; -596.000
798.688;  -73.850;-1174.000;-1078.000
798.943;   63.950; -165.000; -147.000
799.199;   -8.225;-1005.000; -959.000
799.455;  221.400;  369.000;  316.000
799.710;  106.000; -813.000; -380.000
799.966;  272.850; -162.000; -160.000
800.221;  457.975; -638.000; -721.000
800.477;10751.025; -743.000; -710.000
800.732; 8866.925; -773.000; -800.000
800.988;  611.650;  205.000;  -19.000
801.243; 1800.475; -454.000; -344.000
801.498; 7118.500; -814.000; -739.000
801.754;  397.725; -289.000; -163.000
802.009;   78.825; -257.000; -335.000
802.264;  -73.025; -967.000;-1033.000
802.520;   22.125;  222.000;   -3.000
802.775;  -53.750; -524.000; -359.000
803.030;   46.950;  395.000;  356.000
803.285; -131.500; -840.000; -903.000
803.540;  -60.400; -686.000; -699.000
803.795;  -52.825; -648.000; -583.000
804.051;  -44.350; -279.000; -346.000
804.306;    5.525;  168.000;  128.000
804.561;  158.600;  451.000;  362.000
804.816;  136.000;  714.000;  861.000
805.071;   11.775; -185.000; -280.000
805.325;  218.100; -257.000; -427.000
805.580; -104.300; -841.000; -877.000
805.835;   -7.825; -204.000; -297.000
806.090;  -83.950; -760.000; -676.000
806.345;  -19.325; -344.000; -264.000
806.600;  -24.400; -549.000; -632.000
806.854;  -44.500; -408.000; -538.000
807.109;  -23.400; -493.000; -577.000
807.364;    2.375; -407.000; -328.000
807.618;   -4.575; -415.000; -381.000
807.873;   40.025; -470.000; -494.000
808.128;   94.525; -257.000; -518.000
808.382;   97.375; -224.000; -332.000
808.637;   68.100; -440.000; -511.000
808.891;  191.375; -257.000; -180.000
809.146;   95.675; -902.000; -794.000
809.400;  268.275; -848.000; -923.000
809.654;  345.775; -779.000; -551.000
809.909;  510.625; -841.000; -927.000
810.163; 7239.450; -813.000; -651.000
810.418;17494.850; -940.000; -861.000
810.672; 1025.125; -685.000; -690.000
810.926;  718.600; -993.000; -973.000
811.180; 1402.675; -439.000; -372.000
811.434;31591.450;  240.000;  135.000
811.689;11894.975; -231.000; -365.000
811.943;  608.075; -936.000; -953.000
812.197;  299.650; -893.000; -671.000
812.451;  109.400; -379.000; -514.000
812.705;  -26.700; -809.000; -619.000
812.959;  -11.125; -263.000; -388.000
813.213;  -10.400; -283.000; -209.000
813.467;   65.375;  470.000;  253.000
813.721; -114.325; -764.000; -792.000
813.975; -126.100; -826.000; -877.000
814.229;   44.900;  430.000;  353.000
814.482;  -77.300; -517.000; -566.000
814.736; -111.325; -766.000; -744.000
814.990; -133.775; -779.000; -872.000
815.244;  -49.325; -228.000; -285.000
815.497;  -86.550; -636.000; -601.000
815.751;  -11.150; -141.000;   82.000
816.005;  -93.325; -470.000; -586.000
816.258;  -66.075; -510.000; -363.000
816.512; -126.300; -693.000; -610.000
816.766;    4.200;  121.000;  157.000
817.019;   22.525;  148.000;  149.000
817.273; -114.950;-1000.000; -802.000
817.526;  -42.900; -206.000; -173.000
817.779;  -41.175;-1049.000; -960.000
818.033;  -85.625; -693.000; -807.000
818.286; -121.500; -725.000; -792.000
818.540;  -92.225; -403.000; -403.000
818.793;  -76.425; -402.000; -489.000
819.046;  -98.475; -582.000; -520.000
819.299;  -41.375; -157.000; -166.000
819.553; -106.900; -552.000; -592.000
819.806; -165.900;-1016.000; -838.000
820.059;  -73.925; -334.000; -354.000
820.312;   13.200;  152.000;  185.000
820.565;  -24.125;  110.000;  -27.000
820.818;  -47.900;  -59.000; -173.000
821.071; -153.375;-1041.000; -957.000
821.324; -103.600; -536.000; -540.000
821.577;  -98.400; -457.000; -483.000
821.830;  -65.800; -270.000; -172.000
822.083; -133.550; -733.000; -288.000
822.336;  -55.800; -261.000; -167.000
822.589; -152.550; -805.000; -688.000
822.842; -134.225; -875.000; -770.000
823.094; -179.000;-1076.000;-1114.000
823.347; -126.825; -925.000; -729.000
823.600;   15.225;  402.000;  187.000
823.853;  -49.525; -311.000; -267.000
824.105;  -76.600; -331.000; -575.000
824.358; -116.775; -617.000; -716.000
824.611;   34.025;  234.000;   40.000
824.863;  -46.425; -612.000; -591.000
825.116;   44.275;  -33.000;   27.000
825.368;   95.450; -366.000; -372.000
825.621;  153.850; -186.000; -240.000
825.873;   97.625; -704.000; -737.000
826.126;  601.775; -669.000; -641.000
826.378;11870.750; -389.000; -505.000
826.630; 2640.975; -890.000; -898.000
826.883;   44.450; -754.000; -693.000
827.135;   36.600; -279.000; -270.000
827.387; -125.250; -893.000; -839.000
827.639;  -40.600;  -86.000;   32.000
827.892; -134.525; -742.000; -582.000
828.144; -137.550; -848.000; -804.000
828.396;  -36.600;  104.000;  -80.000
828.648; -117.350; -440.000; -333.000
828.900; -156.650; -702.000; -795.000
829.152; -122.100; -684.000; -683.000
829.404;  -73.550; -215.000; -267.000
829.656;   -3.475;  321.000;  214.000
829.908;  -24.125;  393.000;  229.000
830.160; -164.000;-1064.000;-1047.000
830.412;  -96.800; -481.000; -430.000
830.664; -134.550; -557.000; -665.000
830.916;  -78.300; -268.000; -206.000
831.167; -180.775;-1073.000; -951.000
831.419; -107.975; -623.000; -566.000
831.671; -148.375; -764.000; -809.000
831.923;  -97.475; -311.000; -447.000
832.174;  -80.250; -273.000; -331.000
832.426; -110.250; -493.000; -582.000
832.678; -187.000;-1043.000;-1091.000
832.929; -162.200; -947.000; -935.000
833.181;  -77.700; -575.000; -677.000
833.432;  -50.800;  -59.000; -186.000
833.684;  -25.450;  112.000;  -27.000
833.935; -110.625; -610.000; -566.000
834.187; -125.025; -829.000; -823.000
834.438;  -39.275;  -58.000;  -25.000
834.689;  -55.750; -255.000; -123.000
834.941;  -63.275; -343.000; -244.000
835.192; -111.825; -590.000; -533.000
835.443; -107.100; -419.000; -506.000
835.695;   -3.500;  138.000;  -16.000
835.946;  -95.050; -608.000; -378.000
836.197; -109.775; -599.000; -622.000
836.448; -100.225; -528.000; -395.000
836.699;  -66.275; -253.000; -341.000
836.950;  -12.450;   72.000;    7.000
837.201; -153.525;-1003.000; -987.000
837.452;  -53.475; -356.000; -170.000
837.703; -108.375; -791.000; -737.000
837.954;  -41.850; -205.000; -365.000
838.205;  -83.375;-1029.000;-1008.000
838.456;  163.675; -196.000; -282.000
838.707;  -10.700; -423.000; -519.000
838.958;   12.025; -634.000; -647.000
839.209;  283.600;   18.000;   40.000
839.460;  105.300; -439.000; -201.000
839.710;  173.625; -135.000; -297.000
839.961;  427.650;  730.000;  612.000
840.212;  339.275; -382.000; -497.000
840.462; 1196.775; -328.000; -277.000
840.713;18409.300; -571.000; -536.000
840.964; 6936.675;  -62.000; -143.000
841.214;  518.325; -384.000; -624.000
841.465;  581.300; -214.000; -141.000
841.715;  530.725; -417.000; -380.000
841.966;  676.800; -746.000; -685.000
842.216;10148.325; -330.000; -431.000
842.466;36017.650; -169.000; -313.000
842.717; 1817.600; -964.000; -952.000
842.967;  351.225; -635.000; -641.000
843.217;  276.525;   20.000;   28.000
843.468;   61.850; -104.000; -132.000
843.718;  -41.150; -718.000; -726.000
843.968;  -91.075; -837.000; -765.000
844.218;   24.350; -315.000; -262.000
844.469;  -46.475; -577.000; -561.000
844.719; -101.375; -537.000; -682.000
844.969;  -96.825; -550.000; -580.000
845.219; -158.350; -814.000; -862.000
845.469;  -79.375; -392.000; -342.000
845.719; -147.525; -792.000; -884.000
845.969;  -16.575;  119.000;  174.000
846.219; -119.350; -738.000; -720.000
846.469;   25.425;  464.000;  432.000
846.718;  -51.550; -115.000;   31.000
846.968; -140.275; -827.000; -827.000
847.218;  -44.800; -224.000; -371.000
847.468;    4.350; -586.000; -555.000
847.718; -153.425; -827.000; -798.000
847.967; -127.550; -826.000; -915.000
848.217;  -90.500; -449.000; -569.000
848.467;  -58.625; -405.000; -376.000
848.716; -110.375; -708.000; -725.000
848.966;   -5.125; -372.000; -358.000
849.215;  -71.675; -428.000; -419.000
849.465;  -90.425; -785.000; -615.000
849.714; -142.850;-1132.000;-1150.000
849.964;  -73.750; -551.000; -613.000
850.213;  -19.850; -393.000; -355.000
850.463;   72.450;  137.000;  340.000
850.712;  -19.325; -542.000; -567.000
850.961;   17.025; -739.000; -678.000
851.211;   95.350; -513.000; -504.000
851.460;  167.200; -635.000; -650.000
851.709;  590.825;  -25.000;   18.000
851.958;10716.625; -912.000; -750.000
852.208;12381.875; -859.000; -879.000
852.457;  438.900; -181.000;  -13.000
852.706;   49.975; -791.000; -823.000
852.955;   -5.975; -507.000; -528.000
853.204;  -74.250; -521.000; -461.000
853.453;  -83.625; -418.000; -458.000
853.702; -142.450; -660.000; -750.000
853.951; -104.025; -532.000; -520.000
854.200; -114.625; -613.000; -562.000
854.449; -125.750; -695.000; -661.000
854.698;  -98.150; -340.000; -279.000
854.946;  -64.525; -181.000; -284.000
855.195; -163.825; -843.000; -868.000
855.444; -104.700; -395.000; -420.000
855.693; -129.475; -345.000; -432.000
855.941; -102.175; -387.000; -516.000
856.190;  -67.925; -256.000; -382.000
856.439; -134.550; -652.000; -703.000
856.687;  -55.850;  -99.000;  -72.000
856.936; -120.500; -621.000; -323.000
857.184; -178.050;-1067.000;-1020.000
857.433; -105.350; -423.000; -512.000
857.681; -165.925; -989.000; -953.000
857.930;  -78.750; -282.000; -433.000
858.178; -178.950; -856.000; -929.000
858.427; -152.425; -802.000; -781.000
858.675; -129.050; -377.000; -544.000
858.923; -117.475; -527.000; -819.000
859.172; -181.525;-1094.000;-1070.000
859.420;  -85.650; -339.000; -239.000
859.668; -142.750; -624.000; -628.000
859.916;  -37.325;  109.000;  115.000
860.164; -117.125; -699.000; -603.000
860.413;  324.825; -878.000; -696.000
860.661;  218.675; -709.000; -577.000
860.909;  -94.675; -339.000; -325.000
861.157;  -93.050; -277.000; -444.000
861.405; -122.575; -534.000; -670.000
861.653;   15.175;  310.000;  310.000
861.901;  205.750; -543.000; -613.000
862.149;   -4.525; -801.000; -824.000
862.396;  -81.750; -297.000; -187.000
862.644; -105.000; -368.000; -347.000
862.892;  -45.675;   98.000;  138.000
863.140; -116.725; -549.000; -530.000
863.388; -161.725; -815.000; -759.000
863.635; -137.250; -642.000; -601.000
863.883;   -7.925;  231.000;  190.000
864.131; -110.400; -288.000; -357.000
864.378; -141.000; -675.000; -540.000
864.626;  -97.750; -347.000; -415.000
864.873; -126.925; -556.000; -505.000
865.121; -153.925; -714.000; -799.000
865.368;  -53.175; -173.000;   75.000
865.616;  -56.075;  -33.000;  -40.000
865.863;  -90.150; -462.000; -506.000
866.111; -122.200; -795.000; -824.000
866.358;   28.625; -426.000; -420.000
866.605; 2176.375;  -64.000; -804.000
866.853; 2092.225; -621.000; -537.000
867.100;  -54.600; -728.000; -775.000
867.347; -103.725; -672.000; -611.000
867.594;  -97.800; -740.000; -714.000
867.841;   92.900;   97.000;   17.000
868.089; -150.900; -746.000; -698.000
868.336; -102.775; -477.000; -420.000
868.583; -153.325; -637.000; -741.000
868.830;  -59.100; -131.000; -170.000
869.077; -172.675; -859.000; -787.000
869.324; -127.725; -502.000; -458.000
869.571; -144.825; -398.000; -430.000
869.818; -124.175; -485.000; -439.000
870.065; -113.475; -439.000; -513.000
870.311; -126.450; -456.000; -542.000
870.558; -111.175; -332.000; -311.000
870.805;  -95.850; -320.000; -384.000
871.052; -118.000; -494.000; -369.000
871.298;  -40.300; -204.000; -131.000
871.545;  -84.425; -151.000; -185.000
871.792;  -87.725; -173.000; -222.000
872.038;  -61.125;   43.000; -126.000
872.285; -125.650; -496.000; -387.000
872.532; -109.775; -357.000; -387.000
872.778;   14.975;  556.000;  403.000
873.025;  -91.075; -384.000; -359.000
873.271;   20.975;  501.000;  578.000
873.517;  -34.075; -133.000; -209.000
873.764;  -36.600; -193.000;  -80.000
874.010;  -68.625; -143.000; -230.000
874.257;  -45.775;  123.000;   90.000
874.503; -135.750; -579.000; -479.000
874.749;  -65.675;   31.000;  275.000
874.995;  -76.225;  -80.000;  -20.000
875.242; -127.275; -540.000; -478.000
875.488; -115.200; -414.000; -439.000
875.734;  -67.300; -106.000; -234.000
875.980;  200.350; -872.000;-1032.000
876.226;  378.600; -157.000; -255.000
876.472;   -1.850;  343.000;  237.000
876.718;  -45.000;  184.000;  158.000
876.964;  -56.325;   56.000;   55.000
877.210; -163.400; -547.000; -677.000
877.456; -144.475; -630.000; -557.000
877.702; -194.000; -821.000; -832.000
877.948; -116.100; -377.000; -497.000
878.193;   16.975;  361.000;  255.000
878.439;  -97.575; -487.000; -472.000
878.685;  -90.875; -272.000; -343.000
878.931; -145.350; -618.000; -676.000
879.176;  -74.950; -201.000; -201.000
879.422; -181.300; -933.000; -820.000
879.668;   26.775;   10.000;   79.000
879.913;  148.350;   53.000;  137.000
880.159;  -63.275; -112.000;  -17.000
880.404;  -66.150; -152.000; -162.000
880.650;  -53.900;   91.000;  141.000
880.895; -173.675; -670.000; -710.000
881.141; -140.250; -454.000; -428.000
881.386; -153.975; -503.000; -658.000
881.631;  -76.925; -311.000; -166.000
881.877;  -34.100;  112.000;  -13.000
882.122; -132.825; -684.000; -600.000
882.367;  -89.375; -136.000; -186.000
882.612;  -89.475;  -80.000; -176.000
882.858; -182.625; -877.000; -823.000
883.103;  -99.750; -297.000; -267.000
883.348; -169.650; -759.000; -852.000
883.593; -155.075; -677.000; -602.000
883.838;  -60.725; -311.000;  -24.000
884.083;   16.200;  353.000;  288.000
884.328;  -92.625; -564.000; -545.000
884.573;  -46.950; -196.000; -143.000
884.818;  220.175; -694.000; -531.000
885.063;  188.450; -348.000; -315.000
885.308; -113.650; -475.000; -398.000
885.553;   -8.600;  245.000;  325.000
885.797; -130.525; -545.000; -615.000
886.042;  -57.125;    8.000;   58.000
886.287; -102.000; -253.000; -211.000
886.532;  -67.225;   26.000;  204.000
886.776; -109.325; -407.000; -525.000
887.021; -152.475; -621.000; -574.000
887.265; -151.800; -685.000; -689.000
887.510; -129.975; -557.000; -496.000
887.755;  -87.050; -194.000; -164.000
887.999; -136.650; -552.000; -575.000
888.244;  -63.300;  -58.000;  161.000
888.488;  -16.600;  371.000;  393.000
888.732; -146.625; -368.000; -520.000
888.977; -133.925; -622.000; -567.000
889.221; -162.075; -683.000; -659.000
889.465; -130.025; -422.000; -566.000
889.710;  -90.250;  -56.000; -299.000
889.954;    4.650;  579.000;  467.000
890.198; -149.025; -584.000; -707.000
890.442; -170.150; -716.000; -712.000
890.687; -164.300; -800.000; -753.000
890.931; -100.250; -273.000; -210.000
891.175; -134.175; -502.000; -500.000
891.419;  -81.150; -105.000; -110.000
891.663;  -93.450; -239.000; -112.000
891.907; -177.025; -801.000; -545.000
892.151; -188.100; -920.000; -815.000
892.395; -119.750; -274.000; -387.000
892.638;  -24.425;  408.000;  291.000
892.882; -198.875; -780.000; -867.000
893.126;   11.225;  758.000;  558.000
893.370;  -93.925; -167.000; -168.000
893.614; -145.925; -714.000; -715.000
893.857; -116.625; -183.000; -197.000
894.101; -145.975; -527.000; -631.000
894.345;  -48.600;  300.000;  150.000
894.588;   11.925;  569.000;  380.000
894.832;  -82.525; -178.000;  -84.000
895.075;  -89.575;   15.000;  -92.000
895.319; -136.800; -552.000; -420.000
895.563; -128.100; -413.000; -353.000
895.806; -156.875; -628.000; -741.000
896.049;  -56.400; -576.000; -368.000
896.293;   87.050;  527.000;  405.000
896.536;  -89.925; -465.000; -468.000
896.779;  -69.875; -149.000;   -1.000
897.023; -149.050; -751.000; -714.000
897.266;  -45.675;  325.000;  269.000
897.509; -187.750; -900.000; -901.000
897.752;  -47.475;  149.000;  171.000
897.996; -204.200; -972.000; -864.000
898.239;  -45.400;  168.000;  102.000
898.482; -130.375; -431.000; -453.000
898.725;  -36.925;  101.000;   53.000
898.968; -162.900; -609.000; -744.000
899.211; -122.375; -513.000; -361.000
899.454; -135.250; -633.000; -539.000
899.697;  -64.050;   90.000;  -43.000
899.940; -166.100; -761.000; -757.000
900.182; -114.625; -335.000; -405.000
900.425; -102.425; -150.000; -298.000
900.668;  -21.200;  491.000;  350.000
900.911; -102.575; -292.000; -345.000
901.154;  -50.725;  141.000;   -3.000
901.396; -136.550; -407.000; -412.000
901.639; -146.375; -430.000; -496.000
901.882; -186.050; -790.000; -809.000
902.124;  -87.550;  -29.000; -143.000
902.367; -122.200; -315.000; -361.000
902.609; -158.225; -476.000; -453.000
902.852;  -91.475; -108.000; -260.000
903.094; -131.350; -458.000; -337.000
903.337;  -58.675;  -26.000;   53.000
903.579; -114.975; -228.000; -441.000
903.821; -166.350; -597.000; -744.000
904.064;  -68.600;   85.000;  127.000
904.306;  -96.700; -126.000; -166.000
904.548; -109.625; -152.000; -366.000
904.790; -105.475; -195.000; -340.000
905.033; -142.025; -625.000; -577.000
905.275; -135.175; -513.000; -524.000
905.517;   61.250;  468.000;  256.000
905.759;  -74.375; -667.000; -761.000
906.001;  -98.175; -322.000; -369.000
906.243;  -60.000; -162.000; -224.000
906.485;  130.975; -265.000; -207.000
906.727;   88.650; -499.000; -542.000
906.969;  -28.775;  -30.000; -135.000
907.211;  129.225; -316.000; -382.000
907.453;  282.875; -188.000; -237.000
907.695;   -2.775; -158.000; -385.000
907.936;   34.600;  818.000;  706.000
908.178;  -69.325;   92.000; -135.000
908.420;  -75.575; -111.000; -162.000
908.662; -148.700; -633.000; -682.000
908.903;  -93.225; -208.000; -123.000
909.145;  -65.750; -240.000; -305.000
909.386;   11.250;  315.000;  280.000
909.628;   33.725;  363.000;  397.000
909.870;   -2.750;   29.000;  264.000
910.111;  -99.075; -809.000; -949.000
910.353;   14.750; -123.000; -161.000
910.594;   -3.850; -574.000; -606.000
910.835;   85.750; -265.000; -326.000
911.077;  157.300; -503.000; -604.000
911.318;  281.425; -505.000; -471.000
911.559;  431.100; -577.000; -880.000
911.801; 1374.825; -284.000; -280.000
912.042;10835.075;  -50.000; -159.000
912.283;26549.000;  404.000;  371.000
912.524; 3809.350; -396.000; -457.000
912.765;  470.650; -193.000;   79.000
913.006;  222.700; -307.000; -338.000
913.247;   45.250; -270.000; -290.000
913.488;  -11.150;  -43.000;   30.000
913.729;  -89.425; -373.000; -373.000
913.970;  -72.200;  -96.000; -292.000
914.211;  -77.975; -160.000; -198.000
914.452;  -72.175; -118.000;  -11.000
914.693;   15.175;  510.000;  592.000
914.934;    5.300;  510.000;  440.000
915.175;  -75.025;   53.000;  -95.000
915.415;  -92.125; -137.000;   27.000
915.656;  -69.300;  -28.000;  192.000
915.897; -110.500; -252.000;  -82.000
916.137;  -75.150;   74.000;   -9.000
916.378; -130.800; -573.000; -517.000
916.619;  -82.150; -159.000;  -63.000
916.859;  -35.200;  303.000;  330.000
917.100;  137.700; 1655.000; 1070.000
917.340;   42.350;  930.000;  728.000
917.581;   50.125;  965.000;  789.000
917.821;  -31.075; -171.000;  143.000
918.061;   -2.400; -199.000;  -72.000
918.302;  -58.800; -152.000; -211.000
918.542;  -40.975;  -22.000;    3.000
918.782;   25.600;  369.000;  377.000
919.023;  145.550;  360.000;  427.000
919.263; 1806.600; 8131.000;  202.000
919.503; 1099.200; -137.000;  -54.000
919.743;  658.400;  390.000;  266.000
919.983;  262.050; -134.000;  -26.000
920.223;   69.425;  135.000;   14.000
920.463;  137.725;  631.000;  554.000
920.703;  100.750;   84.000;   39.000
920.943;  143.175; -110.000;   90.000
921.183;  218.375; -414.000; -405.000
921.423;  503.850;  307.000;  546.000
921.663;  724.450; -174.000; -257.000
921.903; 1572.625;  237.000;  173.000
922.143; 8864.650;  372.000;  389.000
922.383;33092.875;  158.000;  115.000
922.622;10431.350; -120.000;  -15.000
922.862; 1144.350;  796.000;  785.000
923.102;  428.175;  -51.000;   33.000
923.341;  170.275;   59.000;   74.000
923.581;   70.275;  450.000;  360.000
923.821;   28.675;  301.000;  398.000
924.060;    3.850;  351.000;  193.000
924.300;  -73.725;  -16.000; -128.000
924.539;  -21.425;  584.000;  473.000
924.779;   -0.125;  812.000;  597.000
925.018;  -57.100;  247.000;  353.000
925.257;   -2.375;  595.000;  666.000
925.497;  -36.475;  447.000;  412.000
925.736;  -81.550;  -35.000;  102.000
925.975;  -10.050;  687.000;  669.000
926.214;   27.225;  907.000;  850.000
926.454;    1.050;  706.000;  757.000
926.693;  -58.925;  419.000;  543.000
926.932;   35.225; 1021.000;  825.000
927.171;   75.225; 1107.000; 1044.000
927.410;   57.200; 1144.000;  967.000
927.649;   14.550;  924.000;  742.000
927.888;   -8.975;  590.000;  564.000
928.127;  -12.825;  680.000;  678.000
928.366;   24.500;  842.000;  826.000
928.605;   46.200;  831.000;  737.000
928.844;  231.525; 1451.000; 1393.000
929.083;  621.725;  770.000;  613.000
929.321;  308.525; 1335.000; 1359.000
929.560;   86.275; 1158.000; 1122.000
929.799;  -30.850;  574.000;  475.000
930.038;   86.750; 1025.000; 1394.000
930.276;  -48.475;  334.000;  397.000
930.515;   -0.725;  827.000;  681.000
930.753;  -16.850;  614.000;  589.000
930.992;  -15.425;  664.000;  717.000
931.230;    4.125;  847.000;  847.000
931.469;  179.525; 2162.000;  892.000
931.707;   65.650;  840.000;  751.000
931.946;   56.400; 1278.000; 1344.000
932.184;   50.000; 1437.000; 1175.000
932.423;   39.550; 1265.000;  963.000
932.661;  101.925; 1296.000; 1428.000
932.899;   27.000;  987.000;  821.000
933.137;   -4.700;  754.000;  564.000
933.376;  153.150; 1664.000; 1335.000
933.614;  154.400; 1759.000; 1196.000
933.852;   57.300; 1357.000; 1171.000
934.090;  127.350; 1722.000; 1747.000
934.328;   89.500; 1252.000; 1457.000
934.566;   81.775; 1431.000; 1110.000
934.804;  123.725; 1263.000; 1309.000
935.042;  429.875; 1861.000; 1850.000
935.280; 1721.700; 2088.000; 2063.000
935.518; 1526.150; 2113.000; 2007.000
935.756;  347.600; 2481.000; 2316.000
935.994;  152.650; 1808.000; 1751.000
936.231;  348.275; 2890.000; 2950.000
936.469;  183.100; 2367.000; 2378.000
936.707;  163.000; 2220.000; 2167.000
936.945;  231.875; 2825.000; 2882.000
937.182;  214.550; 2679.000; 2741.000
937.420;  314.075; 3602.000; 3031.000
937.657;  414.175; 3365.000; 3478.000
937.895;  346.675; 3331.000; 3488.000
938.133;  318.225; 3540.000; 3528.000
938.370;  333.050; 3896.000; 4191.000
938.607;  410.450; 4488.000; 4205.000
938.845;  550.950; 5587.000; 5549.000
939.082;  501.675; 5387.000; 5177.000
939.320;  554.550; 5799.000; 5728.000
939.557;  643.125; 6549.000; 6491.000
939.794;  723.325; 7285.000; 7097.000
940.031;  919.850; 8421.000; 8368.000
940.269; 1129.125; 9552.000; 9107.000
940.506; 1124.050;10901.000;10507.000

