
Integration time [ms]: 200.000
Averaging Nr. [scans]: 10
Smoothing Nr. [pixels]: 0
Data measured with spectrometer [name]: 2101013U2
Wave   ;Sample   ;Dark     ;Reference
[nm]   ;[counts] ;[counts] ;[counts] 

394.013; -101.026; -450.257; -315.536
394.305; -146.226; -461.258; -419.536
394.596; -163.536; -676.269; -527.514
394.887; -201.735; -796.268; -654.518
395.178;   35.969;  145.736;   11.476
395.470;  -36.030; -210.263; -356.526
395.761;   78.667;  305.734;  394.479
396.052; -115.549; -545.284; -306.489
396.343; -136.942; -557.276; -454.503
396.634;  -78.445; -200.279; -290.497
396.926; -149.135; -618.268; -565.517
397.217;    9.159;   11.725;  -17.504
397.508;  -80.140; -366.273; -154.507
397.799; -182.945; -555.279; -571.497
398.090; -233.745; -973.280; -902.495
398.381;  -16.156;   11.708;  -11.473
398.672; -188.756; -585.292; -742.473
398.963;  -95.544; -348.279; -373.498
399.254;  -30.255;   54.709; -209.475
399.545; -234.033;-1017.266; -883.520
399.836;  -62.443; -407.277; -343.501
400.127;  -34.159; -205.295; -209.468
400.418;  -79.040; -423.274; -392.506
400.709; -105.047; -359.281; -333.493
401.000;  -43.155; -268.291; -309.476
401.290;   66.335;  225.698;  115.545
401.581;  -33.050; -166.286; -228.485
401.872;  -94.461; -542.298; -486.462
402.163;  -68.859; -313.296; -252.467
402.454;  -45.055; -123.291; -163.475
402.744; -222.960; -844.297; -813.465
403.035;  -52.257; -226.293;  -86.471
403.326; -109.256; -366.292; -384.474
403.617;   51.338;  204.701;  165.539
403.907; -152.148; -593.283; -679.490
404.198; -157.370; -545.307; -599.446
404.489; -178.748; -618.283; -588.491
404.779; -169.965; -618.302; -660.456
405.070;   -3.067;  -67.304; -174.451
405.360;  -43.557; -259.293; -238.472
405.651;   61.837;  125.699;   98.542
405.942;   37.549;  209.714;  127.516
406.232; -102.549; -432.285; -413.487
406.523;  176.942;  641.706;  758.530
406.813; -147.051; -579.286; -644.484
407.104;   79.244;  261.708;  144.527
407.394; -170.462; -604.299; -591.462
407.685;   55.050;  336.715;  222.513
407.975; -104.048; -400.283; -382.490
408.265;  -19.054; -134.289; -190.478
408.556; -130.655; -472.291; -459.475
408.846;  135.042;  474.706;  429.530
409.137;  -14.753;   -1.288; -216.480
409.427;  -97.349; -193.285; -271.487
409.717; -169.639; -776.273; -692.508
410.007;    0.750;    4.715; -170.486
410.298;  -67.358; -360.295; -342.469
410.588; -146.650; -495.285; -510.486
410.878; -263.352; -792.287; -873.482
411.168; -121.561; -481.298; -478.463
411.459;  -57.348; -295.283; -242.489
411.749; -178.156; -609.292; -507.474
412.039; -179.853; -755.289; -386.480
412.329;   53.856;   40.722;  132.501
412.619;  -39.851;  -62.286; -148.485
412.909;  206.347;  639.711;  594.521
413.199;  -61.245; -130.280; -251.495
413.490;  131.646;  521.710;  352.523
413.780; -241.845;-1013.279; -913.496
414.070;   26.758;  -46.276;  235.497
414.360; -172.744; -729.278; -666.498
414.650; -191.752; -726.288; -688.482
414.940; -143.545; -538.280; -441.496
415.230;   59.348;   50.712;   74.519
415.520;   41.064;  155.730;   66.486
415.809;  -54.447; -305.281; -125.493
416.099; -151.343; -388.277; -229.501
416.389;  124.160;  435.726;  236.494
416.679;   45.770;   91.738;   85.473
416.969; -128.551; -527.287; -503.483
417.259;   75.055;  341.721;  171.503
417.549;   64.653;  522.718;  318.508
417.838;  -51.535; -205.268; -147.518
418.128;  163.446;  650.710;  492.522
418.418; -153.739; -491.272; -579.509
418.708;   10.860;    9.726;  -48.506
418.997; -119.941; -474.275; -480.505
419.287; -259.940; -733.273; -790.507
419.577;  -68.748; -160.283; -123.489
419.866; -148.443; -588.277; -498.501
420.156;  -37.437; -242.270;  -55.513
420.446;  -26.131; -112.263;  -26.526
420.735; -143.837; -376.271; -446.512
421.025;  484.556; 1830.722;  315.502
421.314;  -61.137; -203.271; -226.512
421.604;  -34.435;   89.732;  233.484
421.893; -179.838; -705.271; -602.511
422.183; -156.031; -487.263; -461.526
422.472;   -8.138;  -36.271; -107.511
422.762; -127.833; -416.266; -379.521
423.051; -238.042; -916.276; -916.503
423.341; -152.740; -491.273; -439.507
423.630;  -48.532; -121.265;   15.477
423.919;  -23.241;   58.725;   49.495
424.209;  -50.430;  -31.263;   56.473
424.498;  -13.135;   68.732;  161.483
424.787; -126.034; -535.267; -601.518
425.077;  -14.332;   34.735;   29.478
425.366; -196.630; -734.262; -744.528
425.655;  133.860;  639.727;  259.493
425.945;  -85.617; -313.247; -268.554
426.234;   43.173;  117.741;  300.467
426.523;  -89.327;  -86.259; -350.534
426.812;   34.067;  107.734;  159.480
427.101;    3.364; -127.269; -323.515
427.390;  -57.336;  -55.270;  -86.514
427.680; -142.825; -624.257; -411.538
427.969;  -79.124; -330.255; -301.540
428.258; -155.426; -385.257; -477.536
428.547;   90.762;  449.728;  397.490
428.836; -158.122; -421.253; -398.543
429.125;  -78.927; -199.259;  -72.534
429.414; -109.820; -330.251; -294.548
429.703;  -83.720; -231.251; -213.548
429.992; -251.320; -938.250; -828.549
430.281; -128.131; -397.264; -331.524
430.570;    6.879;  -21.252;   32.454
430.859;   32.673;  279.741;  352.466
431.148;  139.983;  636.752;  631.446
431.437;   76.779;  391.748;  367.454
431.725; -155.326; -544.257; -481.536
432.014; -291.421; -845.253; -756.545
432.303;  -58.510; -149.239; -105.569
432.592;  -96.331; -460.263; -178.525
432.881; -172.617; -601.248; -437.554
433.169;  -68.624; -343.255;  -61.540
433.458;   89.794;  445.765;  540.424
433.747; -127.529; -397.261; -289.529
434.036;  -93.912; -275.242; -280.564
434.324; -165.418; -395.249; -379.551
434.613;   42.687;   40.757;  159.437
434.902;   52.889;  333.760;  439.433
435.190;   30.590;   75.761;  295.431
435.479;  -51.214;  -52.245;   83.441
435.767; -168.814; -411.244; -427.561
436.056;  -93.912; -340.242; -294.563
436.345; -110.410; -372.240; -223.568
436.633;   69.781;   60.750;  383.450
436.922;   72.190;  208.760;  414.432
437.210;  -87.307; -194.236;    1.426
437.499; -170.106; -583.235; -432.576
437.787; -109.807; -339.236;  -10.574
438.075;    5.391;   56.761;  162.430
438.364;  -17.309;  -44.238;  250.429
438.652; -102.698; -286.226; -138.592
438.941;  -43.502;    3.770;  269.415
439.229; -169.221; -665.252; -466.545
439.517;  -68.206; -160.234;  -85.577
439.806; -149.697; -501.225; -290.595
440.094;   66.995;  377.766;  650.421
440.382; -164.304; -653.233; -302.580
440.670; -134.706; -361.235; -285.576
440.959; -131.995; -347.223; -170.599
441.247; -102.501; -151.229; -109.587
441.535;  -94.606; -266.235;   31.423
441.823; -180.405; -497.234; -305.578
442.111;   58.100;  173.771;  327.412
442.400; -209.414; -628.245; -335.559
442.688;  -61.205; -111.234; -620.579
442.976; -236.286; -786.213; -450.617
443.264; -121.896; -324.224; -364.597
443.552;  -58.198; -258.226;   51.408
443.840;  104.294;  602.765;  876.423
444.128;   52.896;  265.767;  269.420
444.416; -147.100; -694.228; -312.588
444.704; -159.892; -465.219;  -92.605
444.992;  -32.098;   -0.226;  240.407
445.280; -146.002; -517.230;  -94.585
445.568; -184.886; -694.212; -396.618
445.856;  -52.194; -174.221;  357.398
446.143;  -59.192;  -54.220;   -7.604
446.431;   -5.300;  -25.228;  625.411
446.719;  110.910;  489.783;  675.391
447.007;  112.298;  481.769;  705.416
447.295;  136.205;  597.777;  871.402
447.583; -123.501; -464.229;  -34.587
447.870; -140.494; -434.221; -202.601
448.158;  -54.302; -104.230;  129.415
448.446; -182.592; -800.219; -338.604
448.733;  -35.696;   13.776;  269.403
449.021;    4.014;   60.788;  341.382
449.309;  -85.284; -296.210;  208.379
449.596;   22.309;  128.783;   59.392
449.884; -167.295; -571.222; -325.600
450.172; -250.199; -756.227; -406.590
450.459;  102.912;  645.786;  780.387
450.747; -165.491; -411.218; -147.608
451.034;  137.300;  493.772;  889.411
451.322; -144.788; -413.214; -170.614
451.609;   38.004;  292.777;  508.403
451.897; -147.178; -550.203; -183.634
452.184; -223.595; -622.223; -400.598
452.472;  -25.582;   97.792;  269.375
452.759;  120.708;  512.781;  864.395
453.047; -138.086; -407.212; -125.617
453.334; -177.592; -732.219; -216.606
453.621; -163.087; -438.214; -161.615
453.909;  -38.679;   13.796;  384.368
454.196;  -97.174; -299.199; -123.641
454.483;   25.423;  317.798;  540.364
454.771;  -59.482; -215.208;  196.374
455.058;  -74.882; -316.207;  102.374
455.345;   35.731;   71.807;  344.347
455.632;  -49.781; -128.207;  235.373
455.919;   -9.172;  -82.196;  182.354
456.207; -250.774; -774.198; -450.642
456.494; -150.076; -475.200;  -66.639
456.781; -151.677; -399.202; -198.635
457.068;  -54.781; -253.206;  -29.628
457.355; -186.581; -698.206; -401.629
457.642; -171.080; -552.205; -290.630
457.929; -210.370; -778.194; -417.651
458.216; -187.086; -575.212; -354.617
458.503;  -63.269; -173.193;  -19.652
458.790; -226.582; -864.208; -630.625
459.077;  -44.777;  -77.202;  110.364
459.364; -140.071; -350.195; -210.649
459.651;  -11.281;  -46.206;  220.372
459.938; -241.383; -864.209; -665.623
460.225;  -18.077;  132.799;  276.363
460.512; -272.172; -836.197; -688.645
460.799;  -20.791;  -32.218;  320.392
461.086; -155.775; -370.200; -251.640
461.372; -160.774; -509.198; -279.642
461.659;  -36.472; -165.196;  108.354
461.946; -115.770; -445.193;  -54.651
462.233;  203.525;  842.800;  888.361
462.519; -243.976; -814.201; -464.639
462.806; -223.072; -768.197; -497.645
463.093; -115.567; -445.191;  -66.656
463.380; -276.963; -920.186; -824.664
463.666;  -63.172; -259.197;  -18.646
463.953; -114.771; -406.195; -243.648
464.239;  -63.871; -173.195;  -77.648
464.526;   82.530;  413.806;  743.350
464.813; -153.466; -565.190; -304.658
465.099;   97.631;  606.807;  607.348
465.386;  183.431;  903.807;  921.348
465.672; -228.972; -694.197; -522.645
465.959; -199.164; -598.188; -520.662
466.245; -171.169; -468.193; -359.652
466.532;  -49.271; -109.195;   63.352
466.818; -109.263; -357.186; -216.664
467.104; -185.259; -488.182; -415.672
467.391; -172.066; -628.189; -459.658
467.677;  -90.663; -289.186;    9.335
467.964; -179.665; -682.189; -471.660
468.250; -138.263; -331.186; -160.665
468.536;   -4.666;   90.811;  180.341
468.822; -225.362; -821.184; -574.668
469.109;  128.549;  351.827;  471.311
469.395;  158.232;  729.808;  787.346
469.681;   10.834;   46.811;  156.341
469.967; -171.965; -699.188; -382.660
470.254; -108.964; -494.188; -306.662
470.540; -158.572; -601.196; -476.646
470.826; -150.458; -488.181; -397.675
471.112;   28.039;  288.816;  113.331
471.398;  -34.861; -253.183;  -58.670
471.684; -180.155; -626.177; -447.680
471.970; -304.458; -918.180; -981.675
472.256; -137.668; -521.192; -441.654
472.542; -126.550; -499.171; -434.691
472.828; -209.760; -743.182; -607.672
473.114; -113.246; -380.166; -283.700
473.400; -146.354; -504.175; -293.684
473.686; -129.945; -452.166; -400.701
473.972;  -76.652; -230.174; -131.687
474.258; -257.551; -925.173; -843.689
474.544;  -58.456; -183.178;   -2.679
474.830;  -36.354;  -65.175;   45.316
475.116;  -65.566; -123.190; -196.658
475.401; -139.158; -558.180; -467.676
475.687; -237.558; -725.180; -718.676
475.973; -210.759; -673.181; -770.673
476.259;  170.647;  736.825;  764.315
476.544; -172.955; -539.176; -437.682
476.830; -135.251; -398.172; -322.690
477.116; -128.055; -430.177; -336.682
477.401;  107.542;  346.820;  358.324
477.687;  -99.254; -289.175; -405.684
477.973;  -33.159;   21.819;   28.326
478.258; -123.643; -448.163; -348.706
478.544;  -29.662;   21.815;   61.334
478.829; -226.950; -818.171; -738.692
479.115; -182.151; -749.172; -651.690
479.401; -121.353; -444.174; -449.686
479.686;  -82.858; -253.180;  -74.676
479.972; -236.756; -886.178; -776.680
480.257;  -91.646; -258.166;  -65.700
480.542; -133.949; -614.170; -469.693
480.828;  337.646; 1288.824; 1392.317
481.113; -118.654; -464.176; -426.683
481.399;  -96.641; -236.161; -202.711
481.684; -175.246; -620.166; -462.700
481.969;  -54.639; -158.159;  -73.713
482.255; -101.748; -439.169; -285.695
482.540; -190.256; -569.178; -441.680
482.825; -127.364; -395.187; -404.663
483.110;  -79.148;  -85.169; -105.696
483.396; -195.837; -840.157; -652.718
483.681;  161.648;  543.826;  730.313
483.966; -260.340; -696.160; -700.712
484.251; -132.952; -404.174; -310.687
484.536; -113.745; -356.165; -378.703
484.822;  -88.452; -205.173; -218.687
485.107; -159.533; -599.152; -502.726
485.392;  141.056;  662.836;  541.296
485.677;   22.753;  354.832;  163.302
485.962;   22.862;  160.843;  270.283
486.247;    2.258;  -14.162;   -8.707
486.532; -101.146; -178.166; -325.701
486.817;   84.159;  381.839;  431.291
487.102; -178.435; -453.154; -514.722
487.387; -188.537; -637.156; -652.718
487.672;  -66.544; -154.164;  -38.705
487.957; -100.441; -394.160; -286.711
488.241; -125.232; -290.150; -314.729
488.526;  -91.433; -280.152; -148.726
488.811; -269.655; -881.177; -818.680
489.096; -200.435; -666.154; -702.723
489.381;  -40.234;    3.847;  162.275
489.666; -115.741; -428.161; -510.710
489.950;  165.565;  558.846;  627.277
490.235; -156.132; -480.151; -458.728
490.520; -234.341; -756.161; -723.710
490.804; -244.537; -827.156; -736.719
491.089; -110.130; -469.149; -299.732
491.374;  -48.744; -132.164;  -75.704
491.658; -237.429; -817.147; -717.735
491.943; -184.133; -657.152; -609.727
492.227;  -78.436; -178.155;  -38.721
492.512; -134.138; -294.157; -341.717
492.797; -212.931; -713.149; -716.731
493.081; -214.029; -588.147; -598.735
493.366; -223.341; -751.161; -635.711
493.650;  189.876;  831.859;  917.254
493.935; -186.129; -648.147; -447.734
494.219; -209.525; -778.142; -687.743
494.503; -222.131; -585.150; -487.730
494.788;  -56.438;   46.842;   74.285
495.072;   64.168;  184.850;  434.271
495.356;  -89.930; -463.148; -343.733
495.641; -234.228; -812.146; -736.736
495.925; -259.436; -976.156; -903.719
496.209; -142.630; -599.149; -451.732
496.494; -214.425; -763.142; -544.744
496.778; -110.235; -364.154; -360.722
497.062; -213.036; -819.156; -627.719
497.346; -231.640; -869.160; -640.711
497.631;   97.270;  580.852;  560.266
497.915;   -7.327;  -64.145;  175.261
498.199; -113.937; -341.157; -277.718
498.483; -154.734; -562.152; -508.725
498.767;   89.768;  301.850;  300.271
499.051;  -29.031; -126.149; -100.732
499.335; -235.131; -693.149; -739.731
499.619; -153.013; -381.129; -423.767
499.903;  -82.536; -272.155;  -65.721
500.187; -127.734; -588.153; -316.724
500.471; -265.533; -796.152; -595.727
500.755;  -75.841;   62.839;  -96.710
501.039; -100.436; -270.155; -357.721
501.323;   -8.323;  -21.141;  264.254
501.607; -135.343; -447.163; -503.706
501.891; -174.437; -607.156; -512.718
502.174; -208.126; -726.144; -585.741
502.458;   -6.533;   89.849;  370.273
502.742;  -68.721; -180.138; -191.751
503.026; -126.829; -412.147; -254.734
503.310; -128.340; -437.159; -375.713
503.593; -128.029; -464.147; -325.735
503.877;  -80.417; -232.133; -156.760
504.161;  -55.734;    2.847;  -50.724
504.444; -228.238; -841.158; -710.716
504.728; -185.644; -487.164; -522.704
505.012;  -84.032; -257.150;  -76.729
505.295; -118.141; -417.161; -212.711
505.579;  -93.736; -256.156; -496.719
505.862; -175.227; -555.145; -333.738
506.146; -197.839; -681.159; -758.714
506.429;  145.761;  568.841;  461.286
506.713; -209.632; -732.151; -667.728
506.996;  -24.935;   90.846;  295.278
507.280; -203.844; -633.165; -474.703
507.563; -128.436; -469.155; -261.721
507.847; -161.434; -423.153; -112.724
508.130; -168.041; -665.161; -456.711
508.413; -171.546; -758.167; -577.700
508.697;  -22.846; -151.167;   12.300
508.980; -115.034; -422.153; -312.724
509.263; -151.536; -466.155; -450.720
509.547;  -60.732; -124.150;   82.271
509.830;  -46.540; -172.160;  140.289
510.113;   19.664;  128.844;  298.281
510.396; -163.434; -530.152; -300.725
510.680; -276.727; -818.145; -812.738
510.963;  -13.835;  184.846;  180.277
511.246; -147.231; -493.150; -357.730
511.529; -109.527; -482.145;  -83.739
511.812;  -89.017; -250.134;   10.241
512.095; -213.432; -740.151; -396.728
512.378; -116.429; -317.147; -245.736
512.661; -221.120; -703.137; -623.753
512.944; -223.525; -750.142; -637.744
513.227; -118.320; -170.137; -171.752
513.510; -186.526; -479.144; -671.741
513.793; -195.223; -485.140; -435.747
514.076;  -70.611;  -43.127;  -39.771
514.359; -109.030; -294.149; -135.732
514.642; -193.024; -442.142; -567.744
514.925;  103.577;  581.860;  561.253
515.208; -134.118; -498.134; -443.758
515.491;  -76.216; -276.133; -182.761
515.773; -146.426; -410.143; -337.742
516.056;   37.080;  249.864;  409.246
516.339; -235.919; -754.136; -652.755
516.622; -184.531; -518.150; -488.730
516.904;  221.675;  882.857;  975.257
517.187; -226.121; -730.138; -523.752
517.470; -172.925; -568.143; -510.743
517.752; -185.019; -624.136; -470.756
518.035; -231.522; -708.139; -725.749
518.318; -283.819; -799.136; -744.755
518.600; -120.016; -300.132; -325.762
518.883;    4.476;  310.858;   88.256
519.165; -168.421; -585.138; -426.751
519.448;  -71.716;  -61.132;  -19.762
519.730; -198.311; -573.126; -415.773
520.013;  109.283;  588.867;  664.240
520.295;  -69.217;  -94.134;  -15.759
520.578; -107.915; -335.131; -305.764
520.860;  -88.916; -254.132;   56.238
521.143; -262.619; -763.135; -584.756
521.425;  -85.209; -251.125; -279.775
521.707; -189.411; -622.127; -380.771
521.990;  -38.311; -199.127;  167.229
522.272;  -70.423; -116.140;   -4.748
522.554;  -83.026; -237.143; -157.742
522.836;  -69.117;  -24.134;   99.241
523.119; -138.529; -496.148; -189.734
523.401; -145.214; -448.130; -314.766
523.683; -254.320; -865.137; -693.753
523.965;   11.079;  408.862;  260.248
524.247;  -18.707;   54.878;  170.220
524.529; -180.717; -451.134; -367.759
524.812;  -65.314;   -3.130;  191.234
525.094; -234.621; -773.138; -631.751
525.376;  -67.108; -143.124;   78.223
525.658; -156.319; -441.136; -339.754
525.940; -262.315; -805.131; -671.764
526.222; -107.919; -188.136;  -88.755
526.504;  -91.215; -190.131;   32.237
526.786; -275.017; -960.133; -647.760
527.068; -118.108; -124.123;  -67.778
527.349; -262.620; -865.137; -774.754
527.631;  -86.816; -137.132;   22.238
527.913; -224.111; -664.127; -450.771
528.195; -235.410; -761.125; -639.774
528.477;  -69.418;  -93.134;  -30.758
528.759; -189.714; -648.130; -522.766
529.040; -183.008; -569.123; -293.778
529.322;  -99.610; -235.125;  -10.774
529.604;  -40.414;  -47.130;   93.233
529.886; -176.711; -546.126; -302.773
530.167;    9.386;  232.870;  192.235
530.449;  -20.229;    1.853;   63.265
530.731; -205.207; -572.122; -459.779
531.012; -169.505; -513.120; -216.784
531.294;  -63.101; -118.116;  -43.792
531.575;   73.291;  290.875;  538.225
531.857; -182.418; -548.135; -266.757
532.138;  -76.823; -113.141;   40.254
532.420;   29.782;  294.865;  403.244
532.701; -239.417; -722.133; -751.760
532.983;   50.484;  232.867;  182.239
533.264;   -7.311; -243.126;  175.228
533.546; -164.819; -491.136; -508.755
533.827;    0.283;  173.867;   -1.759
534.109; -138.018; -352.135;  -80.757
534.390; -229.916; -725.132; -582.762
534.671; -100.819; -270.135;  -82.756
534.953; -250.308; -751.123; -611.779
535.234; -172.603; -426.117; -255.789
535.515; -262.704; -891.119; -735.785
535.796; -172.312; -431.128; -193.770
536.078; -316.608;-1050.124; -904.777
536.359;  -52.808;  -22.123;    3.221
536.640; -160.310; -480.125; -197.774
536.921;   -3.513;  225.871;  143.232
537.202;  -90.021;  -87.138;  -16.751
537.483;   35.085;  251.869;  377.236
537.764;  -21.414;   17.870;   98.235
538.045; -157.918; -543.134; -371.758
538.326; -197.813; -596.129; -447.768
538.607; -229.711; -686.127; -476.771
538.888;  -47.506;   98.879;    5.218
539.169; -243.907; -704.122; -535.781
539.450;   38.987;  236.871;   16.233
539.731; -135.406; -361.121; -182.783
540.012;  -24.705;  199.880;  412.216
540.293;  -40.309;   82.876;  158.224
540.574; -282.999; -895.113; -717.796
540.855;   29.294;  435.879;  377.218
541.136;  -16.207;   47.878;  139.220
541.416; -147.114; -161.130; -220.766
541.697; -139.015; -274.131; -170.763
541.978; -125.818; -270.135; -315.757
542.259; -133.311; -211.127; -236.771
542.539; -127.702; -191.116; -186.790
542.820;   50.491;  461.875;  480.225
543.101;  -93.527;  -52.145;  -77.738
543.381; -274.111; -638.127; -591.771
543.662;  -23.211;  159.873; -254.771
543.942; -275.412; -751.127; -830.770
544.223;  -25.707;  193.878;  161.219
544.504; -109.808; -275.124; -182.777
544.784; -197.111; -592.126; -408.773
545.065; -124.502;  104.884; -254.791
545.345;  -46.304;  227.881;   14.215
545.626;  -44.599;  -14.113; -108.796
545.906;  -36.514;   77.869;   98.235
546.186; -133.710;   92.874;  -95.773
546.467;  -55.108;   99.877;  -95.778
546.747;   21.898;  264.884;  327.210
547.027;  -33.609;   91.876;  111.223
547.308; -183.412; -376.127; -530.770
547.588;   -0.113;  299.871;  371.232
547.868;   82.586;  458.870;  588.235
548.149;  131.999;  609.885;  593.207
548.429; -152.311; -347.127; -299.771
548.709; -216.905; -645.120; -461.784
548.989;  -66.003;   84.882;   88.213
549.269; -134.616;   10.868;  139.239
549.550;  -35.708;  215.877;  117.222
549.830; -222.098; -758.111; -556.799
550.110; -174.597; -468.110; -320.801
550.390; -104.207; -128.122;  -56.779
550.670; -289.900; -868.114; -783.795
550.950; -225.906; -509.121; -471.782
551.230;   78.694;  549.879;  460.218
551.510; -160.706; -381.121; -326.782
551.790;  -81.796; -173.109; -127.803
552.070;  231.992;  940.877; 1181.223
552.350; -143.504; -492.119; -377.786
552.630;  -11.506;   -2.121;   77.219
552.909;   -0.301;  181.884;   73.209
553.189;  -89.915;  -49.132;   33.237
553.469; -187.604; -703.119; -514.786
553.749; -202.611; -469.127; -357.772
554.029;  -90.102;   33.883;  -24.790
554.308;  -74.800; -154.115;  -37.794
554.588; -110.112; -196.128; -204.770
554.868; -113.906; -366.121;  -47.782
555.147;  -90.701; -114.115;  -46.793
555.427; -136.501; -260.116; -250.792
555.707;  -99.301; -284.115; -200.793
555.986; -235.297; -719.111; -538.800
556.266;  -47.502;   23.884;   72.210
556.546; -273.106; -888.121; -675.782
556.825; -243.700; -657.114; -556.794
557.105;  -68.912; -125.128;   17.230
557.384;   -8.202;  122.884;  187.209
557.664; -237.001; -717.116; -508.792
557.943; -182.206; -557.121; -411.782
558.222; -135.103; -345.118; -344.788
558.502;  -88.101; -116.115;  -76.793
558.781;   14.699;  194.885;  499.208
559.061; -115.003; -232.118; -227.788
559.340;  -26.803;  302.883;  353.211
559.619;  -15.802;   93.884;  148.210
559.899; -162.102; -239.117; -266.789
560.178; -246.501; -778.115; -593.793
560.457; -249.002; -623.117; -562.790
560.736; -188.397; -472.111; -482.800
561.015; -199.812; -500.128; -502.769
561.295;  -32.394;  180.893;  215.193
561.574;  -23.601;  119.885;  116.207
561.853;   24.104;  274.891;  303.197
562.132;  -62.000;  -45.114;  182.206
562.411;   64.294;  396.879;  553.219
562.690; -233.201; -592.115; -458.792
562.969;  110.701;  472.888;  630.203
563.248;  650.793; 2966.878; 2487.219
563.527; -129.397; -290.111; -408.800
563.806; -221.711; -650.127; -521.771
564.085; -108.192; -297.105; -206.810
564.364; -195.302; -594.117; -405.790
564.643; -116.606; -276.121; -223.781
564.922;   -2.096;  221.890;  397.198
565.201; -229.996; -640.109; -700.803
565.479; -142.301; -297.115; -219.792
565.758; -248.812; -810.128; -712.770
566.037; -113.696; -155.109; -100.803
566.316; -106.802; -286.116;  -28.791
566.595;  -43.201;  -17.115;  -12.793
566.873;   70.203; -166.111;  -79.801
567.152; -208.899; -490.113; -590.797
567.431;  -49.302; -113.116;    6.210
567.709; -100.594; -344.107; -212.807
567.988; -268.800; -810.114; -769.794
568.266; -138.801; -160.115;  -68.793
568.545; -206.388; -644.100; -514.819
568.824;   52.099;  160.885;  356.208
569.102; -169.800; -351.114; -235.794
569.381; -188.701; -492.116; -407.792
569.659; -189.099; -553.113; -553.796
569.938; -211.407; -743.122; -465.780
570.216; -107.695; -225.109; -225.804
570.494; -235.700; -632.114; -572.795
570.773;   11.194;  202.879;  114.218
571.051; -161.308; -373.123; -357.778
571.330;  -88.599; -221.113; -174.796
571.608; -100.486; -181.098; -173.823
571.886; -241.198; -671.111; -581.799
572.164; -247.506; -739.121; -621.782
572.443; -199.792; -562.105; -512.811
572.721; -135.802; -399.117; -289.790
572.999; -119.203; -280.117; -168.788
573.277;   73.307;  379.894;  620.191
573.555;  -49.593;   94.894;   37.190
573.834; -115.203;  -86.117; -114.788
574.112;  186.006;  880.893;  811.193
574.390;  -69.897; -143.111;  -96.801
574.668;  -99.299;  -91.112;  -61.797
574.946;  -94.693; -165.106; -187.810
575.224;  -59.896;   71.891;  -16.803
575.502; -124.702; -200.116; -204.791
575.780; -239.698; -767.112; -829.798
576.058;  392.603; 1589.889; 1004.200
576.336; -114.497; -210.110; -129.801
576.614; -200.398; -511.112; -340.798
576.891; -264.100; -711.115; -823.794
577.169; -122.395; -158.108; -285.805
577.447;   34.806;  169.893;  202.193
577.725;  141.302;  629.888;  854.201
578.003; -112.798;  -71.112; -371.798
578.280;  -95.091; -208.104; -242.812
578.558; -208.801; -450.115; -422.793
578.836;  -85.200; -210.114; -145.795
579.114; -253.599; -630.112; -670.797
579.391;  -71.903;   -6.117;  -18.789
579.669; -233.900; -595.114; -704.794
579.947; -149.394; -326.107; -127.806
580.224; -230.394; -692.107; -524.806
580.502;  -55.694;  127.893;   76.193
580.779;  -48.402;  -42.117;   75.210
581.057; -221.495; -584.109; -470.804
581.334; -261.290; -726.102; -695.815
581.612;   17.208;   54.895;  511.190
581.889; -107.288;  -83.101; -129.818
582.167; -138.887; -298.099; -190.821
582.444; -251.889; -845.102; -814.817
582.721;  155.311;  657.899;  715.183
582.999; -101.387; -326.100; -167.821
583.276; -230.507; -812.123; -713.779
583.553; -135.289; -364.102; -294.816
583.831; -233.392; -607.104; -631.812
584.108;   12.105;  349.892;  174.195
584.385;  -93.890; -122.102;  -98.815
584.662; -252.397; -651.111; -828.801
584.940;   -9.197;  204.889;  204.199
585.217; -120.799;  -73.113; -303.796
585.494;  -39.696;   71.890;  118.198
585.771; -144.395; -250.109; -354.804
586.048;  -89.199; -196.113;  -76.796
586.325; -208.397; -721.110; -773.801
586.602;   19.609;  230.896;  213.188
586.879; -211.088; -499.100; -580.820
587.156; -113.092; -156.105; -331.810
587.433; -250.889; -701.102; -667.817
587.710;  -45.798;  152.888;  234.202
587.987; -134.092; -264.105; -236.811
588.264;   23.802;  315.888;  387.202
588.541;  -78.591;  -61.104;   26.187
588.818;  -46.795;   72.892;  171.196
589.095; -130.191; -163.104; -174.812
589.371; -208.996; -459.109; -414.804
589.648; -179.494; -581.107; -437.807
589.925; -195.400; -517.114; -621.795
590.202; -249.098; -741.112; -607.798
590.478;  -88.792; -166.105;  -73.811
590.755; -125.894; -241.108; -132.806
591.032; -215.096; -741.110; -699.802
591.308; -249.982; -732.094; -790.831
591.585; -214.896; -573.110; -560.802
591.862; -313.489;-1056.102; -950.817
592.138; -165.395; -475.108; -474.805
592.415; -175.791; -486.104; -495.813
592.691;   53.009;  460.896;  518.188
592.968; -112.186; -208.098; -123.824
593.244; -207.702; -695.116; -595.790
593.521;  -64.589; -105.102;  -42.817
593.797; -290.707; -810.122; -720.780
594.074; -255.885; -611.096; -588.826
594.350;  138.117;  828.905;  729.172
594.626; -119.097; -303.111; -283.801
594.903; -227.289; -643.101; -645.817
595.179;   45.309;  243.896;  418.187
595.455;  -94.994; -136.107; -150.807
595.731;  -44.791;  -19.103;  -38.814
596.008; -164.997; -464.111; -434.800
596.284; -113.387; -187.100; -242.820
596.560; -197.681; -501.093; -493.833
596.836; -111.792; -173.105;  -70.810
597.112; -153.795; -582.108; -437.805
597.388;  -57.885;  -49.097;  -48.826
597.665;   70.801;  437.887;  530.203
597.941; -211.678; -572.089; -658.839
598.217; -129.196; -323.110; -293.802
598.493;  -94.395;   61.891; -204.804
598.769;  -98.888; -175.100;  -50.819
599.045; -213.894; -490.108; -562.806
599.321; -158.087; -193.100; -261.820
599.597; -145.895; -355.109; -476.804
599.872;   81.709;  409.896;  429.187
600.148;  -70.485;  -61.097; -172.826
600.424;   -7.894;   91.893;  202.193
600.700; -120.494; -170.107; -280.807
600.976; -176.185; -442.097; -464.825
601.252; -135.096; -226.109; -272.803
601.527; -307.891; -833.104; -840.813
601.803; -170.392; -453.105; -404.812
602.079;  -99.688; -124.100; -118.819
602.354; -181.480; -620.092; -531.835
602.630; -123.499; -140.113; -482.796
602.906; -255.688; -910.101; -863.818
603.181; -220.604; -627.119; -534.786
603.457;  -77.085;   98.903; -278.826
603.733; -249.206; -605.120; -626.783
604.008;  -94.592; -245.106; -164.810
604.284; -185.089; -636.101; -580.817
604.559;  -66.298;   -3.112;  -42.799
604.835; -121.392; -163.105; -225.810
605.110; -251.587; -732.099; -892.821
605.385;   66.519;  224.907;  267.167
605.661; -226.083; -625.095; -729.829
605.936; -254.394; -664.108; -737.806
606.211;  -69.290;  -17.103; -170.815
606.487; -135.600; -329.114; -376.794
606.762; -242.104; -791.119; -745.786
607.037; -181.092; -501.105; -433.810
607.313; -224.684; -589.096; -574.828
607.588;  -93.993; -375.106; -137.810
607.863;  -97.288;  -28.101; -143.818
608.138;   71.204;  513.890;  516.198
608.413; -212.487; -576.099; -592.822
608.688; -109.495; -203.108; -267.805
608.964; -121.093; -509.106; -218.809
609.239;  -88.092; -107.105; -212.810
609.514;  -12.892;  281.895;  240.188
609.789; -230.491; -187.104; -716.812
610.064; -190.684; -435.096; -609.827
610.339; -254.396; -855.109; -799.804
610.614;  -86.387; -131.100; -315.820
610.889;  -40.592;  215.895;  107.188
611.163; -181.992; -407.104; -591.812
611.438; -121.400;   81.886; -167.794
611.713; -214.789; -467.101; -499.817
611.988; -144.589; -144.101; -328.818
612.263; -240.490; -771.102; -717.815
612.538;   58.901;  385.887;  251.204
612.812; -257.587; -832.100; -911.820
613.087; -143.786; -358.098; -338.823
613.362; -211.194; -497.107; -557.807
613.637;   26.310;  261.897;  138.186
613.911; -107.680; -256.092; -345.835
614.186; -138.294; -249.107; -292.807
614.460; -301.971; -842.081; -758.854
614.735;  -56.176;  -55.087;  -17.843
615.010;  -59.177;   43.912;  -82.841
615.284;   46.205;  360.892;  246.195
615.559; -279.680; -792.092; -955.835
615.833;  -73.587;  -76.099;  -87.822
616.108; -109.879; -225.090; -390.837
616.382;   76.124;  274.913;  402.156
616.656; -113.979; -241.090; -232.837
616.931; -259.487; -785.099; -700.822
617.205; -305.091; -973.104; -979.813
617.480;  -67.610;  -91.125;    6.225
617.754; -161.110; -396.125; -128.774
618.028; -170.613; -369.129; -382.768
618.302;  -17.195;   73.892;  -25.805
618.577; -201.690; -371.103; -518.815
618.851; -184.896; -399.109; -600.803
619.125; -157.317; -335.134; -378.759
619.399; -118.591; -244.104; -374.813
619.673; -151.501; -330.115; -515.792
619.947; -169.400; -333.114; -448.795
620.222; -105.297; -198.110; -204.801
620.496;  -95.806;  -47.121;  -96.782
620.770; -100.307; -187.122;  -93.781
621.044;   46.608;  323.895;  346.190
621.318; -220.206; -653.120; -614.783
621.592; -132.606; -430.121; -409.783
621.866; -203.398; -476.112; -572.799
622.140; -109.802; -207.116; -356.791
622.413;  -14.797;  138.889;  112.200
622.687; -177.489; -746.101; -492.817
622.961;  -66.395; -130.108; -143.805
623.235; -212.097; -633.111; -661.800
623.509; -286.792; -816.105; -848.811
623.783;  -43.894;  -12.107;   48.193
624.056; -125.905; -254.120; -280.783
624.330;  -15.499;   63.888;   -3.797
624.604;  -97.402; -271.116; -355.790
624.877;  -48.396;  180.890;   26.198
625.151; -114.900; -249.114; -238.794
625.425;  -98.991; -150.103; -283.814
625.698; -175.805; -367.119; -374.785
625.972; -212.996; -799.110; -765.802
626.245;   73.698;  685.884;  484.210
626.519; -130.005; -426.120; -340.784
626.792;  -85.294; -192.107; -380.807
627.066; -201.807; -485.122; -662.779
627.339; -224.397; -736.110; -663.802
627.613;   74.795;  351.880;  148.216
627.886;   10.404;  187.891; -612.803
628.160;  -73.306;  312.880; -161.783
628.433; -206.809; -695.125; -703.775
628.706; -196.805; -517.120; -615.784
628.979;   16.191;  296.876;  117.223
629.253; -282.204; -785.119; -833.786
629.526; -128.111; -334.126; -253.772
629.799; -189.208; -641.123; -479.778
630.072; -192.013; -497.128; -516.769
630.346; -335.802;-1115.116;-1080.790
630.619; -206.894; -467.107; -545.808
630.892;  102.603;  709.889;  593.200
631.165;  129.009;  790.896;  679.187
631.438; -335.098;-1092.112;-1055.798
631.711;   82.392;  453.877;  257.221
631.984; -205.802; -523.117; -624.789
632.257; -232.903; -636.117; -681.789
632.530; -125.704; -412.119; -433.785
632.803;   32.500; -109.115;    7.207
633.076; -143.608; -360.123; -422.777
633.349;  -16.012;  173.872;  121.231
633.622; -120.005; -187.119; -240.785
633.895; -297.005; -903.120; -823.783
634.167; -175.211; -496.126; -525.773
634.440;  -50.401;  -19.116; -137.792
634.713;  -38.904;  -22.119; -120.786
634.986;  115.287;  593.871;  453.233
635.258; -212.101; -507.115; -597.793
635.531;  140.497;  742.882; -343.788
635.804; -137.503; -303.117; -318.789
636.077; -270.802; -830.116; -852.791
636.349; -222.001; -586.115; -474.793
636.622;  439.289; 1695.874; 1392.228
636.894; -153.505; -474.120; -909.784
637.167; -286.611; -836.127; -789.771
637.439;  -86.912; -278.128; -213.770
637.712; -156.011; -312.126; -293.772
637.984; -219.902; -635.116; -707.791
638.257;  135.392;  515.877;  488.222
638.529; -261.009; -881.125; -924.776
638.802; -196.913; -508.128; -449.769
639.074; -299.407; -927.122; -952.781
639.346; -284.118; -942.135; -930.757
639.619;  -46.224;  -79.142; -319.744
639.891;  -62.207;  -83.122; -168.779
640.163; -238.707; -689.122; -756.780
640.435;   -8.807;  273.878;  103.220
640.708;  -46.407;  -72.122; -132.780
640.980; -141.507; -366.122; -362.781
641.252;  -43.606;  -25.121;  -71.781
641.524;   95.194;  580.879;  573.219
641.796; -293.706;-1094.121; -907.782
642.068; -139.506; -191.121; -300.782
642.340; -190.006; -486.121; -566.783
642.613;   -1.006;  294.880;  323.217
642.885; -236.605; -787.120; -878.783
643.157; -266.205; -810.120; -658.784
643.428;   40.095;  170.880;  218.216
643.700; -141.105; -498.120; -425.784
643.972;  -51.605;  -16.119; -133.785
644.244; -204.904; -474.119; -559.785
644.516; -124.104; -250.119; -114.786
644.788;  137.996;  662.881;  548.214
645.060;  -56.104;  -12.119; -124.786
645.332; -213.304; -525.118; -535.787
645.603;   67.996;  479.882;  342.213
645.875; -154.203; -334.118; -369.787
646.147;  319.697; 1487.882; 1242.212
646.418; -319.003; -931.117; -918.788
646.690; -266.303; -714.117; -715.789
646.962; -196.403; -413.117; -451.789
647.233;  -18.502;   15.883;   11.211
647.505; -211.402; -595.117; -475.790
647.776;   64.698;  328.884;  229.210
648.048; -124.702; -248.116; -418.790
648.320; -223.702; -752.116; -679.791
648.591; -305.902;-1055.116; -958.791
648.862; -151.001; -505.116; -577.792
649.134;   -2.201;  115.885;  198.208
649.405; -217.401; -661.115; -618.792
649.677; -173.301; -475.115; -598.793
649.948; -102.301; -181.115; -296.793
650.219;  -81.400;  -37.115; -147.793
650.491; -147.100; -431.114; -520.794
650.762; -219.800; -705.114; -731.794
651.033; -169.900; -437.114; -424.795
651.304; -289.200; -743.114; -728.795
651.576; -202.100; -680.114; -645.795
651.847;  -54.099; -250.113; -140.796
652.118;  -55.699;  -32.113; -189.796
652.389; -201.799; -639.113; -722.796
652.660;  -45.199; -147.113;  -89.797
652.931; -290.899; -897.112; -871.797
653.202; -161.198; -382.112; -541.798
653.473; -202.498; -633.112; -533.798
653.744; -180.598; -595.112; -590.798
654.015; -145.398; -356.112; -303.799
654.286; -213.798; -642.111; -663.799
654.557; -206.798; -586.111; -521.799
654.828; -333.997;-1114.111;-1088.800
655.099; -141.297; -404.111; -291.800
655.370; -187.197; -427.111; -543.801
655.641; -226.297; -656.110; -714.801
655.911; -178.997; -618.110; -638.801
656.182;   83.404;  437.890;  387.198
656.453;  173.304;  830.890;  746.198
656.724; -164.896; -466.110; -426.802
656.994; -176.996; -553.109; -568.803
657.265; -243.296; -862.109; -873.803
657.536; -149.796; -500.109; -377.804
657.806; -202.595; -561.109; -593.804
658.077; -291.995; -866.109; -950.804
658.347; -175.895; -523.108; -598.805
658.618; -232.395; -646.108; -694.805
658.888;  -24.595;  -41.108;  112.195
659.159; -168.494; -432.108; -548.806
659.429; -140.494; -292.108; -349.806
659.700; -145.594; -435.107; -390.807
659.970; -161.994; -370.107; -359.807
660.241; -260.194; -754.107; -921.807
660.511;  -55.594; -147.107; -174.808
660.781; -229.693; -793.106; -748.808
661.052; -109.893; -222.106; -381.808
661.322;  -32.893;   21.894;   -9.809
661.592;   56.907;  257.894;  148.191
661.862; -156.393; -369.106; -382.810
662.133; -186.392; -551.105; -502.810
662.403; -253.692; -770.105; -676.810
662.673; -111.692; -256.105; -213.811
662.943; -195.692; -612.105; -551.811
663.213; -102.792;  -85.105;  -81.811
663.483; -189.992; -593.104; -568.812
663.753;  -87.991; -194.104; -152.812
664.023;    2.409;   68.896;  -32.813
664.293; -142.491; -319.104; -126.813
664.563; -207.091; -694.104; -648.813
664.833; -228.591; -743.103; -608.814
665.103; -243.290; -730.103; -793.814
665.373; -238.490; -766.103; -806.814
665.643; -300.890; -863.103; -918.815
665.913; -202.090; -534.103; -714.815
666.182; -230.390; -685.102; -719.816
666.452; -114.189;  -22.102;  -89.816
666.722; -267.589; -724.102; -784.816
666.992; -285.489; -948.102; -921.817
667.261; -238.589; -824.102; -808.817
667.531;  -43.989;  134.899;   45.183
667.801; -155.189; -440.101; -412.818
668.070;  156.312;  714.899;  697.182
668.340; -255.888; -883.101; -840.819
668.609;   86.312;  588.900;  301.181
668.879; -186.388; -490.100; -558.819
669.149; -185.088; -539.100; -516.820
669.418; -227.587; -698.100; -726.820
669.688; -200.287; -482.100; -666.820
669.957; -183.087; -423.099; -546.821
670.226; -122.887; -268.099; -331.821
670.496; -189.587; -431.099; -635.822
670.765; -167.987; -418.099; -501.822
671.034; -262.486; -872.099; -828.822
671.304;  -40.386;   55.902; -111.823
671.573; -293.186;-1085.098; -957.823
671.842; -130.386; -380.098; -294.823
672.112; -229.386; -692.098; -586.824
672.381;  -93.285; -239.098; -214.824
672.650; -301.985;-1005.097;-1021.825
672.919; -204.285; -631.097; -507.825
673.188; -236.485; -681.097; -878.825
673.457; -349.185;-1101.097;-1143.826
673.726; -207.785; -579.096; -646.826
673.995; -169.684; -533.096; -479.826
674.265; -123.184; -263.096; -333.827
674.534;  -71.884; -183.096; -235.827
674.802; -200.784; -618.096; -703.828
675.071; -270.984; -886.095; -801.828
675.340; -161.783; -464.095; -339.828
675.609;  -14.483;  103.905;   82.171
675.878; -273.483; -949.095; -893.829
676.147;  -37.283;  -26.095;   -8.829
676.416;  -94.983; -210.094; -294.830
676.685;  258.917; 1000.906; -622.830
676.953; -152.282; -603.094; -452.831
677.222; -121.982; -193.094; -273.831
677.491;  -68.482;  -24.094; -127.831
677.759;  -27.682;   11.907;  172.168
678.028;  -97.882; -279.093; -222.832
678.297;  -25.481;   71.907;  197.168
678.565; -280.281; -898.093; -944.833
678.834; -107.481; -311.093; -268.833
679.102; -177.281; -411.092; -391.834
679.371; -280.981; -898.092; -727.834
679.639; -236.381; -797.092; -786.834
679.908; -251.580; -794.092; -724.835
680.176; -292.280; -895.091; -941.835
680.445; -132.080; -346.091; -352.835
680.713;   -1.180;  -58.091;  -23.836
680.982; -185.380; -523.091; -525.836
681.250; -207.979; -578.091; -507.837
681.518; -192.079; -534.090; -751.837
681.787;  -86.379; -204.090; -167.837
682.055; -185.279; -490.090; -422.838
682.323; -302.779; -993.090; -992.838
682.591; -123.379; -216.090; -538.838
682.859;  -69.478;    9.911;  -35.839
683.128;   31.022;  232.911;  497.161
683.396; -319.678;-1102.089;-1122.840
683.664;  -93.778; -241.089;   21.160
683.932;   35.022;  144.911;  -76.840
684.200; -170.977; -576.088; -320.841
684.468;  -58.077;  -73.088; -124.841
684.736; -110.577; -214.088; -175.841
685.004; -289.477;-1024.088; -982.842
685.272; -275.077; -880.088; -774.842
685.540; -210.577; -499.087; -557.843
685.808; -237.276; -651.087; -682.843
686.076; -283.776; -894.087; -969.843
686.343; -208.076; -601.087; -815.844
686.611;  -62.676; -195.087; -224.844
686.879; -170.276; -530.086; -553.844
687.147; -191.375; -483.086; -480.845
687.414; -105.275;  -12.086; -169.845
687.682; -232.275; -658.086; -757.846
687.950;   32.325;  259.915;  263.154
688.217; -236.775; -792.085; -760.846
688.485; -207.575; -632.085; -636.847
688.753;  -59.074;  -11.085; -102.847
689.020; -288.574; -820.085; -851.847
689.288; -257.574; -853.084; -787.848
689.555;  -55.674; -195.084; -148.848
689.823; -124.474; -241.084; -345.849
690.090; -200.873; -546.084; -651.849
690.358; -324.173; -877.084; -897.849
690.625;    7.827;  120.917;   45.150
690.892; -145.173; -403.083; -369.850
691.160;  -47.973;   72.917;  -35.850
691.427;   18.527;  141.917;  130.149
691.694; -294.572; -855.083; -929.851
691.962; -295.972;-1177.082;-1060.852
692.229;  -42.672;  127.918;   56.148
692.496;   -0.472;  130.918;  -49.852
692.763;  -96.672; -164.082; -201.853
693.031; -223.771; -739.082; -716.853
693.298; -203.571; -509.081; -368.853
693.565;  -91.471; -155.081; -163.854
693.832;  -65.871;   -5.081;   -9.854
694.099; -210.371; -643.081; -642.855
694.366; -260.271; -882.081; -896.855
694.633; -271.670; -920.080; -633.855
694.900; 1237.630; 4367.920; -114.856
695.167;  -92.670; -214.080; -380.856
695.434; -213.370; -646.080; -623.856
695.701;    3.430;  121.921;  -61.857
695.968; -159.669; -365.079; -361.857
696.234; -191.569; -415.079; -646.858
696.501; -203.469; -776.079; -614.858
696.768; -225.369; -554.079; -617.858
697.035; -220.969; -632.078; -667.859
697.302; -195.769; -448.078; -552.859
697.568; -134.368; -458.078; -497.859
697.835; -210.868; -683.078; -624.860
698.102; -167.768; -498.078; -407.860
698.368;   54.232;  384.923;  396.139
698.635; -149.268;  -47.077; -424.861
698.901; -110.367; -240.077; -348.861
699.168; -145.067; -534.077; -456.862
699.435;  -56.467;  -72.077;  -13.862
699.701; -313.067; -868.076; -764.862
699.968; -126.267;  144.924; -441.863
700.234; -273.367; -783.076; -822.863
700.500; -139.066; -448.076; -539.864
700.767;  -28.766;   -1.075;   26.136
701.033; -320.866;-1015.075; -963.864
701.299; -172.466; -450.075; -483.865
701.566;  152.534;  950.925;  763.135
701.832;  -15.765;  -31.075;  -76.865
702.098; -266.265;-1054.074;-1034.866
702.365; -347.865;-1098.074;-1030.866
702.631; -301.965;-1038.074;-1063.867
702.897; -234.365; -765.074; -676.867
703.163;   16.435;  348.926;  254.133
703.429;  -90.964; -256.073; -273.868
703.695; -232.764; -796.073; -792.868
703.961; -114.564; -214.073; -210.868
704.227; -214.064; -630.073; -725.869
704.493;  113.036;  613.927;  510.131
704.759; -190.063; -565.072; -540.870
705.025;  -88.463; -203.072; -194.870
705.291; -209.663; -666.072; -562.870
705.557;  180.937;  719.928;   34.129
705.823; -227.463; -742.072; -694.871
706.089; -136.263; -307.071; -326.871
706.355; -100.062; -315.071; -244.872
706.620; -247.262; -776.071; -729.872
706.886; -135.962; -309.071; -362.873
707.152; -255.362; -818.070; -973.873
707.418; -348.962;-1153.070;-1186.873
707.683; -180.661; -550.070; -530.874
707.949; -190.261; -547.070; -578.874
708.215; -105.961; -129.070; -207.874
708.480; -166.261; -520.069; -420.875
708.746;  -33.261;   68.931;   28.125
709.011; -184.961; -578.069; -612.876
709.277; -184.560; -538.069; -543.876
709.542; -136.460; -428.069; -387.876
709.808;  -91.760;  -59.068;   89.123
710.073; -195.560; -577.068; -695.877
710.339; -118.360; -242.068; -228.877
710.604; -265.959; -780.068; -845.878
710.869; -130.759; -277.068; -366.878
711.135; -220.159; -715.067; -628.879
711.400; -189.159; -507.067; -608.879
711.665; -150.859; -404.067; -479.879
711.931; -218.759; -661.067; -677.880
712.196; -251.458; -876.067; -954.880
712.461; -162.558; -402.066; -490.880
712.726; -249.958; -727.066; -771.881
712.991; -237.258; -647.066; -664.881
713.256; -117.358; -350.066; -332.882
713.521; -162.857; -417.065; -381.882
713.787; -157.357; -454.065; -472.882
714.052; -134.757; -214.065; -400.883
714.317; -294.257;-1045.065; -981.883
714.581; -141.757; -374.065; -268.883
714.846; -256.057; -822.064; -888.884
715.111;   43.944;  261.936;  257.116
715.376; -122.856;  -86.064; -223.885
715.641; -140.556; -365.064; -367.885
715.906; -150.656;   15.936; -551.885
716.171;   15.944;  221.937;  209.114
716.436;  -18.855;  -78.063; -104.886
716.700; -239.955; -818.063; -692.886
716.965; -264.655; -794.063; -807.887
717.230; -135.155; -339.063; -392.887
717.494;  -79.555;  -40.062; -134.888
717.759; -220.554; -784.062; -640.888
718.024;   34.446;  269.938;  250.112
718.288;  112.346;  685.938;  395.111
718.553; -277.654; -803.062; -977.889
718.817; -299.554; -883.061; -899.889
719.082;  -43.054; -115.061; -125.890
719.346; -292.453;-1000.061; -947.890
719.611; -105.953; -300.061; -255.891
719.875; -225.353; -568.060; -537.891
720.140; -209.453; -453.060; -603.891
720.404;  -82.153; -136.060; -249.892
720.668; -136.952; -475.060; -411.892
720.933;    3.048;  146.940;  137.108
721.197; -219.752; -667.059; -600.893
721.461; -288.652; -851.059; -826.893
721.725;  -18.252;  -21.059; -250.894
721.990; -113.352; -284.059; -204.894
722.254;  -58.951;  -26.059; -108.894
722.518; -141.451; -286.058; -442.895
722.782; -194.851; -743.058; -594.895
723.046;  117.949;  614.942;  570.105
723.310;   66.949;  374.942;  210.104
723.574; -198.650; -654.058; -614.896
723.838; -202.450; -576.057; -642.897
724.102;  -89.650; -226.057; -239.897
724.366; -315.750;-1032.057; -978.897
724.630; -243.550; -749.057; -571.898
724.894; -172.250; -722.057; -514.898
725.158;  -60.149;   38.944; -295.898
725.422; -149.249; -394.056; -327.899
725.685; -203.049; -441.056; -349.899
725.949; -211.849; -566.056; -519.900
726.213; -272.349; -732.056; -811.900
726.477; -287.648;-1020.055; -933.900
726.740;  -53.848; -274.055; -104.901
727.004; -163.648; -384.055; -510.901
727.268; -165.448; -442.055; -400.901
727.531; -293.548; -961.055; -775.902
727.795; -228.948; -713.054; -673.902
728.059; -186.147; -552.054; -557.903
728.322; -261.947; -841.054; -669.903
728.586; -201.547; -692.054; -701.903
728.849; -269.847; -695.053; -756.904
729.112; -245.047; -812.053; -912.904
729.376; -299.746; -959.053; -905.904
729.639; -152.646; -536.053; -536.905
729.903; -230.346; -733.053; -699.905
730.166;  -98.746; -437.052; -399.906
730.429; -103.046; -317.052; -468.906
730.693; -187.246; -355.052; -894.906
730.956;  155.455;  810.948;  651.093
731.219;  -95.145; -310.052; -103.907
731.482; -286.545;-1003.051; -894.907
731.745; -297.145; -794.051; -935.908
732.009;   -4.445;  -30.051;   50.092
732.272; -247.844; -904.051; -771.909
732.535; -153.344; -300.051; -310.909
732.798; -354.744;-1083.050;-1166.909
733.061; -175.544; -430.050; -456.910
733.324;  -40.544;   31.950; -180.910
733.587;   73.956;  290.950;  365.090
733.850; -204.343; -973.049;-1050.911
734.113;  -10.543;   33.951;   32.089
734.376; -127.843; -328.049; -447.912
734.639;  260.357; 1188.951; 1011.088
734.901; -105.743; -180.049; -402.912
735.164; -272.542; -883.048; -837.913
735.427;  -63.442; -166.048; -355.913
735.690;  -78.242; -205.048; -234.913
735.952; -299.842; -923.048; -925.914
736.215; -324.542;-1113.048;-1009.914
736.478; -265.542; -771.047; -774.915
736.740;  -53.541;   33.953;  129.085
737.003; -241.941; -658.047; -672.915
737.266;  202.559;  -94.047;   46.084
737.528; -249.641; -682.047; -660.916
737.791; -172.641; -316.046; -327.916
738.053;   12.660;  465.954;  649.083
738.316; -116.740; -162.046; -136.917
738.578; -234.340; -770.046; -736.918
738.841; -132.040; -382.046; -446.918
739.103; -230.640; -875.045; -777.918
739.365;  -46.840;   79.955;  -69.919
739.628; -255.839; -884.045; -805.919
739.890; -206.739; -758.045; -710.919
740.152; -235.239; -692.044; -754.920
740.414; -182.439; -408.044; -359.920
740.677; -211.639; -785.044; -634.921
740.939; -244.238; -587.044; -487.921
741.201; -165.638; -432.044; -572.921
741.463; -218.238; -689.043; -745.922
741.725;  -81.938;  -21.043; -199.922
741.987;    1.562;  220.957;  116.078
742.249; -275.338; -751.043; -859.923
742.511; -216.237; -703.043; -794.923
742.773; -172.437; -546.042; -546.924
743.035;  119.563;  796.958;  533.076
743.297; -306.137; -963.042;-1013.924
743.559;  -98.037; -278.042; -262.925
743.821; -267.736; -735.042; -744.925
744.083;  -99.036;  -44.041; -149.925
744.345; -275.736; -869.041; -892.926
744.607;   10.164;   75.959;  122.074
744.868; -197.336; -490.041; -554.927
745.130; -318.236; -994.041;-1008.927
745.392;  -13.835;   -1.040;  -44.927
745.653; -148.035; -411.040; -378.928
745.915;  155.165;  896.960;  631.072
746.177;  -62.535;   35.960;  -43.928
746.438; -176.335; -428.040; -543.929
746.700; -319.534; -947.039; -988.929
746.961; -240.234; -659.039; -740.930
747.223;  -75.934; -190.039;  -74.930
747.484; -120.934; -391.039; -471.930
747.746;  -53.734;  -23.038; -106.931
748.007; -212.934; -647.038; -689.931
748.269; -144.033; -468.038; -440.931
748.530; -214.433; -852.038; -638.932
748.791; -146.433; -354.038; -420.932
749.053;   59.067;  286.963;  163.067
749.314; -146.733; -236.037; -169.933
749.575; -276.332; -945.037; -905.933
749.836;  -74.032; -217.037;   86.066
750.098;  -75.732;  -60.037;  -21.934
750.359;   73.968;  414.964;  555.066
750.620;  -76.132; -121.036; -220.935
750.881; -241.632; -585.036; -513.935
751.142; -288.031; -950.036; -938.936
751.403; -222.031; -789.036; -705.936
751.664; -309.831;-1034.035; -999.936
751.925;  -87.031; -175.035; -262.937
752.186;  -55.731; -298.035; -278.937
752.447; -197.630; -590.035; -445.937
752.708; -184.730; -532.035; -648.938
752.969; -219.330; -566.034; -576.938
753.230; -241.230; -777.034; -672.939
753.491; -234.430; -650.034; -631.939
753.751;  -11.630;  109.966;   19.061
754.012;   21.971;  258.967;  181.060
754.273;  -77.329; -174.033;  -71.940
754.534; -193.829; -487.033; -580.940
754.794; -273.329; -926.033; -911.941
755.055;  204.171; 1051.967;  881.059
755.316; -211.128; -700.032; -566.942
755.576; -196.228; -606.032; -576.942
755.837; -193.028; -527.032; -695.942
756.097; -201.628; -530.032; -564.943
756.358; -254.328; -725.032; -770.943
756.618; -195.228; -705.031; -641.943
756.879; -119.627; -254.031; -349.944
757.139; -332.027;-1098.031;-1116.944
757.400; -172.827; -538.031; -553.945
757.660; -128.527; -365.031; -401.945
757.920; -118.127; -266.030; -228.945
758.181; -106.526; -468.030; -351.946
758.441; -271.326; -870.030; -809.946
758.701; -169.126; -308.030; -215.946
758.961; -110.626; -220.030; -278.947
759.222; -180.426; -574.029; -502.947
759.482; -239.126; -683.029; -723.948
759.742; -244.125; -706.029; -547.948
760.002;  -64.925;  -83.029; -143.948
760.262;  -54.725;   50.972;  182.051
760.522; -174.325; -498.028; -574.949
760.782; -236.025; -738.028; -612.949
761.042; -192.124; -618.028; -573.950
761.302;  -48.424;   55.972;  -18.950
761.562;  -72.624; -164.027; -154.951
761.822; -197.424; -710.027; -551.951
762.082; -381.124;-1104.027;-1093.951
762.342; -138.724; -328.027; -403.952
762.601; -165.023; -567.027; -506.952
762.861; -151.823; -281.026; -207.952
763.121; -150.623; -406.026; -411.953
763.381; -193.623; -499.026; -485.953
763.640;  -86.323; -139.026; -307.954
763.900; -120.222; -242.026; -203.954
764.160; -123.822; -458.025; -491.954
764.419; -229.522; -726.025; -782.955
764.679; -265.122; -795.025; -726.955
764.939; -101.222; -124.025; -210.955
765.198; -222.622; -608.025; -563.956
765.458; -226.021; -710.024; -612.956
765.717; -206.121; -454.024; -590.957
765.976; -146.121; -428.024; -411.957
766.236; -209.621; -475.024; -610.957
766.495;   -9.221;  260.977;   73.042
766.755; -321.220;-1090.023; -987.958
767.014; -212.820; -594.023; -665.958
767.273; -116.420; -373.023; -397.959
767.533; -130.220; -228.023; -307.959
767.792;  -93.920; -151.022; -188.960
768.051; -130.420; -228.022; -276.960
768.310; -184.419; -546.022; -650.960
768.569;  -41.619; -161.022;    4.039
768.828;  -91.519; -285.022; -363.961
769.088; -321.719;-1050.021; -942.961
769.347; -259.719; -755.021; -599.962
769.606; -281.118; -876.021; -857.962
769.865; -325.418;-1016.021;-1033.963
770.124; -109.918; -411.021; -336.963
770.383; -284.118; -778.020; -910.963
770.641; -180.918; -398.020; -400.964
770.900; -300.517; -953.020; -846.964
771.159; -303.417; -851.020; -951.964
771.418; -278.317; -917.020; -779.965
771.677;  -87.817; -224.019; -293.965
771.936; -287.017; -794.019; -865.966
772.194; -249.017; -465.019; -437.966
772.453; -132.516; -213.019; -391.966
772.712;   52.884;  416.982;  329.033
772.970;  -42.216;   32.982;   63.033
773.229;  -50.516;  -22.018;  102.033
773.488; -278.516; -814.018; -770.968
773.746;   29.485;  296.982;  335.032
774.005;  -52.215;  190.983;  -22.969
774.263;   -0.815;  243.983;  177.031
774.522; -175.915; -422.017; -548.969
774.780; -190.015; -484.017; -417.970
775.039; -167.315; -551.017; -531.970
775.297;  -67.914; -135.016; -351.970
775.555; -185.514; -489.016; -612.971
775.814; -200.914; -618.016; -570.971
776.072; -224.014; -749.016; -740.971
776.330; -183.814; -630.016; -520.972
776.589; -247.413; -703.015; -721.972
776.847; -245.413; -645.015; -624.973
777.105; -282.813;-1016.015;-1032.973
777.363; -144.813; -459.015; -454.973
777.621; -272.213; -660.015; -717.974
777.879;  -39.613;  -42.014;   32.026
778.138; -185.512; -554.014; -717.974
778.396; -211.812; -585.014; -526.975
778.654; -298.812;-1015.014; -970.975
778.912; -123.312; -269.014; -371.976
779.170; -272.812; -880.013; -803.976
779.427; -290.411; -922.013; -897.976
779.685; -297.311; -880.013; -832.977
779.943; -248.611; -654.013; -593.977
780.201; -336.211; -964.012; -883.978
780.459; -207.711; -651.012; -610.978
780.717; -137.711; -440.012; -390.978
780.974; -165.310; -449.012; -490.979
781.232; -116.110; -358.012; -338.979
781.490; -193.910; -551.011; -472.979
781.747; -167.310; -555.011; -476.980
782.005;   57.190;  462.989;  254.020
782.263; -305.309; -542.011;-1004.981
782.520; -164.509; -326.011; -501.981
782.778; -314.409;-1013.010;-1051.981
783.035; -321.709; -962.010; -938.982
783.293;  -88.009; -248.010; -206.982
783.550; -101.509; -134.010; -198.982
783.808; -212.308; -764.010; -776.983
784.065; -297.108; -745.009; -874.983
784.322;  -75.208;   25.991;  -86.984
784.580; -275.108; -915.009; -771.984
784.837; -181.608; -392.009; -466.984
785.094; -271.907; -783.009; -762.985
785.352; -170.007; -304.008; -404.985
785.609; -298.907; -934.008; -839.985
785.866; -136.807; -345.008; -401.986
786.123; -243.507; -639.008; -583.986
786.380; -222.907; -665.008; -604.987
786.637; -131.406; -225.007; -380.987
786.895; -204.006; -456.007; -543.987
787.152;  -77.106; -135.007; -267.988
787.409;  -72.206; -123.007; -225.988
787.666; -157.206; -299.006; -378.988
787.923; -219.405; -616.006; -695.989
788.179; -195.305; -551.006; -584.989
788.436; -207.605; -585.006; -585.990
788.693;  -81.705;  -92.006;  -87.990
788.950;  -82.105; -125.005; -112.990
789.207; -161.805; -381.005; -372.991
789.464;  -97.204; -161.005; -301.991
789.720;    0.796;  150.995;  110.009
789.977; -299.304;-1003.005; -671.992
790.234;  -76.104;   44.996;  -66.992
790.490; -301.904; -884.004;-1031.993
790.747;  -70.203;  -85.004;   22.007
791.004; -120.903; -426.004; -348.993
791.260; -172.003; -430.004; -560.994
791.517; -244.103; -843.003; -788.994
791.773; -129.403; -379.003; -342.994
792.030; -220.603; -596.003; -660.995
792.286; -205.502; -686.003; -636.995
792.543;  -56.902;  -74.002; -159.995
792.799; -142.702; -584.002; -382.996
793.055; -402.602;-1179.002;-1210.996
793.312; -260.502; -827.002; -816.997
793.568; -228.901; -746.002; -599.997
793.824; -130.601; -226.001; -284.997
794.081; -183.601; -447.001; -508.998
794.337; -197.801; -664.001; -561.998
794.593; -109.601; -319.001; -271.999
794.849; -244.101; -746.001; -772.999
795.105; -141.700; -270.000; -261.999
795.361; -194.000; -490.000; -457.000
795.617; -267.500; -875.000; -945.000
795.873; -169.600; -360.000; -407.000
796.129; -145.500; -368.000; -306.000
796.385;  -79.400; -124.000; -156.000
796.641;   69.000;  412.000;  550.000
796.897; -195.800; -666.000; -635.000
797.153;   88.500;  453.000;  357.000
797.409; -273.000; -785.000; -868.000
797.665; -241.800; -625.000; -732.000
797.921; -267.100; -775.000; -762.000
798.176; -248.100; -744.000; -747.000
798.432; -278.200; -824.000; -596.000
798.688; -332.300;-1174.000;-1078.000
798.943;  -84.500; -165.000; -147.000
799.199; -296.800;-1005.000; -959.000
799.455;   78.300;  369.000;  316.000
799.710; -279.700; -813.000; -380.000
799.966; -122.600; -162.000; -160.000
800.221; -234.200; -638.000; -721.000
800.477; -253.200; -743.000; -710.000
800.732; -271.500; -773.000; -800.000
800.988;    2.700;  205.000;  -19.000
801.243; -150.400; -454.000; -344.000
801.498; -267.200; -814.000; -739.000
801.754; -105.900; -289.000; -163.000
802.009;  -85.800; -257.000; -335.000
802.264; -336.400; -967.000;-1033.000
802.520;  -55.600;  222.000;   -3.000
802.775; -163.500; -524.000; -359.000
803.030;    7.500;  395.000;  356.000
803.285; -304.600; -840.000; -903.000
803.540; -219.500; -686.000; -699.000
803.795; -229.300; -648.000; -583.000
804.051; -119.700; -279.000; -346.000
804.306;   -5.800;  168.000;  128.000
804.561;   -2.500;  451.000;  362.000
804.816;  175.000;  714.000;  861.000
805.071; -114.700; -185.000; -280.000
805.325; -124.200; -257.000; -427.000
805.580; -319.500; -841.000; -877.000
805.835; -114.300; -204.000; -297.000
806.090; -256.600; -760.000; -676.000
806.345; -132.300; -344.000; -264.000
806.600; -185.000; -549.000; -632.000
806.854; -179.600; -408.000; -538.000
807.109; -163.800; -493.000; -577.000
807.364; -124.400; -407.000; -328.000
807.618; -187.700; -415.000; -381.000
807.873; -198.800; -470.000; -494.000
808.128;  -92.000; -257.000; -518.000
808.382; -145.300; -224.000; -332.000
808.637; -198.800; -440.000; -511.000
808.891;  -63.000; -257.000; -180.000
809.146; -332.100; -902.000; -794.000
809.400; -260.000; -848.000; -923.000
809.654; -234.200; -779.000; -551.000
809.909; -306.900; -841.000; -927.000
810.163; -243.100; -813.000; -651.000
810.418; -289.300; -940.000; -861.000
810.672; -219.200; -685.000; -690.000
810.926; -306.900; -993.000; -973.000
811.180; -164.800; -439.000; -372.000
811.434;  -23.000;  240.000;  135.000
811.689; -167.100; -231.000; -365.000
811.943; -322.200; -936.000; -953.000
812.197; -255.400; -893.000; -671.000
812.451; -153.000; -379.000; -514.000
812.705; -284.400; -809.000; -619.000
812.959; -176.000; -263.000; -388.000
813.213; -126.400; -283.000; -209.000
813.467;   50.400;  470.000;  253.000
813.721; -264.700; -764.000; -792.000
813.975; -281.000; -826.000; -877.000
814.229;   10.700;  430.000;  353.000
814.482; -204.000; -517.000; -566.000
814.736; -258.100; -766.000; -744.000
814.990; -285.600; -779.000; -872.000
815.244; -140.100; -228.000; -285.000
815.497; -205.400; -636.000; -601.000
815.751;  -70.400; -141.000;   82.000
816.005; -205.300; -470.000; -586.000
816.258; -174.400; -510.000; -363.000
816.512; -236.600; -693.000; -610.000
816.766;  -34.400;  121.000;  157.000
817.019;  -14.200;  148.000;  149.000
817.273; -306.900;-1000.000; -802.000
817.526; -102.800; -206.000; -173.000
817.779; -341.700;-1049.000; -960.000
818.033; -248.100; -693.000; -807.000
818.286; -266.500; -725.000; -792.000
818.540; -200.200; -403.000; -403.000
818.793; -137.100; -402.000; -489.000
819.046; -201.800; -582.000; -520.000
819.299;  -91.600; -157.000; -166.000
819.553; -186.200; -552.000; -592.000
819.806; -310.000;-1016.000; -838.000
820.059; -116.500; -334.000; -354.000
820.312;   -0.200;  152.000;  185.000
820.565;  -48.700;  110.000;  -27.000
820.818;  -91.400;  -59.000; -173.000
821.071; -315.100;-1041.000; -957.000
821.324; -231.900; -536.000; -540.000
821.577; -188.200; -457.000; -483.000
821.830; -154.500; -270.000; -172.000
822.083; -244.000; -733.000; -288.000
822.336; -100.600; -261.000; -167.000
822.589; -262.400; -805.000; -688.000
822.842; -308.600; -875.000; -770.000
823.094; -333.800;-1076.000;-1114.000
823.347; -265.400; -925.000; -729.000
823.600;   34.600;  402.000;  187.000
823.853; -125.000; -311.000; -267.000
824.105; -163.500; -331.000; -575.000
824.358; -253.500; -617.000; -716.000
824.611;  -33.300;  234.000;   40.000
824.863; -225.700; -612.000; -591.000
825.116;  -42.900;  -33.000;   27.000
825.368; -165.500; -366.000; -372.000
825.621;  -97.500; -186.000; -240.000
825.873; -237.500; -704.000; -737.000
826.126; -249.300; -669.000; -641.000
826.378; -197.000; -389.000; -505.000
826.630; -283.500; -890.000; -898.000
826.883; -247.700; -754.000; -693.000
827.135; -135.000; -279.000; -270.000
827.387; -290.700; -893.000; -839.000
827.639;  -88.100;  -86.000;   32.000
827.892; -237.500; -742.000; -582.000
828.144; -288.700; -848.000; -804.000
828.396;  -79.700;  104.000;  -80.000
828.648; -167.000; -440.000; -333.000
828.900; -277.700; -702.000; -795.000
829.152; -232.000; -684.000; -683.000
829.404; -101.700; -215.000; -267.000
829.656;    4.300;  321.000;  214.000
829.908;  -32.000;  393.000;  229.000
830.160; -320.500;-1064.000;-1047.000
830.412; -196.500; -481.000; -430.000
830.664; -224.800; -557.000; -665.000
830.916; -125.100; -268.000; -206.000
831.167; -312.600;-1073.000; -951.000
831.419; -221.900; -623.000; -566.000
831.671; -255.800; -764.000; -809.000
831.923; -165.200; -311.000; -447.000
832.174; -125.200; -273.000; -331.000
832.426; -234.300; -493.000; -582.000
832.678; -352.000;-1043.000;-1091.000
832.929; -334.100; -947.000; -935.000
833.181; -196.000; -575.000; -677.000
833.432;  -99.800;  -59.000; -186.000
833.684;  -17.800;  112.000;  -27.000
833.935; -227.900; -610.000; -566.000
834.187; -238.700; -829.000; -823.000
834.438;  -40.100;  -58.000;  -25.000
834.689;  -90.100; -255.000; -123.000
834.941; -100.400; -343.000; -244.000
835.192; -174.800; -590.000; -533.000
835.443; -161.700; -419.000; -506.000
835.695;  -20.000;  138.000;  -16.000
835.946; -167.500; -608.000; -378.000
836.197; -198.400; -599.000; -622.000
836.448; -195.900; -528.000; -395.000
836.699; -141.100; -253.000; -341.000
836.950;  -30.600;   72.000;    7.000
837.201; -343.700;-1003.000; -987.000
837.452; -163.700; -356.000; -170.000
837.703; -296.300; -791.000; -737.000
837.954; -161.200; -205.000; -365.000
838.205; -323.800;-1029.000;-1008.000
838.456; -127.400; -196.000; -282.000
838.707; -189.700; -423.000; -519.000
838.958; -237.900; -634.000; -647.000
839.209;  -63.700;   18.000;   40.000
839.460; -120.800; -439.000; -201.000
839.710; -145.700; -135.000; -297.000
839.961;   76.400;  730.000;  612.000
840.212; -196.800; -382.000; -497.000
840.462; -139.000; -328.000; -277.000
840.713; -223.500; -571.000; -536.000
840.964;  -95.700;  -62.000; -143.000
841.214; -213.400; -384.000; -624.000
841.465;  -94.400; -214.000; -141.000
841.715; -176.700; -417.000; -380.000
841.966; -244.800; -746.000; -685.000
842.216; -168.200; -330.000; -431.000
842.466;  -92.300; -169.000; -313.000
842.717; -325.200; -964.000; -952.000
842.967; -196.100; -635.000; -641.000
843.217;  -66.300;   20.000;   28.000
843.468;  -84.000; -104.000; -132.000
843.718; -240.900; -718.000; -726.000
843.968; -280.600; -837.000; -765.000
844.218; -108.100; -315.000; -262.000
844.469; -211.000; -577.000; -561.000
844.719; -232.700; -537.000; -682.000
844.969; -203.800; -550.000; -580.000
845.219; -277.400; -814.000; -862.000
845.469; -165.000; -392.000; -342.000
845.719; -262.400; -792.000; -884.000
845.969;   -7.600;  119.000;  174.000
846.219; -231.900; -738.000; -720.000
846.469;   15.000;  464.000;  432.000
846.718; -104.200; -115.000;   31.000
846.968; -269.600; -827.000; -827.000
847.218;  -72.400; -224.000; -371.000
847.468; -224.700; -586.000; -555.000
847.718; -300.800; -827.000; -798.000
847.967; -302.300; -826.000; -915.000
848.217; -168.800; -449.000; -569.000
848.467; -154.200; -405.000; -376.000
848.716; -249.600; -708.000; -725.000
848.966; -132.300; -372.000; -358.000
849.215; -196.200; -428.000; -419.000
849.465; -265.800; -785.000; -615.000
849.714; -354.100;-1132.000;-1150.000
849.964; -204.400; -551.000; -613.000
850.213; -147.300; -393.000; -355.000
850.463;   21.200;  137.000;  340.000
850.712; -191.000; -542.000; -567.000
850.961; -227.000; -739.000; -678.000
851.211; -198.000; -513.000; -504.000
851.460; -238.700; -635.000; -650.000
851.709;  -71.900;  -25.000;   18.000
851.958; -274.700; -912.000; -750.000
852.208; -309.000; -859.000; -879.000
852.457; -101.400; -181.000;  -13.000
852.706; -291.400; -791.000; -823.000
852.955; -171.600; -507.000; -528.000
853.204; -206.400; -521.000; -461.000
853.453; -203.600; -418.000; -458.000
853.702; -242.700; -660.000; -750.000
853.951; -189.700; -532.000; -520.000
854.200; -250.900; -613.000; -562.000
854.449; -225.000; -695.000; -661.000
854.698; -149.600; -340.000; -279.000
854.946;  -95.500; -181.000; -284.000
855.195; -256.400; -843.000; -868.000
855.444; -160.100; -395.000; -420.000
855.693; -203.100; -345.000; -432.000
855.941; -195.800; -387.000; -516.000
856.190; -123.000; -256.000; -382.000
856.439; -241.400; -652.000; -703.000
856.687;  -90.000;  -99.000;  -72.000
856.936; -202.600; -621.000; -323.000
857.184; -335.500;-1067.000;-1020.000
857.433; -192.400; -423.000; -512.000
857.681; -313.100; -989.000; -953.000
857.930; -109.200; -282.000; -433.000
858.178; -278.900; -856.000; -929.000
858.427; -279.500; -802.000; -781.000
858.675; -203.600; -377.000; -544.000
858.923; -214.700; -527.000; -819.000
859.172; -349.100;-1094.000;-1070.000
859.420; -151.200; -339.000; -239.000
859.668; -214.700; -624.000; -628.000
859.916;  -30.800;  109.000;  115.000
860.164; -245.300; -699.000; -603.000
860.413; -299.100; -878.000; -696.000
860.661; -226.600; -709.000; -577.000
860.909; -146.000; -339.000; -325.000
861.157; -140.200; -277.000; -444.000
861.405; -244.500; -534.000; -670.000
861.653;    0.100;  310.000;  310.000
861.901; -223.600; -543.000; -613.000
862.149; -279.000; -801.000; -824.000
862.396; -138.900; -297.000; -187.000
862.644; -126.900; -368.000; -347.000
862.892;  -19.700;   98.000;  138.000
863.140; -227.100; -549.000; -530.000
863.388; -272.000; -815.000; -759.000
863.635; -208.500; -642.000; -601.000
863.883;   29.300;  231.000;  190.000
864.131; -135.000; -288.000; -357.000
864.378; -251.900; -675.000; -540.000
864.626; -149.200; -347.000; -415.000
864.873; -188.900; -556.000; -505.000
865.121; -279.000; -714.000; -799.000
865.368;  -81.600; -173.000;   75.000
865.616; -115.900;  -33.000;  -40.000
865.863; -180.300; -462.000; -506.000
866.111; -280.200; -795.000; -824.000
866.358; -158.800; -426.000; -420.000
866.605;  -80.300;  -64.000; -804.000
866.853; -218.800; -621.000; -537.000
867.100; -260.500; -728.000; -775.000
867.347; -246.500; -672.000; -611.000
867.594; -271.100; -740.000; -714.000
867.841;  -37.300;   97.000;   17.000
868.089; -282.900; -746.000; -698.000
868.336; -211.000; -477.000; -420.000
868.583; -238.000; -637.000; -741.000
868.830;  -62.400; -131.000; -170.000
869.077; -302.200; -859.000; -787.000
869.324; -208.700; -502.000; -458.000
869.571; -205.000; -398.000; -430.000
869.818; -212.900; -485.000; -439.000
870.065; -176.700; -439.000; -513.000
870.311; -182.200; -456.000; -542.000
870.558; -168.300; -332.000; -311.000
870.805; -129.300; -320.000; -384.000
871.052; -165.200; -494.000; -369.000
871.298; -104.800; -204.000; -131.000
871.545; -111.400; -151.000; -185.000
871.792; -115.000; -173.000; -222.000
872.038;  -87.000;   43.000; -126.000
872.285; -173.500; -496.000; -387.000
872.532; -150.900; -357.000; -387.000
872.778;   53.900;  556.000;  403.000
873.025; -136.100; -384.000; -359.000
873.271;  100.900;  501.000;  578.000
873.517;  -92.400; -133.000; -209.000
873.764;  -87.800; -193.000;  -80.000
874.010; -118.700; -143.000; -230.000
874.257;  -17.600;  123.000;   90.000
874.503; -210.400; -579.000; -479.000
874.749;  -97.800;   31.000;  275.000
874.995;  -67.400;  -80.000;  -20.000
875.242; -226.000; -540.000; -478.000
875.488; -167.600; -414.000; -439.000
875.734; -102.900; -106.000; -234.000
875.980; -313.400; -872.000;-1032.000
876.226; -124.900; -157.000; -255.000
876.472;   27.000;  343.000;  237.000
876.718;  -68.200;  184.000;  158.000
876.964;  -37.300;   56.000;   55.000
877.210; -255.300; -547.000; -677.000
877.456; -216.600; -630.000; -557.000
877.702; -307.800; -821.000; -832.000
877.948; -185.700; -377.000; -497.000
878.193;   59.600;  361.000;  255.000
878.439; -202.600; -487.000; -472.000
878.685; -176.700; -272.000; -343.000
878.931; -207.300; -618.000; -676.000
879.176; -138.000; -201.000; -201.000
879.422; -331.400; -933.000; -820.000
879.668;   43.900;   10.000;   79.000
879.913;  -57.000;   53.000;  137.000
880.159;  -86.600; -112.000;  -17.000
880.404;  -98.400; -152.000; -162.000
880.650;  -32.900;   91.000;  141.000
880.895; -270.200; -670.000; -710.000
881.141; -189.600; -454.000; -428.000
881.386; -254.200; -503.000; -658.000
881.631; -173.800; -311.000; -166.000
881.877;  -26.700;  112.000;  -13.000
882.122; -226.900; -684.000; -600.000
882.367; -118.400; -136.000; -186.000
882.612;  -99.600;  -80.000; -176.000
882.858; -283.600; -877.000; -823.000
883.103; -144.200; -297.000; -267.000
883.348; -257.200; -759.000; -852.000
883.593; -250.100; -677.000; -602.000
883.838;  -96.800; -311.000;  -24.000
884.083;    0.100;  353.000;  288.000
884.328; -154.300; -564.000; -545.000
884.573; -117.300; -196.000; -143.000
884.818; -213.300; -694.000; -531.000
885.063; -164.900; -348.000; -315.000
885.308; -160.200; -475.000; -398.000
885.553;   -5.300;  245.000;  325.000
885.797; -216.900; -545.000; -615.000
886.042;  -72.400;    8.000;   58.000
886.287; -110.800; -253.000; -211.000
886.532;  -64.700;   26.000;  204.000
886.776; -153.900; -407.000; -525.000
887.021; -220.700; -621.000; -574.000
887.265; -245.700; -685.000; -689.000
887.510; -210.800; -557.000; -496.000
887.755; -138.400; -194.000; -164.000
887.999; -209.400; -552.000; -575.000
888.244;  -52.900;  -58.000;  161.000
888.488;   55.300;  371.000;  393.000
888.732; -212.800; -368.000; -520.000
888.977; -239.200; -622.000; -567.000
889.221; -285.200; -683.000; -659.000
889.465; -213.800; -422.000; -566.000
889.710; -108.800;  -56.000; -299.000
889.954;   11.600;  579.000;  467.000
890.198; -242.800; -584.000; -707.000
890.442; -250.700; -716.000; -712.000
890.687; -293.100; -800.000; -753.000
890.931; -121.700; -273.000; -210.000
891.175; -230.600; -502.000; -500.000
891.419; -107.900; -105.000; -110.000
891.663;  -99.500; -239.000; -112.000
891.907; -277.500; -801.000; -545.000
892.151; -309.900; -920.000; -815.000
892.395; -161.400; -274.000; -387.000
892.638;   30.600;  408.000;  291.000
892.882; -322.400; -780.000; -867.000
893.126;  126.700;  758.000;  558.000
893.370; -125.400; -167.000; -168.000
893.614; -249.700; -714.000; -715.000
893.857; -163.000; -183.000; -197.000
894.101; -200.000; -527.000; -631.000
894.345;  -52.000;  300.000;  150.000
894.588;   81.900;  569.000;  380.000
894.832;  -87.100; -178.000;  -84.000
895.075;  -92.200;   15.000;  -92.000
895.319; -206.900; -552.000; -420.000
895.563; -181.200; -413.000; -353.000
895.806; -271.000; -628.000; -741.000
896.049; -174.300; -576.000; -368.000
896.293;   32.200;  527.000;  405.000
896.536; -243.300; -465.000; -468.000
896.779;  -90.500; -149.000;   -1.000
897.023; -258.800; -751.000; -714.000
897.266;  -11.000;  325.000;  269.000
897.509; -306.200; -900.000; -901.000
897.752;  -61.800;  149.000;  171.000
897.996; -298.900; -972.000; -864.000
898.239;  -22.000;  168.000;  102.000
898.482; -189.300; -431.000; -453.000
898.725;  -88.500;  101.000;   53.000
898.968; -256.100; -609.000; -744.000
899.211; -197.600; -513.000; -361.000
899.454; -246.600; -633.000; -539.000
899.697;  -81.400;   90.000;  -43.000
899.940; -289.900; -761.000; -757.000
900.182; -162.200; -335.000; -405.000
900.425; -110.600; -150.000; -298.000
900.668;    6.700;  491.000;  350.000
900.911; -166.900; -292.000; -345.000
901.154;  -54.100;  141.000;   -3.000
901.396; -234.200; -407.000; -412.000
901.639; -257.700; -430.000; -496.000
901.882; -293.500; -790.000; -809.000
902.124; -121.900;  -29.000; -143.000
902.367; -163.600; -315.000; -361.000
902.609; -249.800; -476.000; -453.000
902.852; -124.500; -108.000; -260.000
903.094; -198.700; -458.000; -337.000
903.337;  -30.900;  -26.000;   53.000
903.579; -159.300; -228.000; -441.000
903.821; -220.700; -597.000; -744.000
904.064;  -57.500;   85.000;  127.000
904.306; -125.700; -126.000; -166.000
904.548; -125.000; -152.000; -366.000
904.790; -132.500; -195.000; -340.000
905.033; -210.000; -625.000; -577.000
905.275; -216.300; -513.000; -524.000
905.517;   -0.900;  468.000;  256.000
905.759; -285.800; -667.000; -761.000
906.001; -190.500; -322.000; -369.000
906.243; -147.700; -162.000; -224.000
906.485; -161.600; -265.000; -207.000
906.727; -217.300; -499.000; -542.000
906.969; -128.100;  -30.000; -135.000
907.211; -147.400; -316.000; -382.000
907.453; -150.400; -188.000; -237.000
907.695; -169.500; -158.000; -385.000
907.936;  101.200;  818.000;  706.000
908.178;  -88.000;   92.000; -135.000
908.420; -139.600; -111.000; -162.000
908.662; -256.700; -633.000; -682.000
908.903; -157.700; -208.000; -123.000
909.145; -131.600; -240.000; -305.000
909.386;  -26.900;  315.000;  280.000
909.628;   25.400;  363.000;  397.000
909.870;  -55.800;   29.000;  264.000
910.111; -326.000; -809.000; -949.000
910.353; -157.600; -123.000; -161.000
910.594; -214.100; -574.000; -606.000
910.835; -194.100; -265.000; -326.000
911.077; -240.200; -503.000; -604.000
911.318; -246.100; -505.000; -471.000
911.559; -278.400; -577.000; -880.000
911.801; -160.300; -284.000; -280.000
912.042;  -82.400;  -50.000; -159.000
912.283;   30.500;  404.000;  371.000
912.524; -178.400; -396.000; -457.000
912.765; -110.600; -193.000;   79.000
913.006; -120.200; -307.000; -338.000
913.247; -240.700; -270.000; -290.000
913.488;  -95.600;  -43.000;   30.000
913.729; -213.400; -373.000; -373.000
913.970; -144.100;  -96.000; -292.000
914.211; -108.800; -160.000; -198.000
914.452; -122.000; -118.000;  -11.000
914.693;   54.700;  510.000;  592.000
914.934;   49.500;  510.000;  440.000
915.175;  -74.300;   53.000;  -95.000
915.415; -129.100; -137.000;   27.000
915.656;  -85.900;  -28.000;  192.000
915.897; -126.900; -252.000;  -82.000
916.137; -125.800;   74.000;   -9.000
916.378; -251.200; -573.000; -517.000
916.619; -160.900; -159.000;  -63.000
916.859;  -25.500;  303.000;  330.000
917.100;  310.600; 1655.000; 1070.000
917.340;  104.500;  930.000;  728.000
917.581;   95.000;  965.000;  789.000
917.821; -179.300; -171.000;  143.000
918.061; -141.500; -199.000;  -72.000
918.302; -124.100; -152.000; -211.000
918.542;  -93.200;  -22.000;    3.000
918.782;   13.600;  369.000;  377.000
919.023;  -18.300;  360.000;  427.000
919.263; 1191.600; 8131.000;  202.000
919.503; -167.900; -137.000;  -54.000
919.743;   25.800;  390.000;  266.000
919.983;  -84.700; -134.000;  -26.000
920.223;  -91.900;  135.000;   14.000
920.463;   54.200;  631.000;  554.000
920.703;  -44.800;   84.000;   39.000
920.943; -144.900; -110.000;   90.000
921.183; -209.800; -414.000; -405.000
921.423;   11.400;  307.000;  546.000
921.663; -185.900; -174.000; -257.000
921.903;  -31.900;  237.000;  173.000
922.143;    0.100;  372.000;  389.000
922.383;  -92.100;  158.000;  115.000
922.622; -119.600; -120.000;  -15.000
922.862;   98.000;  796.000;  785.000
923.102; -113.100;  -51.000;   33.000
923.341; -124.900;   59.000;   74.000
923.581;  -11.300;  450.000;  360.000
923.821;  -41.600;  301.000;  398.000
924.060;  -18.300;  351.000;  193.000
924.300; -119.900;  -16.000; -128.000
924.539;   -4.800;  584.000;  473.000
924.779;   61.600;  812.000;  597.000
925.018;  -42.700;  247.000;  353.000
925.257;   27.800;  595.000;  666.000
925.497;  -11.200;  447.000;  412.000
925.736; -134.500;  -35.000;  102.000
925.975;   60.500;  687.000;  669.000
926.214;   94.500;  907.000;  850.000
926.454;   76.400;  706.000;  757.000
926.693;  -27.100;  419.000;  543.000
926.932;  114.800; 1021.000;  825.000
927.171;  184.800; 1107.000; 1044.000
927.410;  177.500; 1144.000;  967.000
927.649;  111.100;  924.000;  742.000
927.888;   22.100;  590.000;  564.000
928.127;   23.400;  680.000;  678.000
928.366;  109.800;  842.000;  826.000
928.605;   71.800;  831.000;  737.000
928.844;  212.900; 1451.000; 1393.000
929.083;   26.400;  770.000;  613.000
929.321;  210.400; 1335.000; 1359.000
929.560;  168.500; 1158.000; 1122.000
929.799;   -3.600;  574.000;  475.000
930.038;  237.000; 1025.000; 1394.000
930.276;  -16.200;  334.000;  397.000
930.515;   42.700;  827.000;  681.000
930.753;   24.000;  614.000;  589.000
930.992;    9.300;  664.000;  717.000
931.230;   79.100;  847.000;  847.000
931.469;  413.200; 2162.000;  892.000
931.707;  189.300;  840.000;  751.000
931.946;  175.100; 1278.000; 1344.000
932.184;  137.300; 1437.000; 1175.000
932.423;  155.500; 1265.000;  963.000
932.661;  198.800; 1296.000; 1428.000
932.899;   52.000;  987.000;  821.000
933.137;   26.100;  754.000;  564.000
933.376;  219.200; 1664.000; 1335.000
933.614;  285.700; 1759.000; 1196.000
933.852;  129.600; 1357.000; 1171.000
934.090;  301.700; 1722.000; 1747.000
934.328;  222.300; 1252.000; 1457.000
934.566;  139.200; 1431.000; 1110.000
934.804;  136.300; 1263.000; 1309.000
935.042;  260.400; 1861.000; 1850.000
935.280;  390.700; 2088.000; 2063.000
935.518;  318.900; 2113.000; 2007.000
935.756;  420.800; 2481.000; 2316.000
935.994;  277.800; 1808.000; 1751.000
936.231;  584.800; 2890.000; 2950.000
936.469;  403.600; 2367.000; 2378.000
936.707;  386.700; 2220.000; 2167.000
936.945;  546.200; 2825.000; 2882.000
937.182;  425.300; 2679.000; 2741.000
937.420;  618.500; 3602.000; 3031.000
937.657;  675.700; 3365.000; 3478.000
937.895;  649.100; 3331.000; 3488.000
938.133;  710.200; 3540.000; 3528.000
938.370;  738.200; 3896.000; 4191.000
938.607;  865.300; 4488.000; 4205.000
938.845; 1142.100; 5587.000; 5549.000
939.082; 1071.600; 5387.000; 5177.000
939.320; 1194.100; 5799.000; 5728.000
939.557; 1365.900; 6549.000; 6491.000
939.794; 1465.000; 7285.000; 7097.000
940.031; 1779.500; 8421.000; 8368.000
940.269; 1988.300; 9552.000; 9107.000
940.506; 2215.600;10901.000;10507.000

