
Integration time [ms]: 200.000
Averaging Nr. [scans]: 10
Smoothing Nr. [pixels]: 0
Data measured with spectrometer [name]: 2101013U2
Wave   ;Sample   ;Dark     ;Reference
[nm]   ;[counts] ;[counts] ;[counts] 

394.013;   73.424; -450.257; -315.536
394.305;  329.022; -461.258; -419.536
394.596; 1492.409; -676.269; -527.514
394.887; 3584.627; -796.268; -654.518
395.178; 1455.261;  145.736;   11.476
395.470;  119.273; -210.263; -356.526
395.761;  360.943;  305.734;  394.479
396.052;  622.171; -545.284; -306.489
396.343;  643.748; -557.276; -454.503
396.634;  120.414; -200.279; -290.497
396.926;   88.824; -618.268; -565.517
397.217;  204.353;   11.725;  -17.504
397.508;   39.970; -366.273; -154.507
397.799;    8.614; -555.279; -571.497
398.090;  -76.293; -973.280; -902.495
398.381;  182.389;   11.708;  -11.473
398.672;  -51.710; -585.292; -742.473
398.963;   57.920; -348.279; -373.498
399.254;  158.500;   54.709; -209.475
399.545; -122.760;-1017.266; -883.520
399.836;   42.536; -407.277; -343.501
400.127;   47.463; -205.295; -209.468
400.418;   60.264; -423.274; -392.506
400.709;   69.893; -359.281; -333.493
401.000;   59.004; -268.291; -309.476
401.290;  190.693;  225.698;  115.545
401.581;   79.552; -166.286; -228.485
401.872;   -5.968; -542.298; -486.462
402.163;   71.855; -313.296; -252.467
402.454;   98.001; -123.291; -163.475
402.744;   39.945; -844.297; -813.465
403.035;  552.079; -226.293;  -86.471
403.326;  740.093; -366.292; -384.474
403.617;  579.826;  204.701;  165.539
403.907;  264.577; -593.283; -679.490
404.198; 2985.243; -545.307; -599.446
404.489; 8096.483; -618.283; -588.491
404.779; 2759.397; -618.302; -660.456
405.070;  344.473;  -67.304; -174.451
405.360;  429.481; -259.293; -238.472
405.651;  516.609;  125.699;   98.542
405.942;  282.647;  209.714;  127.516
406.232;  352.063; -432.285; -413.487
406.523;  756.674;  641.706;  758.530
406.813;   97.349; -579.286; -644.484
407.104;  527.888;  261.708;  144.527
407.394;  221.227; -604.299; -591.462
407.685;  253.662;  336.715;  222.513
407.975;   70.381; -400.283; -382.490
408.265;  182.817; -134.289; -190.478
408.556;   38.897; -472.291; -459.475
408.846;  292.574;  474.706;  429.530
409.137;  158.126;   -1.288; -216.480
409.427;   31.763; -193.285; -271.487
409.717;  -23.926; -776.273; -692.508
410.007;  218.456;    4.715; -170.486
410.298;  115.966; -360.295; -342.469
410.588;   69.860; -495.285; -510.486
410.878;   -7.862; -792.287; -873.482
411.168;  112.835; -481.298; -478.463
411.459;  157.675; -295.283; -242.489
411.749;   -3.604; -609.292; -507.474
412.039;   34.224; -755.289; -386.480
412.329;  317.828;   40.722;  132.501
412.619;  268.750;  -62.286; -148.485
412.909;  547.120;  639.711;  594.521
413.199;  447.608; -130.280; -251.495
413.490;  576.809;  521.710;  352.523
413.780;   97.712;-1013.279; -913.496
414.070;  441.349;  -46.276;  235.497
414.360;  403.724; -729.278; -666.498
414.650;  427.634; -726.288; -688.482
414.940;  638.211; -538.280; -441.496
415.230; 1180.430;   50.712;   74.519
415.520; 7657.108;  155.730;   66.486
415.809;30284.393; -305.281; -125.493
416.099;24251.638; -388.277; -229.501
416.389; 6675.962;  435.726;  236.494
416.679; 4033.777;   91.738;   85.473
416.969;  601.243; -527.287; -503.483
417.259;  831.014;  341.721;  171.503
417.549;  958.091;  522.718;  318.508
417.838; 2023.026; -205.268; -147.518
418.128; 6833.215;  650.710;  492.522
418.418; 5833.681; -491.272; -579.509
418.708; 3733.162;    9.726;  -48.506
418.997;14245.657; -474.275; -480.505
419.287;15441.169; -733.273; -790.507
419.577;13893.475; -160.283; -123.489
419.866;46760.936; -588.277; -498.501
420.156;49032.303; -242.270;  -55.513
420.446; 9058.468; -112.263;  -26.526
420.735; 1094.397; -376.271; -446.512
421.025; 1348.423; 1830.722;  315.502
421.314;  886.495; -203.271; -226.512
421.604; 1964.918;   89.732;  233.484
421.893; 1135.691; -705.271; -602.511
422.183;  270.369; -487.263; -461.526
422.472;  489.692;  -36.271; -107.511
422.762;  535.446; -416.266; -379.521
423.051;  263.150; -916.276; -916.503
423.341;  350.372; -491.273; -439.507
423.630;  520.753; -121.265;   15.477
423.919;  527.157;   58.725;   49.495
424.209;  461.275;  -31.263;   56.473
424.498;  659.224;   68.732;  161.483
424.787; 1297.331; -535.267; -601.518
425.077; 4146.751;   34.735;   29.478
425.366; 5889.781; -734.262; -744.528
425.655;12121.572;  639.727;  259.493
425.945;26312.623; -313.247; -268.554
426.234;15041.706;  117.741;  300.467
426.523; 6204.011;  -86.259; -350.534
426.812; 8740.342;  107.734;  159.480
427.101;12572.214; -127.269; -323.515
427.390;16442.908;  -55.270;  -86.514
427.680; 3849.833; -624.257; -411.538
427.969;  598.545; -330.255; -301.540
428.258;  421.924; -385.257; -477.536
428.547;  736.285;  449.728;  397.490
428.836; 1597.163; -421.253; -398.543
429.125; 2396.513; -199.259;  -72.534
429.414; 1029.888; -330.251; -294.548
429.703; 3711.788; -231.251; -213.548
429.992;11451.691; -938.250; -828.549
430.281; 7651.761; -397.264; -331.524
430.570;  777.577;  -21.252;   32.454
430.859;  815.711;  279.741;  352.466
431.148;  705.518;  636.752;  631.446
431.437;  456.977;  391.748;  367.454
431.725;  175.826; -544.257; -481.536
432.014;   59.171; -845.253; -756.545
432.303;  480.201; -149.239; -105.569
432.592;  698.268; -460.263; -178.525
432.881; 1201.919; -601.248; -437.554
433.169; 7385.346; -343.255;  -61.540
433.458;15367.738;  445.765;  540.424
433.747; 6607.187; -397.261; -289.529
434.036; 1116.875; -275.242; -280.564
434.324; 2538.505; -395.249; -379.551
434.613; 4537.167;   40.757;  159.437
434.902; 1526.790;  333.760;  439.433
435.190;  794.300;   75.761;  295.431
435.479;  422.547;  -52.245;   83.441
435.767;  118.456; -411.244; -427.561
436.056;  230.170; -340.242; -294.563
436.345;  394.793; -372.240; -223.568
436.633;  511.700;   60.750;  383.450
436.922;  379.495;  208.760;  414.432
437.210;  774.527; -194.236;    1.426
437.499; 2531.536; -583.235; -432.576
437.787; 2860.027; -339.236;  -10.574
438.075;  756.806;   56.761;  162.430
438.364;  974.509;  -44.238;  250.429
438.652;  548.323; -286.226; -138.592
438.941;  212.184;    3.770;  269.415
439.229;  -10.726; -665.252; -466.545
439.517;   24.945; -160.234;  -85.577
439.806;  -49.759; -501.225; -290.595
440.094;  290.054;  377.766;  650.421
440.382;  189.358; -653.233; -302.580
440.670;  249.136; -361.235; -285.576
440.959;   22.460; -347.223; -170.599
441.247;   93.197; -151.229; -109.587
441.535;  111.843; -266.235;   31.423
441.823;  -19.350; -497.234; -305.578
442.111;  268.701;  173.771;  327.412
442.400;  612.247; -628.245; -335.559
442.688; 1849.353; -111.234; -620.579
442.976; 1263.556; -786.213; -450.617
443.264;  129.748; -324.224; -364.597
443.552;  113.825; -258.226;   51.408
443.840;  310.242;  602.765;  876.423
444.128;  183.757;  265.767;  269.420
444.416;  -41.896; -694.228; -312.588
444.704;  -11.808; -465.219;  -92.605
444.992;   79.828;   -0.226;  240.407
445.280;   39.385; -517.230;  -94.585
445.568;  -18.340; -694.212; -396.618
445.856;  452.075; -174.221;  357.398
446.143; 1011.688;  -54.220;   -7.604
446.431;  868.708;  -25.228;  625.411
446.719;  349.313;  489.783;  675.391
447.007;  293.279;  481.769;  705.416
447.295;  315.756;  597.777;  871.402
447.583;   77.294; -464.229;  -34.587
447.870;  168.771; -434.221; -202.601
448.158;  580.783; -104.230;  129.415
448.446;  365.589; -800.219; -338.604
448.733;  196.050;   13.776;  269.403
449.021;  364.060;   60.788;  341.382
449.309;  207.576; -296.210;  208.379
449.596;  315.609;  128.783;   59.392
449.884;  116.564; -571.222; -325.600
450.172;   86.914; -756.227; -406.590
450.459;  580.938;  645.786;  780.387
450.747; 2692.008; -411.218; -147.608
451.034; 8904.909;  493.772;  889.411
451.322; 7413.941; -413.214; -170.614
451.609;  688.851;  292.777;  508.403
451.897;  659.645; -550.203; -183.634
452.184; 2032.957; -622.223; -400.598
452.472; 2026.999;   97.792;  269.375
452.759;  518.590;  512.781;  864.395
453.047;  150.957; -407.212; -125.617
453.334;   23.499; -732.219; -216.606
453.621;   85.144; -438.214; -161.615
453.909;  157.036;   13.796;  384.368
454.196;  167.086; -299.199; -123.641
454.483;  294.859;  317.798;  540.364
454.771;  180.003; -215.208;  196.374
455.058;   42.206; -316.207;  102.374
455.345;  146.046;   71.807;  344.347
455.632;   97.610; -128.207;  235.373
455.919;   68.411;  -82.196;  182.354
456.207; -161.409; -774.198; -450.642
456.494;  -53.828; -475.200;  -66.639
456.781;   -7.546; -399.202; -198.635
457.068;   66.817; -253.206;  -29.628
457.355;  -44.682; -698.206; -401.629
457.642;  -59.976; -552.205; -290.630
457.929; -103.663; -778.194; -417.651
458.216;   30.657; -575.212; -354.617
458.503;  283.942; -173.193;  -19.652
458.790;  198.000; -864.208; -630.625
459.077;  315.460;  -77.202;  110.364
459.364;  893.029; -350.195; -210.649
459.651; 1986.115;  -46.206;  220.372
459.938;  872.090; -864.209; -665.623
460.225;  193.163;  132.799;  276.363
460.512; -131.492; -836.197; -688.645
460.799;  137.206;  -32.218;  320.392
461.086;   82.877; -370.200; -251.640
461.372;   19.791; -509.198; -279.642
461.659;  145.612; -165.196;  108.354
461.946;   48.240; -445.193;  -54.651
462.233;  432.975;  842.800;  888.361
462.519;  314.371; -814.201; -464.639
462.806; 1116.608; -768.197; -497.645
463.093;  970.963; -445.191;  -66.656
463.380; -117.092; -920.186; -824.664
463.666;   43.610; -259.197;  -18.646
463.953;  112.123; -406.195; -243.648
464.239;  168.023; -173.195;  -77.648
464.526;  534.135;  413.806;  743.350
464.813;  353.476; -565.190; -304.658
465.099;  510.341;  606.807;  607.348
465.386;  535.946;  903.807;  921.348
465.672;  -28.792; -694.197; -522.645
465.959;  -23.605; -598.188; -520.662
466.245;   -1.754; -468.193; -359.652
466.532;  125.421; -109.195;   63.352
466.818;   78.708; -357.186; -216.664
467.104;  -62.248; -488.182; -415.672
467.391;  -57.122; -628.189; -459.658
467.677;   46.212; -289.186;    9.335
467.964;  -55.215; -682.189; -471.660
468.250;   66.215; -331.186; -160.665
468.536;  127.579;   90.811;  180.341
468.822; -135.472; -821.184; -574.668
469.109;  247.340;  351.827;  471.311
469.395;  364.956;  729.808;  787.346
469.681;  222.182;   46.811;  156.341
469.967; 1337.887; -699.188; -382.660
470.254; 3058.596; -494.188; -306.662
470.540; 1972.410; -601.196; -476.646
470.826;  265.964; -488.181; -397.675
471.112;  399.032;  288.816;  113.331
471.398;  137.337; -253.183;  -58.670
471.684;  -15.805; -626.177; -447.680
471.970; -105.332; -918.180; -981.675
472.256;  -11.345; -521.192; -441.654
472.542;  -17.148; -499.171; -434.691
472.828;  -48.653; -743.182; -607.672
473.114;   18.500; -380.166; -283.700
473.400;  -17.987; -504.175; -293.684
473.686;    7.807; -452.166; -400.701
473.972;   49.129; -230.174; -131.687
474.258; -135.560; -925.173; -843.689
474.544;  237.486; -183.178;   -2.679
474.830;  403.715;  -65.175;   45.316
475.116;  554.577; -123.190; -196.658
475.401;  701.671; -558.180; -467.676
475.687;  182.170; -725.180; -718.676
475.973;  -68.644; -673.181; -770.673
476.259;  381.717;  736.825;  764.315
476.544;  383.304; -539.176; -437.682
476.830;  899.548; -398.172; -322.690
477.116;  837.102; -430.177; -336.682
477.401;  264.170;  346.820;  358.324
477.687;  -53.687; -289.175; -405.684
477.973;   23.760;   21.819;   28.326
478.258;  -36.771; -448.163; -348.706
478.544;   93.920;   21.815;   61.334
478.829; -148.442; -818.171; -738.692
479.115; -134.052; -749.172; -651.690
479.401;  -14.876; -444.174; -449.686
479.686;   57.169; -253.180;  -74.676
479.972; -113.008; -886.178; -776.680
480.257;   36.602; -258.166;  -65.700
480.542;  -48.637; -614.170; -469.693
480.828;  439.011; 1288.824; 1392.317
481.113;  -72.491; -464.176; -426.683
481.399;  -17.945; -236.161; -202.711
481.684; -133.199; -620.166; -462.700
481.969;   22.470; -158.159;  -73.713
482.255;  -30.326; -439.169; -285.695
482.540;  -75.008; -569.178; -441.680
482.825;  -58.697; -395.187; -404.663
483.110;  117.178;  -85.169; -105.696
483.396;  142.694; -840.157; -652.718
483.681;  686.529;  543.826;  730.313
483.966;  111.264; -696.160; -700.712
484.251;  -43.672; -404.174; -310.687
484.536;    0.513; -356.165; -378.703
484.822;  -13.869; -205.173; -218.687
485.107;  -81.364; -599.152; -502.726
485.392;  263.319;  662.836;  541.296
485.677;  143.289;  354.832;  163.302
485.962;  146.091;  160.843;  270.283
486.247;  133.938;  -14.162;   -8.707
486.532;   29.103; -178.166; -325.701
486.817;  266.749;  381.839;  431.291
487.102;   87.017; -453.154; -514.722
487.387;  716.896; -637.156; -652.718
487.672; 1295.325; -154.164;  -38.705
487.957;  863.957; -394.160; -286.711
488.241;  215.054; -290.150; -314.729
488.526;  820.837; -280.152; -148.726
488.811; 1296.294; -881.177; -818.680
489.096;  983.420; -666.154; -702.723
489.381;  534.133;    3.847;  162.275
489.666;  405.755; -428.161; -510.710
489.950;  281.923;  558.846;  627.277
490.235;  -78.252; -480.151; -458.728
490.520; -123.846; -756.161; -723.710
490.804; -161.202; -827.156; -736.719
491.089;  -40.929; -469.149; -299.732
491.374;   65.323; -132.164;  -75.704
491.658;  -92.516; -817.147; -717.735
491.943;  123.642; -657.152; -609.727
492.227;  304.912; -178.155;  -38.721
492.512;   41.891; -294.157; -341.717
492.797; -150.336; -713.149; -716.731
493.081; -130.113; -588.147; -598.735
493.366; -137.244; -751.161; -635.711
493.650;  382.145;  831.859;  917.254
493.935;  -30.917; -648.147; -447.734
494.219; -123.769; -778.142; -687.743
494.503;  -95.641; -585.150; -487.730
494.788;   79.681;   46.842;   74.285
495.072;  165.955;  184.850;  434.271
495.356;  163.375; -463.148; -343.733
495.641;  447.394; -812.146; -736.736
495.925;  433.403; -976.156; -903.719
496.209;  -19.029; -599.149; -451.732
496.494; -121.368; -763.142; -544.744
496.778;  -13.183; -364.154; -360.722
497.062; -123.997; -819.156; -627.719
497.346; -108.341; -869.160; -640.711
497.631;  202.379;  580.852;  560.266
497.915;   91.305;  -64.145;  175.261
498.199;   16.094; -341.157; -277.718
498.483;    8.735; -562.152; -508.725
498.767;  288.257;  301.850;  300.271
499.051;  223.668; -126.149; -100.732
499.335;   -4.934; -693.149; -739.731
499.619;  -62.644; -381.129; -423.767
499.903;   12.911; -272.155;  -65.721
500.187;   -9.775; -588.153; -316.724
500.471;  -31.759; -796.152; -595.727
500.755;  127.054;   62.839;  -96.710
501.039;   21.412; -270.155; -357.721
501.323;  122.547;  -21.141;  264.254
501.607;   36.830; -447.163; -503.706
501.891;  -58.805; -607.156; -512.718
502.174;  -79.682; -726.144; -585.741
502.458;  107.245;   89.849;  370.273
502.742;   19.273; -180.138; -191.751
503.026;   83.682; -412.147; -254.734
503.310;  138.169; -437.159; -375.713
503.593;  110.684; -464.147; -325.735
503.877;  153.217; -232.133; -156.760
504.161;  204.428;    2.847;  -50.724
504.444;   45.684; -841.158; -710.716
504.728;  413.322; -487.164; -522.704
505.012;  754.353; -257.150;  -76.729
505.295;  578.056; -417.161; -212.711
505.579;  596.203; -256.156; -496.719
505.862;  795.801; -555.145; -333.738
506.146;  762.972; -681.159; -758.714
506.429;  571.772;  568.841;  461.286
506.713;   16.650; -732.151; -667.728
506.996;  399.016;   90.846;  295.278
507.280;  296.817; -633.165; -474.703
507.563;  276.409; -469.155; -261.721
507.847;   77.326; -423.153; -112.724
508.130;   49.956; -665.161; -456.711
508.413;  105.397; -758.167; -577.700
508.697;  283.397; -151.167;   12.300
508.980;  146.627; -422.153; -312.724
509.263;  -47.195; -466.155; -450.720
509.547;   56.153; -124.150;   82.271
509.830;   43.459; -172.160;  140.289
510.113;  140.103;  128.844;  298.281
510.396;  -18.767; -530.152; -300.725
510.680;  106.903; -818.145; -812.738
510.963;  897.821;  184.846;  180.277
511.246;  665.061; -493.150; -357.730
511.529;  267.908; -482.145;  -83.739
511.812;  439.313; -250.134;   10.241
512.095;  247.647; -740.151; -396.728
512.378;   62.489; -317.147; -245.736
512.661;  -66.819; -703.137; -623.753
512.944;  -66.867; -750.142; -637.744
513.227;   43.378; -170.137; -171.752
513.510;   12.718; -479.144; -671.741
513.793;  -40.848; -485.140; -435.747
514.076;  191.278;  -43.127;  -39.771
514.359;   89.571; -294.149; -135.732
514.642;   57.736; -442.142; -567.744
514.925;  911.950;  581.860;  561.253
515.208;  975.109; -498.134; -443.758
515.491;  707.325; -276.133; -182.761
515.773;  368.622; -410.143; -337.742
516.056; 2393.488;  249.864;  409.246
516.339; 3098.993; -754.136; -652.755
516.622; 2233.359; -518.150; -488.730
516.904; 1742.129;  882.857;  975.257
517.187;  679.277; -730.138; -523.752
517.470;  447.228; -568.143; -510.743
517.752;  440.196; -624.136; -470.756
518.035;  295.763; -708.139; -725.749
518.318;  294.993; -799.136; -744.755
518.600; 2645.128; -300.132; -325.762
518.883; 3643.836;  310.858;   88.256
519.165; 1719.669; -585.138; -426.751
519.448;  445.428;  -61.132;  -19.762
519.730;  192.587; -573.126; -415.773
520.013;  491.620;  588.867;  664.240
520.295; 1066.315;  -94.134;  -15.759
520.578; 2270.942; -335.131; -305.764
520.860; 2566.728; -254.132;   56.238
521.143; 1264.398; -763.135; -584.756
521.425;  559.801; -251.125; -279.775
521.707;  756.179; -622.127; -380.771
521.990; 2037.879; -199.127;  167.229
522.272; 2230.953; -116.140;   -4.748
522.554; 1084.122; -237.143; -157.742
522.836;  430.813;  -24.134;   99.241
523.119;  209.481; -496.148; -189.734
523.401;  142.550; -448.130; -314.766
523.683;   36.082; -865.137; -693.753
523.965;  352.575;  408.862;  260.248
524.247;  319.524;   54.878;  170.220
524.529;  194.915; -451.134; -367.759
524.812;  443.252;   -3.130;  191.234
525.094;  884.874; -773.138; -631.751
525.376; 1496.911; -143.124;   78.223
525.658;  872.690; -441.136; -339.754
525.940;  -69.261; -805.131; -671.764
526.222;    7.894; -188.136;  -88.755
526.504;  124.636; -190.131;   32.237
526.786;  138.618; -960.133; -647.760
527.068;  380.917; -124.123;  -67.778
527.349;   72.686; -865.137; -774.754
527.631;  138.528; -137.132;   22.238
527.913;   75.278; -664.127; -450.771
528.195;  111.393; -761.125; -639.774
528.477;  260.310;  -93.134;  -30.758
528.759;   68.852; -648.130; -522.766
529.040;    8.715; -569.123; -293.778
529.322;   41.796; -235.125;  -10.774
529.604;  159.154;  -47.130;   93.233
529.886;  107.886; -546.126; -302.773
530.167;  153.445;  232.870;  192.235
530.449;   75.488;    1.853;   63.265
530.731;  -38.677; -572.122; -459.779
531.012;   25.446; -513.120; -216.784
531.294;   92.289; -118.116;  -43.792
531.575;  226.301;  290.875;  538.225
531.857;    2.504; -548.135; -266.757
532.138;  152.845; -113.141;   40.254
532.420;  261.300;  294.865;  403.244
532.701;  156.420; -722.133; -751.760
532.983;  457.724;  232.867;  182.239
533.264;  158.084; -243.126;  175.228
533.546;  -83.707; -491.136; -508.755
533.827;   77.817;  173.867;   -1.759
534.109;   11.004; -352.135;  -80.757
534.390;   43.332; -725.132; -582.762
534.671;  270.000; -270.135;  -82.756
534.953;   77.218; -751.123; -611.779
535.234;    3.472; -426.117; -255.789
535.515; -201.345; -891.119; -735.785
535.796;  -65.626; -431.128; -193.770
536.078; -249.990;-1050.124; -904.777
536.359;    0.419;  -22.123;    3.221
536.640;  -65.705; -480.125; -197.774
536.921;  210.660;  225.871;  143.232
537.202;  413.170;  -87.138;  -16.751
537.483;  550.142;  251.869;  377.236
537.764;  216.545;   17.870;   98.235
538.045; -141.791; -543.134; -371.758
538.326; -113.838; -596.129; -447.768
538.607;  -77.420; -686.127; -476.771
538.888;  195.536;   98.879;    5.218
539.169;  113.930; -704.122; -535.781
539.450;  416.459;  236.871;   16.233
539.731;  215.040; -361.121; -182.783
540.012;  172.346;  199.880;  412.216
540.293;  103.305;   82.876;  158.224
540.574; -105.689; -895.113; -717.796
540.855;  558.139;  435.879;  377.218
541.136;  643.127;   47.878;  139.220
541.416;  286.453; -161.130; -220.766
541.697;  189.037; -274.131; -170.763
541.978; 1122.202; -270.135; -315.757
542.259; 1424.980; -211.127; -236.771
542.539;  664.782; -191.116; -186.790
542.820;  267.900;  461.875;  480.225
543.101;  108.405;  -52.145;  -77.738
543.381;  -65.921; -638.127; -591.771
543.662;  300.777;  159.873; -254.771
543.942;  549.075; -751.127; -830.770
544.223; 1209.929;  193.878;  161.219
544.504;  710.010; -275.124; -182.777
544.784;  596.486; -592.126; -408.773
545.065; 1735.486;  104.884; -254.791
545.345; 2173.255;  227.881;   14.215
545.626; 1454.011;  -14.113; -108.796
545.906; 1002.745;   77.869;   98.235
546.186;  398.191;   92.874;  -95.773
546.467;  194.313;   99.877;  -95.778
546.747;  428.482;  264.884;  327.210
547.027;  406.909;   91.876;  111.223
547.308;  273.374; -376.127; -530.770
547.588;  485.163;  299.871;  371.232
547.868;  315.346;  458.870;  588.235
548.149;  284.394;  609.885;  593.207
548.429;  113.678; -347.127; -299.771
548.709;  128.546; -645.120; -461.784
548.989;  552.866;   84.882;   88.213
549.269; 2325.026;   10.868;  139.239
549.550; 5191.618;  215.877;  117.222
549.830; 4623.730; -758.111; -556.799
550.110;  912.838; -468.110; -320.801
550.390;  929.723; -128.122;  -56.779
550.670; 1112.706; -868.114; -783.795
550.950;  801.538; -509.121; -471.782
551.230;  293.134;  549.879;  460.218
551.510;  -46.063; -381.121; -326.782
551.790;   38.347; -173.109; -127.803
552.070;  434.713;  940.877; 1181.223
552.350;  376.260; -492.119; -377.786
552.630;  648.132;   -2.121;   77.219
552.909;  390.687;  181.884;   73.209
553.189;  277.533;  -49.132;   33.237
553.469;  145.159; -703.119; -514.786
553.749;  156.081; -469.127; -357.772
554.029;  193.977;   33.883;  -24.790
554.308;  118.699; -154.115;  -37.794
554.588;   54.673; -196.128; -204.770
554.868;   17.839; -366.121;  -47.782
555.147;  145.596; -114.115;  -46.793
555.427;  654.589; -260.116; -250.792
555.707; 4234.593; -284.115; -200.793
555.986; 4921.234; -719.111; -538.800
556.266; 2708.480;   23.884;   72.210
556.546;   43.837; -888.121; -675.782
556.825;  161.104; -657.114; -556.794
557.105; 1990.470; -125.128;   17.230
557.384; 2287.085;  122.884;  187.209
557.664;  812.688; -717.116; -508.792
557.943;   61.339; -557.121; -411.782
558.222;  148.569; -345.118; -344.788
558.502;  344.397; -116.115;  -76.793
558.781;  614.292;  194.885;  499.208
559.061;  431.169; -232.118; -227.788
559.340;  370.574;  302.883;  353.211
559.619;  803.080;   93.884;  148.210
559.899; 1114.076; -239.117; -266.789
560.178;  978.197; -778.115; -593.793
560.457; 3499.278; -623.117; -562.790
560.736; 4706.335; -472.111; -482.800
561.015; 3193.968; -500.128; -502.769
561.295;  423.669;  180.893;  215.193
561.574;  349.594;  119.885;  116.207
561.853;  561.052;  274.891;  303.197
562.132;  531.599;  -45.114;  182.206
562.411;  556.532;  396.879;  553.219
562.690;  105.492; -592.115; -458.792
562.969;  247.818;  472.888;  630.203
563.248;  892.830; 2966.878; 2487.219
563.527;  265.134; -290.111; -408.800
563.806;  327.078; -650.127; -521.771
564.085;  451.585; -297.105; -206.810
564.364;  182.280; -594.117; -405.790
564.643;  588.733; -276.121; -223.781
564.922; 2029.145;  221.890;  397.198
565.201; 1920.149; -640.109; -700.803
565.479;  832.791; -297.115; -219.792
565.758;  276.771; -810.128; -712.770
566.037;  486.150; -155.109; -100.803
566.316;  251.686; -286.116;  -28.791
566.595;   40.394;  -17.115;  -12.793
566.873;  213.337; -166.111;  -79.801
567.152; -141.082; -490.113; -590.797
567.431;   17.781; -113.116;    6.210
567.709;  -22.831; -344.107; -212.807
567.988;  187.803; -810.114; -769.794
568.266;  513.993; -160.115;  -68.793
568.545;  363.637; -644.100; -514.819
568.824;  673.490;  160.885;  356.208
569.102;  537.503; -351.114; -235.794
569.381;  181.889; -492.116; -407.792
569.659; -138.286; -553.113; -553.796
569.938;  -47.272; -743.122; -465.780
570.216;   88.753; -225.109; -225.804
570.494;  -97.393; -632.114; -572.795
570.773;   65.637;  202.879;  114.218
571.051;  -41.084; -373.123; -357.778
571.330;   60.711; -221.113; -174.796
571.608;   10.756; -181.098; -173.823
571.886; -184.872; -671.111; -581.799
572.164; -181.461; -739.121; -621.782
572.443; -138.311; -562.105; -512.811
572.721;  -86.122; -399.117; -289.790
572.999;  -67.129; -280.117; -168.788
573.277;  178.682;  379.894;  620.191
573.555;  309.184;   94.894;   37.190
573.834; 1393.571;  -86.117; -114.788
574.112; 1851.271;  880.893;  811.193
574.390;  488.836; -143.111;  -96.801
574.668;   -6.481;  -91.112;  -61.797
574.946;  -66.015; -165.106; -187.810
575.224;   14.649;   71.891;  -16.803
575.502;  -61.017; -200.116; -204.791
575.780; -184.480; -767.112; -829.798
576.058;  251.535; 1589.889; 1004.200
576.336;  -52.059; -210.110; -129.801
576.614; -125.679; -511.112; -340.798
576.891;  -28.802; -711.115; -823.794
577.169;  456.162; -158.108; -285.805
577.447;  675.471;  169.893;  202.193
577.725;  375.525;  629.888;  854.201
578.003;   -8.977;  -71.112; -371.798
578.280;   79.399; -208.104; -242.812
578.558;   -2.103; -450.115; -422.793
578.836;  152.206; -210.114; -145.795
579.114;  -26.581; -630.112; -670.797
579.391;   64.973;   -6.117;  -18.789
579.669; -164.901; -595.114; -704.794
579.947;  157.167; -326.107; -127.806
580.224;  263.767; -692.107; -524.806
580.502;  361.772;  127.893;   76.193
580.779;   54.579;  -42.117;   75.210
581.057; -162.047; -584.109; -470.804
581.334; -165.585; -726.102; -695.815
581.612;   88.786;   54.895;  511.190
581.889;  -94.370;  -83.101; -129.818
582.167;  -70.955; -298.099; -190.821
582.444; -193.276; -845.102; -814.817
582.721;  204.925;  657.899;  715.183
582.999;   51.343; -326.100; -167.821
583.276;  483.521; -812.123; -713.779
583.553;  681.319; -364.102; -294.816
583.831;  191.396; -607.104; -631.812
584.108;  118.259;  349.892;  174.195
584.385;  -33.785; -122.102;  -98.815
584.662; -181.663; -651.111; -828.801
584.940;   36.036;  204.889;  204.199
585.217;  -47.987;  -73.113; -303.796
585.494;   18.146;   71.890;  118.198
585.771;  171.054; -250.109; -354.804
586.048;  480.913; -196.113;  -76.796
586.325;  248.240; -721.110; -773.801
586.602;  110.300;  230.896;  213.188
586.879;  -97.061; -499.100; -580.820
587.156;   26.487; -156.105; -331.810
587.433; -132.978; -701.102; -667.817
587.710;   82.121;  152.888;  234.202
587.987;  318.592; -264.105; -236.811
588.264;  871.023;  315.888;  387.202
588.541; 1491.702;  -61.104;   26.187
588.818; 2821.757;   72.892;  171.196
589.095; 2431.697; -163.104; -174.812
589.371;  333.452; -459.109; -414.804
589.648;  -50.029; -581.107; -437.807
589.925;  -14.693; -517.114; -621.795
590.202;  -86.079; -741.112; -607.798
590.478;   43.194; -166.105;  -73.811
590.755;  262.163; -241.108; -132.806
591.032; 2633.042; -741.110; -699.802
591.308; 3482.200; -732.094; -790.831
591.585; 1845.842; -573.110; -560.802
591.862;   39.223;-1056.102; -950.817
592.138;   17.961; -475.108; -474.805
592.415;  128.700; -486.104; -495.813
592.691; 1669.898;  460.896;  518.188
592.968; 1902.358; -208.098; -123.824
593.244;  895.982; -695.116; -595.790
593.521;  106.324; -105.102;  -42.817
593.797; -125.975; -810.122; -720.780
594.074;  265.172; -611.096; -588.826
594.350;  811.084;  828.905;  729.172
594.626;  309.037; -303.111; -283.801
594.903;   33.724; -643.101; -645.817
595.179;  262.005;  243.896;  418.187
595.455;   -0.727; -136.107; -150.807
595.731;   -1.194;  -19.103;  -38.814
596.008; -133.469; -464.111; -434.800
596.284;   42.741; -187.100; -242.820
596.560;  -23.793; -501.093; -493.833
596.836;  206.189; -173.105;  -70.810
597.112;  304.161; -582.108; -437.805
597.388;  346.770;  -49.097;  -48.826
597.665;  187.316;  437.887;  530.203
597.941; -153.961; -572.089; -658.839
598.217;  -32.655; -323.110; -293.802
598.493;  262.156;   61.891; -204.804
598.769;  498.235; -175.100;  -50.819
599.045;  253.465; -490.108; -562.806
599.321;  -14.060; -193.100; -261.820
599.597;  123.355; -355.109; -476.804
599.872;  540.002;  409.896;  429.187
600.148;  375.871;  -61.097; -172.826
600.424;  364.370;   91.893;  202.193
600.700;  241.872; -170.107; -280.807
600.976;   54.365; -442.097; -464.825
601.252;  263.351; -226.109; -272.803
601.527;  109.303; -833.104; -840.813
601.803;  121.695; -453.105; -404.812
602.079;  204.735; -124.100; -118.819
602.354;  553.918; -620.092; -531.835
602.630;  865.913; -140.113; -482.796
602.906; 2504.830; -910.101; -863.818
603.181; 6779.859; -627.119; -534.786
603.457; 6092.669;   98.903; -278.826
603.733;  792.941; -605.120; -626.783
604.008; 1130.485; -245.106; -164.810
604.284; 3097.626; -636.101; -580.817
604.559; 2916.325;   -3.112;  -42.799
604.835;  478.388; -163.105; -225.810
605.110;  331.946; -732.099; -892.821
605.385;  786.110;  224.907;  267.167
605.661;  619.887; -625.095; -729.829
605.936; 1065.165; -664.108; -737.806
606.211; 1072.113;  -17.103; -170.815
606.487;  200.402; -329.114; -376.794
606.762;  -89.640; -791.119; -745.786
607.037;  -99.811; -501.105; -433.810
607.313; -118.720; -589.096; -574.828
607.588;  -59.115; -375.106; -137.810
607.863;   22.629;  -28.101; -143.818
608.138;  263.344;  513.890;  516.198
608.413;   18.150; -576.099; -592.822
608.688;   11.761; -203.108; -267.805
608.964;  157.679; -509.106; -218.809
609.239;  234.886; -107.105; -212.810
609.514;  361.794;  281.895;  240.188
609.789;  595.199; -187.104; -716.812
610.064;  888.379; -435.096; -609.827
610.339;  832.852; -855.109; -799.804
610.614; 1187.141; -131.100; -315.820
610.889;  728.995;  215.895;  107.188
611.163;  -16.505; -407.104; -591.812
611.438;   39.603;   81.886; -167.794
611.713;  -24.174; -467.101; -499.817
611.988;   20.828; -144.101; -328.818
612.263; -127.085; -771.102; -717.815
612.538;  276.913;  385.887;  251.204
612.812;   57.942; -832.100; -911.820
613.087;   87.256; -358.098; -338.823
613.362; -132.927; -497.107; -557.807
613.637;   97.709;  261.897;  138.186
613.911;  -46.681; -256.092; -345.835
614.186;  111.271; -249.107; -292.807
614.460;  596.421; -842.081; -758.854
614.735;  794.265;  -55.087;  -17.843
615.010;  160.854;   43.912;  -82.841
615.284;  323.260;  360.892;  246.195
615.559;  264.917; -792.092; -955.835
615.833;  307.048;  -76.099;  -87.822
616.108;  -46.270; -225.090; -390.837
616.382;  234.566;  274.913;  402.156
616.656;  154.031; -241.090; -232.837
616.931;  432.049; -785.099; -700.822
617.205; 1028.204; -973.104; -979.813
617.480; 1027.499;  -91.125;    6.225
617.754;  149.396; -396.125; -128.774
618.028;  -47.836; -369.129; -382.768
618.302;   77.759;   73.892;  -25.805
618.577; -143.489; -371.103; -518.815
618.851; -102.952; -399.109; -600.803
619.125; -105.085; -335.134; -378.759
619.399;  -76.696; -244.104; -374.813
619.673;  -97.810; -330.115; -515.792
619.947; -130.094; -333.114; -448.795
620.222;  -62.962; -198.110; -204.801
620.496;    1.139;  -47.121;  -96.782
620.770;    6.630; -187.122;  -93.781
621.044;  260.987;  323.895;  346.190
621.318;  696.842; -653.120; -614.783
621.592;  690.940; -430.121; -409.783
621.866;  278.726; -476.112; -572.799
622.140;   -0.617; -207.116; -356.791
622.413;   96.431;  138.889;  112.200
622.687;  -98.874; -746.101; -492.817
622.961;   26.459; -130.108; -143.805
623.235; -140.468; -633.111; -661.800
623.509; -213.706; -816.105; -848.811
623.783;   49.968;  -12.107;   48.193
624.056;  -64.057; -254.120; -280.783
624.330;  101.619;   63.888;   -3.797
624.604;   33.880; -271.116; -355.790
624.877;  106.243;  180.890;   26.198
625.151;   -6.800; -249.114; -238.794
625.425;  -32.194; -150.103; -283.814
625.698; -120.647; -367.119; -374.785
625.972; -197.454; -799.110; -765.802
626.245;  126.982;  685.884;  484.210
626.519; -111.152; -426.120; -340.784
626.792;  -73.328; -192.107; -380.807
627.066; -134.878; -485.122; -662.779
627.339; -178.859; -736.110; -663.802
627.613;   84.746;  351.880;  148.216
627.886;  102.648;  187.891; -612.803
628.160;  -31.458;  312.880; -161.783
628.433; -158.098; -695.125; -703.775
628.706; -149.852; -517.120; -615.784
628.979;   65.309;  296.876;  117.223
629.253; -206.041; -785.119; -833.786
629.526;  354.485; -334.126; -253.772
629.799;  260.116; -641.123; -479.778
630.072;   82.365; -497.128; -516.769
630.346; -211.718;-1115.116;-1080.790
630.619;  429.873; -467.107; -545.808
630.892;  726.932;  709.889;  593.200
631.165;  502.304;  790.896;  679.187
631.438; -221.277;-1092.112;-1055.798
631.711;  104.920;  453.877;  257.221
631.984; -133.624; -523.117; -624.789
632.257; -142.727; -636.117; -681.789
632.530;  -91.846; -412.119; -433.785
632.803;   46.698; -109.115;    7.207
633.076; -133.387; -360.123; -422.777
633.349;   41.870;  173.872;  121.231
633.622;  -71.948; -187.119; -240.785
633.895; -250.857; -903.120; -823.783
634.167; -101.913; -496.126; -525.773
634.440;   10.989;  -19.116; -137.792
634.713;    3.057;  -22.119; -120.786
634.986;  179.459;  593.871;  453.233
635.258; -153.704; -507.115; -597.793
635.531;  218.368;  742.882; -343.788
635.804;  -58.725; -303.117; -318.789
636.077; -220.516; -830.116; -852.791
636.349;  -95.406; -586.115; -474.793
636.622;  661.884; 1695.874; 1392.228
636.894;  175.848; -474.120; -909.784
637.167;   46.577; -836.127; -789.771
637.439;   48.473; -278.128; -213.770
637.712;  -77.614; -312.126; -293.772
637.984; -182.115; -635.116; -707.791
638.257;  495.513;  515.877;  488.222
638.529;  481.803; -881.125; -924.776
638.802;  200.565; -508.128; -449.769
639.074; -259.571; -927.122; -952.781
639.346; -268.994; -942.135; -930.757
639.619;  -14.165;  -79.142; -319.744
639.891;   -7.178;  -83.122; -168.779
640.163; -194.376; -689.122; -756.780
640.435;   48.026;  273.878;  103.220
640.708;   20.728;  -72.122; -132.780
640.980; -102.470; -366.122; -362.781
641.252;  238.732;  -25.121;  -71.781
641.524; 2048.834;  580.879;  573.219
641.796; 1836.936;-1094.121; -907.782
642.068;  309.338; -191.121; -300.782
642.340; -103.760; -486.121; -566.783
642.613;   74.442;  294.880;  323.217
642.885; -200.156; -787.120; -878.783
643.157; -150.154; -810.120; -658.784
643.428;  122.448;  170.880;  218.216
643.700; -143.650; -498.120; -425.784
643.972;  -42.748;  -16.119; -133.785
644.244; -185.846; -474.119; -559.785
644.516;  -63.944; -250.119; -114.786
644.788;  124.958;  662.881;  548.214
645.060;    0.560;  -12.119; -124.786
645.332; -199.938; -525.118; -535.787
645.603;  120.664;  479.882;  342.213
645.875; -136.434; -334.118; -369.787
646.147;  402.168; 1487.882; 1242.212
646.418; -181.230; -931.117; -918.788
646.690;   35.372; -714.117; -715.789
646.962;  -32.526; -413.117; -451.789
647.233;   27.176;   15.883;   11.211
647.505; -197.122; -595.117; -475.790
647.776;   99.680;  328.884;  229.210
648.048;  -28.218; -248.116; -418.790
648.320; -185.916; -752.116; -679.791
648.591; -298.314;-1055.116; -958.791
648.862; -133.012; -505.116; -577.792
649.134;   80.390;  115.885;  198.208
649.405; -137.908; -661.115; -618.792
649.677; -124.906; -475.115; -598.793
649.948;  -33.904; -181.115; -296.793
650.219;  -28.902;  -37.115; -147.793
650.491; -140.600; -431.114; -520.794
650.762; -242.498; -705.114; -731.794
651.033; -146.896; -437.114; -424.795
651.304; -206.794; -743.114; -728.795
651.576; -128.992; -680.114; -645.795
651.847;  -86.790; -250.113; -140.796
652.118;  -23.588;  -32.113; -189.796
652.389; -192.086; -639.113; -722.796
652.660;  -24.884; -147.113;  -89.797
652.931; -241.082; -897.112; -871.797
653.202; -121.080; -382.112; -541.798
653.473; -147.878; -633.112; -533.798
653.744;  108.524; -595.112; -590.798
654.015;   83.026; -356.112; -303.799
654.286; -121.872; -642.111; -663.799
654.557; -146.770; -586.111; -521.799
654.828; -301.868;-1114.111;-1088.800
655.099; -140.866; -404.111; -291.800
655.370; -154.064; -427.111; -543.801
655.641; -207.862; -656.110; -714.801
655.911; -183.160; -618.110; -638.801
656.182;  140.642;  437.890;  387.198
656.453;  208.844;  830.890;  746.198
656.724; -114.554; -466.110; -426.802
656.994; -127.052; -553.109; -568.803
657.265; -210.550; -862.109; -873.803
657.536; -127.348; -500.109; -377.804
657.806; -185.846; -561.109; -593.804
658.077; -245.844; -866.109; -950.804
658.347; -160.042; -523.108; -598.805
658.618; -200.940; -646.108; -694.805
658.888;  -24.638;  -41.108;  112.195
659.159; -133.836; -432.108; -548.806
659.429;  -51.734; -292.108; -349.806
659.700;  -42.432; -435.107; -390.807
659.970;  -59.830; -370.107; -359.807
660.241;  -47.228; -754.107; -921.807
660.511;  480.174; -147.107; -174.808
660.781;    8.676; -793.106; -748.808
661.052;  -86.322; -222.106; -381.808
661.322;    1.280;   21.894;   -9.809
661.592;   61.282;  257.894;  148.191
661.862; -111.516; -369.106; -382.810
662.133; -143.014; -551.105; -502.810
662.403; -232.512; -770.105; -676.810
662.673;  -81.510; -256.105; -213.811
662.943; -168.108; -612.105; -551.811
663.213;   23.094;  -85.105;  -81.811
663.483; -137.604; -593.104; -568.812
663.753;  -37.902; -194.104; -152.812
664.023;   36.300;   68.896;  -32.813
664.293;  -92.998; -319.104; -126.813
664.563; -193.296; -694.104; -648.813
664.833; -236.894; -743.103; -608.814
665.103; -247.392; -730.103; -793.814
665.373; -239.890; -766.103; -806.814
665.643; -193.188; -863.103; -918.815
665.913;  -55.086; -534.103; -714.815
666.182;   71.716; -685.102; -719.816
666.452;  246.918;  -22.102;  -89.816
666.722; -101.480; -724.102; -784.816
666.992; -278.778; -948.102; -921.817
667.261; -198.676; -824.102; -808.817
667.531;  254.326;  134.899;   45.183
667.801;  490.428; -440.101; -412.818
668.070;  364.430;  714.899;  697.182
668.340; -219.368; -883.101; -840.819
668.609;  152.534;  588.900;  301.181
668.879; -121.664; -490.100; -558.819
669.149; -144.662; -539.100; -516.820
669.418; -171.460; -698.100; -726.820
669.688;  -71.458; -482.100; -666.820
669.957;   21.244; -423.099; -546.821
670.226;  -64.454; -268.099; -331.821
670.496; -185.152; -431.099; -635.822
670.765; -143.250; -418.099; -501.822
671.034; -253.148; -872.099; -828.822
671.304;    5.154;   55.902; -111.823
671.573; -283.644;-1085.098; -957.823
671.842;   66.858; -380.098; -294.823
672.112;  -30.940; -692.098; -586.824
672.381;  -33.738; -239.098; -214.824
672.650; -253.336;-1005.097;-1021.825
672.919; -160.134; -631.097; -507.825
673.188; -202.932; -681.097; -878.825
673.457; -323.230;-1101.097;-1143.826
673.726; -171.328; -579.096; -646.826
673.995;  -97.726; -533.096; -479.826
674.265;  -21.024; -263.096; -333.827
674.534;  -18.722; -183.096; -235.827
674.802;  -28.020; -618.096; -703.828
675.071; 1022.282; -886.095; -801.828
675.340; 3850.284; -464.095; -339.828
675.609; 1362.386;  103.905;   82.171
675.878;  -30.612; -949.095; -893.829
676.147;   47.990;  -26.095;   -8.829
676.416;   69.792; -210.094; -294.830
676.685;  979.494; 1000.906; -622.830
676.953;   73.396; -603.094; -452.831
677.222;  -49.902; -193.094; -273.831
677.491;  -30.100;  -24.094; -127.831
677.759;  -16.398;   11.907;  172.168
678.028;  -16.996; -279.093; -222.832
678.297;   -8.494;   71.907;  197.168
678.565; -245.292; -898.093; -944.833
678.834;  -65.190; -311.093; -268.833
679.102; -134.888; -411.092; -391.834
679.371; -288.286; -898.092; -727.834
679.639; -233.884; -797.092; -786.834
679.908; -218.982; -794.092; -724.835
680.176; -271.080; -895.091; -941.835
680.445; -126.978; -346.091; -352.835
680.713;    3.824;  -58.091;  -23.836
680.982; -170.474; -523.091; -525.836
681.250; -186.472; -578.091; -507.837
681.518; -176.370; -534.090; -751.837
681.787;  -40.968; -204.090; -167.837
682.055; -157.066; -490.090; -422.838
682.323; -266.064; -993.090; -992.838
682.591;    8.338; -216.090; -538.838
682.859;   82.540;    9.911;  -35.839
683.128;   38.742;  232.911;  497.161
683.396; -325.056;-1102.089;-1122.840
683.664;  -41.754; -241.089;   21.160
683.932;   40.848;  144.911;  -76.840
684.200; -161.150; -576.088; -320.841
684.468;  -21.148;  -73.088; -124.841
684.736;  -33.946; -214.088; -175.841
685.004; -243.444;-1024.088; -982.842
685.272; -148.742; -880.088; -774.842
685.540; -144.140; -499.087; -557.843
685.808; -164.838; -651.087; -682.843
686.076; -207.036; -894.087; -969.843
686.343; -148.034; -601.087; -815.844
686.611;   40.968; -195.087; -224.844
686.879;  491.270; -530.086; -553.844
687.147; 3425.072; -483.086; -480.845
687.414;  913.874;  -12.086; -169.845
687.682;  -86.924; -658.086; -757.846
687.950;  363.078;  259.915;  263.154
688.217; -108.920; -792.085; -760.846
688.485; -111.618; -632.085; -636.847
688.753;  583.984;  -11.085; -102.847
689.020;   37.886; -820.085; -851.847
689.288; -185.812; -853.084; -787.848
689.555;  -60.610; -195.084; -148.848
689.823;  -64.908; -241.084; -345.849
690.090; -150.006; -546.084; -651.849
690.358; -299.404; -877.084; -897.849
690.625;   39.698;  120.917;   45.150
690.892; -123.700; -403.083; -369.850
691.160;    6.902;   72.917;  -35.850
691.427;   53.804;  141.917;  130.149
691.694; -257.294; -855.083; -929.851
691.962; -270.492;-1177.082;-1060.852
692.229;   45.210;  127.918;   56.148
692.496;  105.412;  130.918;  -49.852
692.763;  -13.386; -164.082; -201.853
693.031; -152.284; -739.082; -716.853
693.298; -149.382; -509.081; -368.853
693.565;  370.220; -155.081; -163.854
693.832; 1277.722;   -5.081;   -9.854
694.099;  107.824; -643.081; -642.855
694.366; -150.574; -882.081; -896.855
694.633; -170.072; -920.080; -633.855
694.900; 1540.530; 4367.920; -114.856
695.167;  451.832; -214.080; -380.856
695.434;   13.334; -646.080; -623.856
695.701;  273.436;  121.921;  -61.857
695.968;  497.738; -365.079; -361.857
696.234; 1210.040; -415.079; -646.858
696.501;11509.542; -776.079; -614.858
696.768; 5612.544; -554.079; -617.858
697.035;  274.646; -632.078; -667.859
697.302;  -12.852; -448.078; -552.859
697.568;  -55.250; -458.078; -497.859
697.835; -100.948; -683.078; -624.860
698.102;  -84.046; -498.078; -407.860
698.368;  159.156;  384.923;  396.139
698.635;  -52.742;  -47.077; -424.861
698.901;  -56.240; -240.077; -348.861
699.168;   18.962; -534.077; -456.862
699.435;   49.864;  -72.077;  -13.862
699.701; -242.834; -868.076; -764.862
699.968;  -77.932;  144.924; -441.863
700.234; -203.630; -783.076; -822.863
700.500; -104.928; -448.076; -539.864
700.767;    3.074;   -1.075;   26.136
701.033; -278.524;-1015.075; -963.864
701.299; -130.022; -450.075; -483.865
701.566;  273.580;  950.925;  763.135
701.832;   82.882;  -31.075;  -76.865
702.098; -218.616;-1054.074;-1034.866
702.365; -234.914;-1098.074;-1030.866
702.631; -138.512;-1038.074;-1063.867
702.897; 1435.590; -765.074; -676.867
703.163; 2311.492;  348.926;  254.133
703.429;  137.994; -256.073; -273.868
703.695; -112.904; -796.073; -792.868
703.961;   15.998; -214.073; -210.868
704.227; -131.900; -630.073; -725.869
704.493;  273.002;  613.927;  510.131
704.759;  -57.496; -565.072; -540.870
705.025;   44.406; -203.072; -194.870
705.291;  -73.492; -666.072; -562.870
705.557;  342.610;  719.928;   34.129
705.823;  -44.588; -742.072; -694.871
706.089;  131.114; -307.071; -326.871
706.355;  431.816; -315.071; -244.872
706.620; 6436.218; -776.071; -729.872
706.886; 8234.820; -309.071; -362.873
707.152;  626.122; -818.070; -973.873
707.418; -144.376;-1153.070;-1186.873
707.683;  -50.974; -550.070; -530.874
707.949;  -94.872; -547.070; -578.874
708.215;   12.530; -129.070; -207.874
708.480;  -52.868; -520.069; -420.875
708.746;  117.634;   68.931;   28.125
709.011; -119.264; -578.069; -612.876
709.277; -137.062; -538.069; -543.876
709.542;  -95.560; -428.069; -387.876
709.808;   -5.058;  -59.068;   89.123
710.073; -145.956; -577.068; -695.877
710.339;  -41.054; -242.068; -228.877
710.604;    0.848; -780.068; -845.878
710.869;  313.950; -277.068; -366.878
711.135; -141.348; -715.067; -628.879
711.400; -170.446; -507.067; -608.879
711.665;  -92.044; -404.067; -479.879
711.931; -221.942; -661.067; -677.880
712.196; -225.040; -876.067; -954.880
712.461;   65.462; -402.066; -490.880
712.726;   33.664; -727.066; -771.881
712.991; -192.434; -647.066; -664.881
713.256;  -80.232; -350.066; -332.882
713.521;  -89.730; -417.065; -381.882
713.787; -137.028; -454.065; -472.882
714.052;  -55.626; -214.065; -400.883
714.317; -220.524;-1045.065; -981.883
714.581; 1172.578; -374.065; -268.883
714.846; 1294.580; -822.064; -888.884
715.111;  180.082;  261.936;  257.116
715.376;  -70.416;  -86.064; -223.885
715.641;  -69.514; -365.064; -367.885
715.906;  252.088;   15.936; -551.885
716.171;  161.190;  221.937;  209.114
716.436;   53.892;  -78.063; -104.886
716.700; -223.806; -818.063; -692.886
716.965; -211.304; -794.063; -807.887
717.230; -111.602; -339.063; -392.887
717.494;  -19.200;  -40.062; -134.888
717.759; -174.498; -784.062; -640.888
718.024;   29.404;  269.938;  250.112
718.288;  150.406;  685.938;  395.111
718.553; -265.392; -803.062; -977.889
718.817; -274.290; -883.061; -899.889
719.082;  -49.088; -115.061; -125.890
719.346; -258.486;-1000.061; -947.890
719.611;  -96.584; -300.061; -255.891
719.875; -169.882; -568.060; -537.891
720.140; -118.180; -453.060; -603.891
720.404;   35.322; -136.060; -249.892
720.668;  874.824; -475.060; -411.892
720.933;  361.126;  146.940;  137.108
721.197; -193.772; -667.059; -600.893
721.461; -270.770; -851.059; -826.893
721.725;   16.432;  -21.059; -250.894
721.990;  -58.466; -284.059; -204.894
722.254;  -16.564;  -26.059; -108.894
722.518; -117.362; -286.058; -442.895
722.782; -166.260; -743.058; -594.895
723.046;  222.242;  614.942;  570.105
723.310;   83.044;  374.942;  210.104
723.574; -179.254; -654.058; -614.896
723.838; -151.952; -576.057; -642.897
724.102;  -48.250; -226.057; -239.897
724.366; -252.848;-1032.057; -978.897
724.630; -216.146; -749.057; -571.898
724.894; -148.644; -722.057; -514.898
725.158;    1.458;   38.944; -295.898
725.422;  -87.040; -394.056; -327.899
725.685; -126.838; -441.056; -349.899
725.949; -174.836; -566.056; -519.900
726.213; -193.134; -732.056; -811.900
726.477;   30.568;-1020.055; -933.900
726.740;  138.670; -274.055; -104.901
727.004;  386.372; -384.055; -510.901
727.268; 3468.774; -442.055; -400.901
727.531;  739.576; -961.055; -775.902
727.795; -111.322; -713.054; -673.902
728.059; -121.120; -552.054; -557.903
728.322; -153.018; -841.054; -669.903
728.586;  -15.116; -692.054; -701.903
728.849; -196.614; -695.053; -756.904
729.112; -217.912; -812.053; -912.904
729.376; -293.010; -959.053; -905.904
729.639; -132.308; -536.053; -536.905
729.903; -203.306; -733.053; -699.905
730.166;  -87.904; -437.052; -399.906
730.429;  -48.602; -317.052; -468.906
730.693; -104.100; -355.052; -894.906
730.956;  371.502;  810.948;  651.093
731.219;  687.804; -310.052; -103.907
731.482;   48.006;-1003.051; -894.907
731.745;  -18.392; -794.051; -935.908
732.009;   19.310;  -30.051;   50.092
732.272; -174.288; -904.051; -771.909
732.535;  -89.486; -300.051; -310.909
732.798; -290.784;-1083.050;-1166.909
733.061;  -91.982; -430.050; -456.910
733.324;   28.420;   31.950; -180.910
733.587;  125.922;  290.950;  365.090
733.850; -141.976; -973.049;-1050.911
734.113;   58.826;   33.951;   32.089
734.376;  -23.672; -328.049; -447.912
734.639;  410.130; 1188.951; 1011.088
734.901;   65.232; -180.049; -402.912
735.164;  495.934; -883.048; -837.913
735.427; 1308.636; -166.048; -355.913
735.690;  109.238; -205.048; -234.913
735.952; -140.360; -923.048; -925.914
736.215; -170.258;-1113.048;-1009.914
736.478;  -25.856; -771.047; -774.915
736.740;  263.246;   33.953;  129.085
737.003;  788.948; -658.047; -672.915
737.266; 4241.350;  -94.047;   46.084
737.528;  405.452; -682.047; -660.916
737.791;  282.954; -316.046; -327.916
738.053; 1073.656;  465.954;  649.083
738.316;12599.358; -162.046; -136.917
738.578; 7590.260; -770.046; -736.918
738.841;  404.762; -382.046; -446.918
739.103;  141.464; -875.045; -777.918
739.365;  540.366;   79.955;  -69.919
739.628;  -96.032; -884.045; -805.919
739.890; -122.330; -758.045; -710.919
740.152; -117.028; -692.044; -754.920
740.414;  -49.826; -408.044; -359.920
740.677; -112.424; -785.044; -634.921
740.939;  -83.522; -587.044; -487.921
741.201;  242.680; -432.044; -572.921
741.463;  -49.718; -689.043; -745.922
741.725;   14.284;  -21.043; -199.922
741.987;  103.186;  220.957;  116.078
742.249;  -76.512; -751.043; -859.923
742.511;  131.090; -703.043; -794.923
742.773;  -30.408; -546.042; -546.924
743.035;  223.094;  796.958;  533.076
743.297; -134.404; -963.042;-1013.924
743.559;  781.098; -278.042; -262.925
743.821;  -25.500; -735.042; -744.925
744.083;    7.002;  -44.041; -149.925
744.345; -204.296; -869.041; -892.926
744.607;   54.606;   75.959;  122.074
744.868; -108.292; -490.041; -554.927
745.130; -246.190; -994.041;-1008.927
745.392;   59.612;   -1.040;  -44.927
745.653;  -49.486; -411.040; -378.928
745.915;  280.216;  896.960;  631.072
746.177;  115.118;   35.960;  -43.928
746.438;  -76.080; -428.040; -543.929
746.700; -120.778; -947.039; -988.929
746.961;  -55.876; -659.039; -740.930
747.223;  169.226; -190.039;  -74.930
747.484;   31.228; -391.039; -471.930
747.746;  135.630;  -23.038; -106.931
748.007;   41.832; -647.038; -689.931
748.269;  334.334; -468.038; -440.931
748.530;  403.236; -852.038; -638.932
748.791;  252.738; -354.038; -420.932
749.053;  530.140;  286.963;  163.067
749.314;  537.642; -236.037; -169.933
749.575;  477.244; -945.037; -905.933
749.836;  962.746; -217.037;   86.066
750.098; 3221.848;  -60.037;  -21.934
750.359;40203.850;  414.964;  555.066
750.620; 8822.952; -121.036; -220.935
750.881; 1040.654; -585.036; -513.935
751.142; 1505.256; -950.036; -938.936
751.403;19232.758; -789.036; -705.936
751.664; 7181.860;-1034.035; -999.936
751.925;  573.662; -175.035; -262.937
752.186;  328.064; -298.035; -278.937
752.447;   80.166; -590.035; -445.937
752.708;    6.468; -532.035; -648.938
752.969;  -50.730; -566.034; -576.938
753.230;  -68.328; -777.034; -672.939
753.491;  -68.726; -650.034; -631.939
753.751;  109.476;  109.966;   19.061
754.012;  152.878;  258.967;  181.060
754.273;   82.880; -174.033;  -71.940
754.534;  -64.318; -487.033; -580.940
754.794; -214.116; -926.033; -911.941
755.055;  324.786; 1051.967;  881.059
755.316; -101.812; -700.032; -566.942
755.576;  -55.410; -606.032; -576.942
755.837; -112.508; -527.032; -695.942
756.097;  -98.006; -530.032; -564.943
756.358; -181.904; -725.032; -770.943
756.618; -138.802; -705.031; -641.943
756.879;    6.900; -254.031; -349.944
757.139; -268.198;-1098.031;-1116.944
757.400; -120.696; -538.031; -553.945
757.660;  -60.194; -365.031; -401.945
757.920;  -14.992; -266.030; -228.945
758.181;  -39.690; -468.030; -351.946
758.441; -171.688; -870.030; -809.946
758.701;  -47.786; -308.030; -215.946
758.961;  -25.184; -220.030; -278.947
759.222; -103.582; -574.029; -502.947
759.482; -137.880; -683.029; -723.948
759.742; -164.378; -706.029; -547.948
760.002;   51.724;  -83.029; -143.948
760.262;   56.026;   50.972;  182.051
760.522;  -90.072; -498.028; -574.949
760.782; -164.470; -738.028; -612.949
761.042;  -73.768; -618.028; -573.950
761.302;   78.934;   55.972;  -18.950
761.562;   84.236; -164.027; -154.951
761.822;   43.638; -710.027; -551.951
762.082; -146.560;-1104.027;-1093.951
762.342;   74.742; -328.027; -403.952
762.601;   72.844; -567.027; -506.952
762.861;  398.746; -281.026; -207.952
763.121;  556.248; -406.026; -411.953
763.381;10272.950; -499.026; -485.953
763.640; 9214.152; -139.026; -307.954
763.900;  432.654; -242.026; -203.954
764.160;   83.456; -458.025; -491.954
764.419;  -67.142; -726.025; -782.955
764.679; -137.540; -795.025; -726.955
764.939;  -13.638; -124.025; -210.955
765.198; -144.536; -608.025; -563.956
765.458; -157.134; -710.024; -612.956
765.717; -133.532; -454.024; -590.957
765.976; -100.230; -428.024; -411.957
766.236; -141.328; -475.024; -610.957
766.495;   43.274;  260.977;   73.042
766.755; -220.424;-1090.023; -987.958
767.014;  -60.722; -594.023; -665.958
767.273;  -83.920; -373.023; -397.959
767.533;  -70.518; -228.023; -307.959
767.792;   -5.316; -151.022; -188.960
768.051;  -86.414; -228.022; -276.960
768.310; -134.612; -546.022; -650.960
768.569;  -13.410; -161.022;    4.039
768.828;  -20.108; -285.022; -363.961
769.088; -262.206;-1050.021; -942.961
769.347; -149.604; -755.021; -599.962
769.606; -204.102; -876.021; -857.962
769.865; -249.500;-1016.021;-1033.963
770.124;   -7.598; -411.021; -336.963
770.383; -133.196; -778.020; -910.963
770.641;  -43.594; -398.020; -400.964
770.900; -134.392; -953.020; -846.964
771.159; -137.890; -851.020; -951.964
771.418;  -92.088; -917.020; -779.965
771.677;  148.414; -224.019; -293.965
771.936;   89.016; -794.019; -865.966
772.194; 3067.318; -465.019; -437.966
772.453;11847.820; -213.019; -391.966
772.712;  865.522;  416.982;  329.033
772.970;  147.024;   32.982;   63.033
773.229;  131.826;  -22.018;  102.033
773.488; -178.572; -814.018; -770.968
773.746;  130.830;  296.982;  335.032
774.005;   55.132;  190.983;  -22.969
774.263;   64.834;  243.983;  177.031
774.522; -162.264; -422.017; -548.969
774.780; -127.862; -484.017; -417.970
775.039; -139.560; -551.017; -531.970
775.297;   -2.058; -135.016; -351.970
775.555; -168.056; -489.016; -612.971
775.814; -212.854; -618.016; -570.971
776.072; -207.252; -749.016; -740.971
776.330; -157.150; -630.016; -520.972
776.589; -209.748; -703.015; -721.972
776.847; -248.946; -645.015; -624.973
777.105; -308.844;-1016.015;-1032.973
777.363; -126.842; -459.015; -454.973
777.621; -232.840; -660.015; -717.974
777.879;  -18.438;  -42.014;   32.026
778.138; -137.336; -554.014; -717.974
778.396; -183.334; -585.014; -526.975
778.654; -311.832;-1015.014; -970.975
778.912;  -82.430; -269.014; -371.976
779.170; -250.028; -880.013; -803.976
779.427; -276.826; -922.013; -897.976
779.685; -232.224; -880.013; -832.977
779.943; -176.822; -654.013; -593.977
780.201; -247.820; -964.012; -883.978
780.459; -194.418; -651.012; -610.978
780.717;  -81.316; -440.012; -390.978
780.974; -180.414; -449.012; -490.979
781.232; -107.912; -358.012; -338.979
781.490; -169.110; -551.011; -472.979
781.747; -149.108; -555.011; -476.980
782.005;   87.294;  462.989;  254.020
782.263; -298.604; -542.011;-1004.981
782.520; -157.702; -326.011; -501.981
782.778; -299.200;-1013.010;-1051.981
783.035; -316.098; -962.010; -938.982
783.293;  -70.996; -248.010; -206.982
783.550;  -63.194; -134.010; -198.982
783.808; -237.792; -764.010; -776.983
784.065; -289.690; -745.009; -874.983
784.322;  -31.688;   25.991;  -86.984
784.580; -247.886; -915.009; -771.984
784.837; -142.984; -392.009; -466.984
785.094; -225.982; -783.009; -762.985
785.352;  -97.680; -304.008; -404.985
785.609; -248.778; -934.008; -839.985
785.866; -131.876; -345.008; -401.986
786.123; -133.774; -639.008; -583.986
786.380; -167.772; -665.008; -604.987
786.637;  -53.170; -225.007; -380.987
786.895;  -61.168; -456.007; -543.987
787.152;  -54.166; -135.007; -267.988
787.409;  -40.764; -123.007; -225.988
787.666; -140.362; -299.006; -378.988
787.923; -162.760; -616.006; -695.989
788.179; -167.958; -551.006; -584.989
788.436; -185.756; -585.006; -585.990
788.693;  -35.054;  -92.006;  -87.990
788.950;  224.848; -125.005; -112.990
789.207;  119.050; -381.005; -372.991
789.464;  -61.548; -161.005; -301.991
789.720;    5.954;  150.995;  110.009
789.977; -278.344;-1003.005; -671.992
790.234;  -18.242;   44.996;  -66.992
790.490; -263.140; -884.004;-1031.993
790.747;   14.562;  -85.004;   22.007
791.004;  -31.436; -426.004; -348.993
791.260; -110.934; -430.004; -560.994
791.517; -166.932; -843.003; -788.994
791.773;  -76.830; -379.003; -342.994
792.030; -194.228; -596.003; -660.995
792.286; -200.826; -686.003; -636.995
792.543;  -13.224;  -74.002; -159.995
792.799;  -92.322; -584.002; -382.996
793.055; -308.220;-1179.002;-1210.996
793.312; -187.118; -827.002; -816.997
793.568; -102.416; -746.002; -599.997
793.824;   -1.714; -226.001; -284.997
794.081;   -2.212; -447.001; -508.998
794.337;   62.790; -664.001; -561.998
794.593; 2100.792; -319.001; -271.999
794.849; 7641.094; -746.001; -772.999
795.105;  369.296; -270.000; -261.999
795.361;  -22.202; -490.000; -457.000
795.617; -158.600; -875.000; -945.000
795.873;  -67.800; -360.000; -407.000
796.129;  -57.300; -368.000; -306.000
796.385;  -27.400; -124.000; -156.000
796.641;  171.600;  412.000;  550.000
796.897; -173.500; -666.000; -635.000
797.153;  176.500;  453.000;  357.000
797.409; -204.500; -785.000; -868.000
797.665; -155.300; -625.000; -732.000
797.921; -150.200; -775.000; -762.000
798.176; -122.000; -744.000; -747.000
798.432; -161.400; -824.000; -596.000
798.688; -192.400;-1174.000;-1078.000
798.943;   97.400; -165.000; -147.000
799.199; -102.500;-1005.000; -959.000
799.455;  340.800;  369.000;  316.000
799.710;   87.500; -813.000; -380.000
799.966;  332.300; -162.000; -160.000
800.221;  495.300; -638.000; -721.000
800.477;12854.800; -743.000; -710.000
800.732; 8666.500; -773.000; -800.000
800.988;  768.300;  205.000;  -19.000
801.243; 2792.700; -454.000; -344.000
801.498; 9067.400; -814.000; -739.000
801.754;  499.900; -289.000; -163.000
802.009;   99.100; -257.000; -335.000
802.264; -151.200; -967.000;-1033.000
802.520;   43.300;  222.000;   -3.000
802.775;  -68.300; -524.000; -359.000
803.030;  161.200;  395.000;  356.000
803.285; -216.600; -840.000; -903.000
803.540; -101.400; -686.000; -699.000
803.795;  -95.900; -648.000; -583.000
804.051;  -55.400; -279.000; -346.000
804.306;   64.200;  168.000;  128.000
804.561;  225.300;  451.000;  362.000
804.816;  278.100;  714.000;  861.000
805.071;   16.100; -185.000; -280.000
805.325;  199.100; -257.000; -427.000
805.580; -197.700; -841.000; -877.000
805.835;  -16.100; -204.000; -297.000
806.090; -153.200; -760.000; -676.000
806.345;  -45.600; -344.000; -264.000
806.600;  -77.500; -549.000; -632.000
806.854;  -56.700; -408.000; -538.000
807.109;  -32.600; -493.000; -577.000
807.364;   12.200; -407.000; -328.000
807.618;  -53.100; -415.000; -381.000
807.873;   13.000; -470.000; -494.000
808.128;  121.900; -257.000; -518.000
808.382;  106.600; -224.000; -332.000
808.637;   10.700; -440.000; -511.000
808.891;  241.500; -257.000; -180.000
809.146;   17.800; -902.000; -794.000
809.400;  224.900; -848.000; -923.000
809.654;  334.500; -779.000; -551.000
809.909;  523.200; -841.000; -927.000
810.163; 9179.500; -813.000; -651.000
810.418;18087.700; -940.000; -861.000
810.672; 1118.400; -685.000; -690.000
810.926;  772.000; -993.000; -973.000
811.180; 1869.300; -439.000; -372.000
811.434;41509.800;  240.000;  135.000
811.689;12581.400; -231.000; -365.000
811.943;  583.500; -936.000; -953.000
812.197;  313.700; -893.000; -671.000
812.451;  107.700; -379.000; -514.000
812.705;  -89.900; -809.000; -619.000
812.959;  -83.100; -263.000; -388.000
813.213;  -19.100; -283.000; -209.000
813.467;  146.200;  470.000;  253.000
813.721; -166.600; -764.000; -792.000
813.975; -207.900; -826.000; -877.000
814.229;  112.600;  430.000;  353.000
814.482; -125.600; -517.000; -566.000
814.736; -209.300; -766.000; -744.000
814.990; -245.000; -779.000; -872.000
815.244;  -56.900; -228.000; -285.000
815.497; -134.800; -636.000; -601.000
815.751;   19.700; -141.000;   82.000
816.005; -139.400; -470.000; -586.000
816.258; -117.700; -510.000; -363.000
816.512; -166.900; -693.000; -610.000
816.766;   12.300;  121.000;  157.000
817.019;  103.600;  148.000;  149.000
817.273; -237.700;-1000.000; -802.000
817.526;  -32.200; -206.000; -173.000
817.779; -169.600;-1049.000; -960.000
818.033; -183.700; -693.000; -807.000
818.286; -229.700; -725.000; -792.000
818.540; -149.400; -403.000; -403.000
818.793; -108.100; -402.000; -489.000
819.046; -170.700; -582.000; -520.000
819.299;  -32.800; -157.000; -166.000
819.553; -161.800; -552.000; -592.000
819.806; -281.900;-1016.000; -838.000
820.059;  -80.200; -334.000; -354.000
820.312;   70.700;  152.000;  185.000
820.565;   29.000;  110.000;  -27.000
820.818;  -89.800;  -59.000; -173.000
821.071; -287.300;-1041.000; -957.000
821.324; -177.600; -536.000; -540.000
821.577; -166.300; -457.000; -483.000
821.830; -105.200; -270.000; -172.000
822.083; -227.400; -733.000; -288.000
822.336;  -58.800; -261.000; -167.000
822.589; -217.100; -805.000; -688.000
822.842; -283.500; -875.000; -770.000
823.094; -317.500;-1076.000;-1114.000
823.347; -240.900; -925.000; -729.000
823.600;   68.200;  402.000;  187.000
823.853;  -65.200; -311.000; -267.000
824.105; -128.200; -331.000; -575.000
824.358; -203.700; -617.000; -716.000
824.611;   61.200;  234.000;   40.000
824.863; -167.500; -612.000; -591.000
825.116;   75.500;  -33.000;   27.000
825.368;   58.700; -366.000; -372.000
825.621;  175.000; -186.000; -240.000
825.873;   27.800; -704.000; -737.000
826.126;  741.300; -669.000; -641.000
826.378;13532.700; -389.000; -505.000
826.630; 2220.200; -890.000; -898.000
826.883;  -33.100; -754.000; -693.000
827.135;   60.700; -279.000; -270.000
827.387; -223.800; -893.000; -839.000
827.639;   -7.000;  -86.000;   32.000
827.892; -244.200; -742.000; -582.000
828.144; -265.900; -848.000; -804.000
828.396;  -21.600;  104.000;  -80.000
828.648; -163.900; -440.000; -333.000
828.900; -249.100; -702.000; -795.000
829.152; -213.300; -684.000; -683.000
829.404;  -95.400; -215.000; -267.000
829.656;   68.300;  321.000;  214.000
829.908;   -9.800;  393.000;  229.000
830.160; -301.600;-1064.000;-1047.000
830.412; -140.800; -481.000; -430.000
830.664; -183.000; -557.000; -665.000
830.916; -100.400; -268.000; -206.000
831.167; -298.700;-1073.000; -951.000
831.419; -199.400; -623.000; -566.000
831.671; -238.400; -764.000; -809.000
831.923; -144.000; -311.000; -447.000
832.174;  -90.000; -273.000; -331.000
832.426; -212.500; -493.000; -582.000
832.678; -360.200;-1043.000;-1091.000
832.929; -279.500; -947.000; -935.000
833.181; -130.100; -575.000; -677.000
833.432;  -68.200;  -59.000; -186.000
833.684;   25.100;  112.000;  -27.000
833.935; -189.300; -610.000; -566.000
834.187; -203.500; -829.000; -823.000
834.438;  -41.900;  -58.000;  -25.000
834.689;  -50.300; -255.000; -123.000
834.941;  -33.800; -343.000; -244.000
835.192; -176.600; -590.000; -533.000
835.443; -199.000; -419.000; -506.000
835.695;    2.400;  138.000;  -16.000
835.946; -139.400; -608.000; -378.000
836.197; -190.200; -599.000; -622.000
836.448; -159.900; -528.000; -395.000
836.699;  -54.700; -253.000; -341.000
836.950;   18.700;   72.000;    7.000
837.201; -286.600;-1003.000; -987.000
837.452;  -91.400; -356.000; -170.000
837.703; -201.800; -791.000; -737.000
837.954;  -52.000; -205.000; -365.000
838.205; -212.400;-1029.000;-1008.000
838.456;  156.800; -196.000; -282.000
838.707;  -32.600; -423.000; -519.000
838.958;  -86.500; -634.000; -647.000
839.209;  370.200;   18.000;   40.000
839.460;   93.500; -439.000; -201.000
839.710;  208.100; -135.000; -297.000
839.961;  577.100;  730.000;  612.000
840.212;  368.400; -382.000; -497.000
840.462; 1480.800; -328.000; -277.000
840.713;21862.500; -571.000; -536.000
840.964; 6309.800;  -62.000; -143.000
841.214;  498.600; -384.000; -624.000
841.465;  641.900; -214.000; -141.000
841.715;  550.800; -417.000; -380.000
841.966;  710.600; -746.000; -685.000
842.216;13112.300; -330.000; -431.000
842.466;36873.400; -169.000; -313.000
842.717; 1405.300; -964.000; -952.000
842.967;  308.600; -635.000; -641.000
843.217;  317.100;   20.000;   28.000
843.468;   81.100; -104.000; -132.000
843.718; -100.000; -718.000; -726.000
843.968; -191.100; -837.000; -765.000
844.218;    6.200; -315.000; -262.000
844.469; -120.600; -577.000; -561.000
844.719; -195.000; -537.000; -682.000
844.969; -171.200; -550.000; -580.000
845.219; -259.200; -814.000; -862.000
845.469;  -96.200; -392.000; -342.000
845.719; -228.100; -792.000; -884.000
845.969;   18.400;  119.000;  174.000
846.219; -233.200; -738.000; -720.000
846.469;   67.500;  464.000;  432.000
846.718;  -56.600; -115.000;   31.000
846.968; -232.700; -827.000; -827.000
847.218;  -33.400; -224.000; -371.000
847.468; -204.100; -586.000; -555.000
847.718; -253.200; -827.000; -798.000
847.967; -233.100; -826.000; -915.000
848.217; -127.500; -449.000; -569.000
848.467; -116.200; -405.000; -376.000
848.716; -199.100; -708.000; -725.000
848.966;  -31.100; -372.000; -358.000
849.215; -105.200; -428.000; -419.000
849.465; -179.100; -785.000; -615.000
849.714; -299.900;-1132.000;-1150.000
849.964; -124.100; -551.000; -613.000
850.213;  -79.700; -393.000; -355.000
850.463;  127.900;  137.000;  340.000
850.712;  -15.000; -542.000; -567.000
850.961;  -97.300; -739.000; -678.000
851.211;   82.500; -513.000; -504.000
851.460;  105.700; -635.000; -650.000
851.709;  681.800;  -25.000;   18.000
851.958;13076.500; -912.000; -750.000
852.208;12017.400; -859.000; -879.000
852.457;  458.400; -181.000;  -13.000
852.706;   -7.500; -791.000; -823.000
852.955;   -5.800; -507.000; -528.000
853.204; -142.100; -521.000; -461.000
853.453; -174.400; -418.000; -458.000
853.702; -221.000; -660.000; -750.000
853.951; -194.100; -532.000; -520.000
854.200; -201.200; -613.000; -562.000
854.449; -229.700; -695.000; -661.000
854.698; -115.600; -340.000; -279.000
854.946;  -93.700; -181.000; -284.000
855.195; -247.200; -843.000; -868.000
855.444; -127.600; -395.000; -420.000
855.693; -175.000; -345.000; -432.000
855.941; -185.300; -387.000; -516.000
856.190;  -68.300; -256.000; -382.000
856.439; -217.300; -652.000; -703.000
856.687;  -61.600;  -99.000;  -72.000
856.936; -192.000; -621.000; -323.000
857.184; -309.500;-1067.000;-1020.000
857.433; -153.300; -423.000; -512.000
857.681; -283.500; -989.000; -953.000
857.930; -130.100; -282.000; -433.000
858.178; -305.600; -856.000; -929.000
858.427; -233.100; -802.000; -781.000
858.675; -182.700; -377.000; -544.000
858.923; -167.000; -527.000; -819.000
859.172; -319.200;-1094.000;-1070.000
859.420; -113.900; -339.000; -239.000
859.668; -204.200; -624.000; -628.000
859.916;   -4.400;  109.000;  115.000
860.164; -190.100; -699.000; -603.000
860.413;  246.200; -878.000; -696.000
860.661;   73.100; -709.000; -577.000
860.909; -123.900; -339.000; -325.000
861.157; -130.900; -277.000; -444.000
861.405; -192.600; -534.000; -670.000
861.653;   63.300;  310.000;  310.000
861.901;  132.600; -543.000; -613.000
862.149; -122.300; -801.000; -824.000
862.396;  -88.800; -297.000; -187.000
862.644; -119.200; -368.000; -347.000
862.892;   -0.400;   98.000;  138.000
863.140; -163.700; -549.000; -530.000
863.388; -273.300; -815.000; -759.000
863.635; -192.700; -642.000; -601.000
863.883;   -0.300;  231.000;  190.000
864.131; -146.000; -288.000; -357.000
864.378; -244.700; -675.000; -540.000
864.626; -174.500; -347.000; -415.000
864.873; -204.100; -556.000; -505.000
865.121; -231.800; -714.000; -799.000
865.368;  -59.900; -173.000;   75.000
865.616;  -28.600;  -33.000;  -40.000
865.863; -132.900; -462.000; -506.000
866.111; -192.500; -795.000; -824.000
866.358;   33.300; -426.000; -420.000
866.605; 3059.300;  -64.000; -804.000
866.853; 2144.800; -621.000; -537.000
867.100; -147.800; -728.000; -775.000
867.347; -202.000; -672.000; -611.000
867.594; -182.300; -740.000; -714.000
867.841;   97.600;   97.000;   17.000
868.089; -241.400; -746.000; -698.000
868.336; -166.000; -477.000; -420.000
868.583; -236.300; -637.000; -741.000
868.830;  -67.400; -131.000; -170.000
869.077; -245.900; -859.000; -787.000
869.324; -184.700; -502.000; -458.000
869.571; -214.100; -398.000; -430.000
869.818; -218.500; -485.000; -439.000
870.065; -145.000; -439.000; -513.000
870.311; -165.400; -456.000; -542.000
870.558; -147.100; -332.000; -311.000
870.805; -139.700; -320.000; -384.000
871.052; -145.900; -494.000; -369.000
871.298;  -73.800; -204.000; -131.000
871.545;  -66.600; -151.000; -185.000
871.792;  -89.200; -173.000; -222.000
872.038;  -65.000;   43.000; -126.000
872.285; -184.800; -496.000; -387.000
872.532; -136.500; -357.000; -387.000
872.778;  119.200;  556.000;  403.000
873.025;  -98.500; -384.000; -359.000
873.271;  109.300;  501.000;  578.000
873.517;  -24.600; -133.000; -209.000
873.764;  -65.800; -193.000;  -80.000
874.010; -106.900; -143.000; -230.000
874.257;  -16.500;  123.000;   90.000
874.503; -197.700; -579.000; -479.000
874.749;  -90.700;   31.000;  275.000
874.995;  -57.700;  -80.000;  -20.000
875.242; -222.300; -540.000; -478.000
875.488; -140.700; -414.000; -439.000
875.734;  -79.200; -106.000; -234.000
875.980;  134.600; -872.000;-1032.000
876.226;  292.200; -157.000; -255.000
876.472;   22.500;  343.000;  237.000
876.718;  -28.200;  184.000;  158.000
876.964;   -6.700;   56.000;   55.000
877.210; -247.600; -547.000; -677.000
877.456; -201.200; -630.000; -557.000
877.702; -292.300; -821.000; -832.000
877.948; -146.100; -377.000; -497.000
878.193;   29.100;  361.000;  255.000
878.439; -165.500; -487.000; -472.000
878.685; -134.300; -272.000; -343.000
878.931; -225.000; -618.000; -676.000
879.176;  -96.400; -201.000; -201.000
879.422; -286.400; -933.000; -820.000
879.668;   85.200;   10.000;   79.000
879.913;  153.500;   53.000;  137.000
880.159;  -44.500; -112.000;  -17.000
880.404;  -52.400; -152.000; -162.000
880.650;  -22.500;   91.000;  141.000
880.895; -240.800; -670.000; -710.000
881.141; -192.400; -454.000; -428.000
881.386; -220.500; -503.000; -658.000
881.631; -156.200; -311.000; -166.000
881.877;   -7.700;  112.000;  -13.000
882.122; -228.700; -684.000; -600.000
882.367; -111.900; -136.000; -186.000
882.612;  -96.800;  -80.000; -176.000
882.858; -316.400; -877.000; -823.000
883.103; -128.100; -297.000; -267.000
883.348; -240.700; -759.000; -852.000
883.593; -228.200; -677.000; -602.000
883.838;  -30.200; -311.000;  -24.000
884.083;   58.500;  353.000;  288.000
884.328; -117.100; -564.000; -545.000
884.573;  -69.200; -196.000; -143.000
884.818;  187.900; -694.000; -531.000
885.063;   98.500; -348.000; -315.000
885.308; -171.700; -475.000; -398.000
885.553;   32.000;  245.000;  325.000
885.797; -198.000; -545.000; -615.000
886.042;  -59.100;    8.000;   58.000
886.287; -102.900; -253.000; -211.000
886.532;  -27.900;   26.000;  204.000
886.776; -104.400; -407.000; -525.000
887.021; -243.100; -621.000; -574.000
887.265; -218.900; -685.000; -689.000
887.510; -212.100; -557.000; -496.000
887.755; -104.100; -194.000; -164.000
887.999; -224.400; -552.000; -575.000
888.244;  -27.500;  -58.000;  161.000
888.488;   65.300;  371.000;  393.000
888.732; -199.500; -368.000; -520.000
888.977; -202.900; -622.000; -567.000
889.221; -255.500; -683.000; -659.000
889.465; -219.100; -422.000; -566.000
889.710;  -79.300;  -56.000; -299.000
889.954;   62.500;  579.000;  467.000
890.198; -226.200; -584.000; -707.000
890.442; -249.100; -716.000; -712.000
890.687; -277.700; -800.000; -753.000
890.931; -119.600; -273.000; -210.000
891.175; -191.100; -502.000; -500.000
891.419;  -63.100; -105.000; -110.000
891.663;  -80.500; -239.000; -112.000
891.907; -315.400; -801.000; -545.000
892.151; -248.100; -920.000; -815.000
892.395; -162.100; -274.000; -387.000
892.638;   22.400;  408.000;  291.000
892.882; -306.600; -780.000; -867.000
893.126;   97.000;  758.000;  558.000
893.370; -146.600; -167.000; -168.000
893.614; -233.200; -714.000; -715.000
893.857; -166.900; -183.000; -197.000
894.101; -224.900; -527.000; -631.000
894.345;  -27.500;  300.000;  150.000
894.588;   98.400;  569.000;  380.000
894.832; -119.700; -178.000;  -84.000
895.075;  -64.400;   15.000;  -92.000
895.319; -216.100; -552.000; -420.000
895.563; -165.100; -413.000; -353.000
895.806; -214.700; -628.000; -741.000
896.049; -106.800; -576.000; -368.000
896.293;  135.300;  527.000;  405.000
896.536; -129.800; -465.000; -468.000
896.779;  -76.900; -149.000;   -1.000
897.023; -248.500; -751.000; -714.000
897.266;   -3.600;  325.000;  269.000
897.509; -303.000; -900.000; -901.000
897.752;  -34.700;  149.000;  171.000
897.996; -320.400; -972.000; -864.000
898.239;  -42.400;  168.000;  102.000
898.482; -189.100; -431.000; -453.000
898.725;  -35.700;  101.000;   53.000
898.968; -267.200; -609.000; -744.000
899.211; -165.400; -513.000; -361.000
899.454; -230.900; -633.000; -539.000
899.697;  -72.600;   90.000;  -43.000
899.940; -270.300; -761.000; -757.000
900.182; -145.300; -335.000; -405.000
900.425; -136.100; -150.000; -298.000
900.668;   21.800;  491.000;  350.000
900.911; -133.000; -292.000; -345.000
901.154;  -55.800;  141.000;   -3.000
901.396; -181.300; -407.000; -412.000
901.639; -244.300; -430.000; -496.000
901.882; -289.500; -790.000; -809.000
902.124;  -88.200;  -29.000; -143.000
902.367; -161.400; -315.000; -361.000
902.609; -226.300; -476.000; -453.000
902.852; -114.100; -108.000; -260.000
903.094; -217.300; -458.000; -337.000
903.337;  -34.000;  -26.000;   53.000
903.579; -184.500; -228.000; -441.000
903.821; -236.800; -597.000; -744.000
904.064;  -32.400;   85.000;  127.000
904.306;  -96.600; -126.000; -166.000
904.548; -155.200; -152.000; -366.000
904.790; -138.000; -195.000; -340.000
905.033; -201.500; -625.000; -577.000
905.275; -208.900; -513.000; -524.000
905.517;  113.500;  468.000;  256.000
905.759; -169.500; -667.000; -761.000
906.001; -201.000; -322.000; -369.000
906.243;  -82.300; -162.000; -224.000
906.485;  150.000; -265.000; -207.000
906.727;    6.100; -499.000; -542.000
906.969;  -57.400;  -30.000; -135.000
907.211;   98.500; -316.000; -382.000
907.453;  245.000; -188.000; -237.000
907.695;  -32.300; -158.000; -385.000
907.936;  159.300;  818.000;  706.000
908.178;  -56.500;   92.000; -135.000
908.420; -103.000; -111.000; -162.000
908.662; -245.100; -633.000; -682.000
908.903; -148.900; -208.000; -123.000
909.145;  -75.300; -240.000; -305.000
909.386;   54.100;  315.000;  280.000
909.628;   94.500;  363.000;  397.000
909.870;   27.900;   29.000;  264.000
910.111; -183.200; -809.000; -949.000
910.353;   17.200; -123.000; -161.000
910.594;  -36.900; -574.000; -606.000
910.835;   65.400; -265.000; -326.000
911.077;  132.600; -503.000; -604.000
911.318;  341.200; -505.000; -471.000
911.559;  550.800; -577.000; -880.000
911.801; 1988.400; -284.000; -280.000
912.042;17273.500;  -50.000; -159.000
912.283;34986.000;  404.000;  371.000
912.524; 4062.700; -396.000; -457.000
912.765;  605.400; -193.000;   79.000
913.006;  284.100; -307.000; -338.000
913.247;    0.500; -270.000; -290.000
913.488;    1.900;  -43.000;   30.000
913.729; -134.800; -373.000; -373.000
913.970;  -87.000;  -96.000; -292.000
914.211; -109.500; -160.000; -198.000
914.452;  -50.300; -118.000;  -11.000
914.693;   73.900;  510.000;  592.000
914.934;  117.600;  510.000;  440.000
915.175;  -52.100;   53.000;  -95.000
915.415;  -88.500; -137.000;   27.000
915.656;  -66.400;  -28.000;  192.000
915.897; -123.400; -252.000;  -82.000
916.137;  -85.300;   74.000;   -9.000
916.378; -197.400; -573.000; -517.000
916.619; -135.600; -159.000;  -63.000
916.859;   19.800;  303.000;  330.000
917.100;  356.300; 1655.000; 1070.000
917.340;  178.500;  930.000;  728.000
917.581;  169.500;  965.000;  789.000
917.821;  -63.100; -171.000;  143.000
918.061;  -27.200; -199.000;  -72.000
918.302;  -86.900; -152.000; -211.000
918.542;  -43.700;  -22.000;    3.000
918.782;   85.300;  369.000;  377.000
919.023;  229.400;  360.000;  427.000
919.263; 2290.700; 8131.000;  202.000
919.503; 1169.900; -137.000;  -54.000
919.743;  777.900;  390.000;  266.000
919.983;  195.000; -134.000;  -26.000
920.223;   99.700;  135.000;   14.000
920.463;  209.500;  631.000;  554.000
920.703;  149.200;   84.000;   39.000
920.943;  160.300; -110.000;   90.000
921.183;  215.300; -414.000; -405.000
921.423;  637.700;  307.000;  546.000
921.663;  775.000; -174.000; -257.000
921.903; 1948.500;  237.000;  173.000
922.143;11658.300;  372.000;  389.000
922.383;40522.000;  158.000;  115.000
922.622;10246.300; -120.000;  -15.000
922.862; 1289.600;  796.000;  785.000
923.102;  445.000;  -51.000;   33.000
923.341;  203.600;   59.000;   74.000
923.581;  144.400;  450.000;  360.000
923.821;   55.900;  301.000;  398.000
924.060;   65.100;  351.000;  193.000
924.300;  -81.600;  -16.000; -128.000
924.539;   32.400;  584.000;  473.000
924.779;  100.100;  812.000;  597.000
925.018;  -26.500;  247.000;  353.000
925.257;   79.800;  595.000;  666.000
925.497;   33.200;  447.000;  412.000
925.736;  -93.500;  -35.000;  102.000
925.975;  116.800;  687.000;  669.000
926.214;  117.100;  907.000;  850.000
926.454;  112.800;  706.000;  757.000
926.693;   -6.600;  419.000;  543.000
926.932;  165.900; 1021.000;  825.000
927.171;  227.100; 1107.000; 1044.000
927.410;  192.400; 1144.000;  967.000
927.649;  125.300;  924.000;  742.000
927.888;   44.800;  590.000;  564.000
928.127;   39.000;  680.000;  678.000
928.366;  127.400;  842.000;  826.000
928.605;  161.600;  831.000;  737.000
928.844;  439.600; 1451.000; 1393.000
929.083;  776.000;  770.000;  613.000
929.321;  455.500; 1335.000; 1359.000
929.560;  251.700; 1158.000; 1122.000
929.799;  -31.300;  574.000;  475.000
930.038;  218.700; 1025.000; 1394.000
930.276;  -26.500;  334.000;  397.000
930.515;   87.900;  827.000;  681.000
930.753;   26.300;  614.000;  589.000
930.992;   20.900;  664.000;  717.000
931.230;   72.000;  847.000;  847.000
931.469;  404.600; 2162.000;  892.000
931.707;  230.100;  840.000;  751.000
931.946;  179.700; 1278.000; 1344.000
932.184;  144.800; 1437.000; 1175.000
932.423;  159.600; 1265.000;  963.000
932.661;  269.000; 1296.000; 1428.000
932.899;  116.300;  987.000;  821.000
933.137;   86.900;  754.000;  564.000
933.376;  317.500; 1664.000; 1335.000
933.614;  360.500; 1759.000; 1196.000
933.852;  180.100; 1357.000; 1171.000
934.090;  355.200; 1722.000; 1747.000
934.328;  245.700; 1252.000; 1457.000
934.566;  213.500; 1431.000; 1110.000
934.804;  263.000; 1263.000; 1309.000
935.042;  731.500; 1861.000; 1850.000
935.280; 2555.300; 2088.000; 2063.000
935.518; 1995.000; 2113.000; 2007.000
935.756;  576.700; 2481.000; 2316.000
935.994;  340.000; 1808.000; 1751.000
936.231;  680.500; 2890.000; 2950.000
936.469;  452.900; 2367.000; 2378.000
936.707;  402.400; 2220.000; 2167.000
936.945;  535.800; 2825.000; 2882.000
937.182;  473.200; 2679.000; 2741.000
937.420;  665.000; 3602.000; 3031.000
937.657;  885.000; 3365.000; 3478.000
937.895;  723.700; 3331.000; 3488.000
938.133;  703.600; 3540.000; 3528.000
938.370;  770.900; 3896.000; 4191.000
938.607;  857.200; 4488.000; 4205.000
938.845; 1205.400; 5587.000; 5549.000
939.082; 1049.700; 5387.000; 5177.000
939.320; 1188.100; 5799.000; 5728.000
939.557; 1396.700; 6549.000; 6491.000
939.794; 1574.800; 7285.000; 7097.000
940.031; 1824.700; 8421.000; 8368.000
940.269; 2145.000; 9552.000; 9107.000
940.506; 2282.500;10901.000;10507.000

