
Integration time [ms]: 100.000
Averaging Nr. [scans]: 40
Smoothing Nr. [pixels]: 0
Data measured with spectrometer [name]: 2101013U2
Wave   ;Sample   ;Dark     ;Reference
[nm]   ;[counts] ;[counts] ;[counts] 

394.013;   65.177; -450.257; -315.536
394.305;  201.424; -461.258; -419.536
394.596; 1466.576; -676.269; -527.514
394.887; 3802.246; -796.268; -654.518
395.178; 1386.632;  145.736;   11.476
395.470;   83.271; -210.263; -356.526
395.761;  179.164;  305.734;  394.479
396.052;  202.926; -545.284; -306.489
396.343;  205.535; -557.276; -454.503
396.634;   63.522; -200.279; -290.497
396.926;   51.218; -618.268; -565.517
397.217;   79.615;   11.725;  -17.504
397.508;   49.184; -366.273; -154.507
397.799;   42.347; -555.279; -571.497
398.090;   21.390; -973.280; -902.495
398.381;   69.386;   11.708;  -11.473
398.672;    1.688; -585.292; -742.473
398.963;   54.529; -348.279; -373.498
399.254;  104.098;   54.709; -209.475
399.545;   -0.215;-1017.266; -883.520
399.836;   73.471; -407.277; -343.501
400.127;   57.708; -205.295; -209.468
400.418;   39.477; -423.274; -392.506
400.709;   52.075; -359.281; -333.493
401.000;   50.703; -268.291; -309.476
401.290;  119.907;  225.698;  115.545
401.581;   79.005; -166.286; -228.485
401.872;   42.949; -542.298; -486.462
402.163;   73.974; -313.296; -252.467
402.454;   95.599; -123.291; -163.475
402.744;   59.513; -844.297; -813.465
403.035;  333.976; -226.293;  -86.471
403.326;  438.441; -366.292; -384.474
403.617;  366.243;  204.701;  165.539
403.907;  349.558; -593.283; -679.490
404.198; 3254.527; -545.307; -599.446
404.489; 8343.239; -618.283; -588.491
404.779; 2405.236; -618.302; -660.456
405.070;  287.560;  -67.304; -174.451
405.360;  486.303; -259.293; -238.472
405.651;  456.274;  125.699;   98.542
405.942;  192.875;  209.714;  127.516
406.232;  148.567; -432.285; -413.487
406.523;  329.370;  641.706;  758.530
406.813;   75.552; -579.286; -644.484
407.104;  267.085;  261.708;  144.527
407.394;  115.794; -604.299; -591.462
407.685;  161.941;  336.715;  222.513
407.975;   74.137; -400.283; -382.490
408.265;  117.291; -134.289; -190.478
408.556;   67.571; -472.291; -459.475
408.846;  187.671;  474.706;  429.530
409.137;   99.702;   -1.288; -216.480
409.427;   75.492; -193.285; -271.487
409.717;   60.313; -776.273; -692.508
410.007;  141.659;    4.715; -170.486
410.298;  119.261; -360.295; -342.469
410.588;   94.464; -495.285; -510.486
410.878;   53.740; -792.287; -873.482
411.168;  130.202; -481.298; -478.463
411.459;  152.206; -295.283; -242.489
411.749;   87.169; -609.292; -507.474
412.039;   93.225; -755.289; -386.480
412.329;  231.613;   40.722;  132.501
412.619;  240.603;  -62.286; -148.485
412.909;  403.545;  639.711;  594.521
413.199;  367.616; -130.280; -251.495
413.490;  434.408;  521.710;  352.523
413.780;  218.820;-1013.279; -913.496
414.070;  402.086;  -46.276;  235.497
414.360;  428.008; -729.278; -666.498
414.650;  537.335; -726.288; -688.482
414.940;  724.595; -538.280; -441.496
415.230; 1202.131;   50.712;   74.519
415.520; 8234.900;  155.730;   66.486
415.809;33237.099; -305.281; -125.493
416.099;25078.549; -388.277; -229.501
416.389; 7012.800;  435.726;  236.494
416.679; 4040.850;   91.738;   85.473
416.969;  708.670; -527.287; -503.483
417.259;  595.698;  341.721;  171.503
417.549;  814.973;  522.718;  318.508
417.838; 2209.045; -205.268; -147.518
418.128; 7596.990;  650.710;  492.522
418.418; 6218.295; -491.272; -579.509
418.708; 4094.475;    9.726;  -48.506
418.997;15966.070; -474.275; -480.505
419.287;16382.558; -733.273; -790.507
419.577;15532.630; -160.283; -123.489
419.866;50800.947; -588.277; -498.501
420.156;50668.920; -242.270;  -55.513
420.446; 8578.716; -112.263;  -26.526
420.735;  920.413; -376.271; -446.512
421.025;  917.232; 1830.722;  315.502
421.314;  648.986; -203.271; -226.512
421.604; 1098.261;   89.732;  233.484
421.893;  640.306; -705.271; -602.511
422.183;  266.966; -487.263; -461.526
422.472;  405.533;  -36.271; -107.511
422.762;  449.817; -416.266; -379.521
423.051;  276.536; -916.276; -916.503
423.341;  338.010; -491.273; -439.507
423.630;  445.249; -121.265;   15.477
423.919;  421.244;   58.725;   49.495
424.209;  440.248;  -31.263;   56.473
424.498;  600.892;   68.732;  161.483
424.787; 1368.500; -535.267; -601.518
425.077; 4067.772;   34.735;   29.478
425.366; 4932.105; -734.262; -744.528
425.655;11880.611;  639.727;  259.493
425.945;28794.834; -313.247; -268.554
426.234;15472.932;  117.741;  300.467
426.523; 7083.088;  -86.259; -350.534
426.812; 9487.687;  107.734;  159.480
427.101;13604.107; -127.269; -323.515
427.390;16253.025;  -55.270;  -86.514
427.680; 2813.186; -624.257; -411.538
427.969;  566.399; -330.255; -301.540
428.258;  368.476; -385.257; -477.536
428.547;  553.150;  449.728;  397.490
428.836; 1018.819; -421.253; -398.543
429.125; 1434.590; -199.259;  -72.534
429.414;  861.296; -330.251; -294.548
429.703; 4200.121; -231.251; -213.548
429.992;12889.475; -938.250; -828.549
430.281; 8244.133; -397.264; -331.524
430.570;  620.209;  -21.252;   32.454
430.859;  501.062;  279.741;  352.466
431.148;  450.904;  636.752;  631.446
431.437;  325.209;  391.748;  367.454
431.725;  198.878; -544.257; -481.536
432.014;  192.127; -845.253; -756.545
432.303;  412.344; -149.239; -105.569
432.592;  606.291; -460.263; -178.525
432.881; 1309.055; -601.248; -437.554
433.169; 8537.575; -343.255;  -61.540
433.458;17409.635;  445.765;  540.424
433.747; 6919.811; -397.261; -289.529
434.036;  953.441; -275.242; -280.564
434.324; 2682.690; -395.249; -379.551
434.613; 4773.008;   40.757;  159.437
434.902; 1429.358;  333.760;  439.433
435.190;  427.968;   75.761;  295.431
435.479;  249.561;  -52.245;   83.441
435.767;  117.946; -411.244; -427.561
436.056;  217.085; -340.242; -294.563
436.345;  488.860; -372.240; -223.568
436.633;  473.809;   60.750;  383.450
436.922;  260.563;  208.760;  414.432
437.210;  445.898; -194.236;    1.426
437.499; 1265.857; -583.235; -432.576
437.787; 1370.372; -339.236;  -10.574
438.075;  337.025;   56.761;  162.430
438.364;  375.228;  -44.238;  250.429
438.652;  231.903; -286.226; -138.592
438.941;  119.960;    3.770;  269.415
439.229;   -8.544; -665.252; -466.545
439.517;   49.542; -160.234;  -85.577
439.806;   12.272; -501.225; -290.595
440.094;  157.452;  377.766;  650.421
440.382;   91.656; -653.233; -302.580
440.670;  103.432; -361.235; -285.576
440.959;   32.942; -347.223; -170.599
441.247;   57.649; -151.229; -109.587
441.535;   68.741; -266.235;   31.423
441.823;   26.623; -497.234; -305.578
442.111;  176.404;  173.771;  327.412
442.400;  438.235; -628.245; -335.559
442.688; 1002.876; -111.234; -620.579
442.976;  633.447; -786.213; -450.617
443.264;   89.680; -324.224; -364.597
443.552;   77.479; -258.226;   51.408
443.840;  154.414;  602.765;  876.423
444.128;  113.380;  265.767;  269.420
444.416;    2.282; -694.228; -312.588
444.704;   30.953; -465.219;  -92.605
444.992;   65.583;   -0.226;  240.407
445.280;   39.586; -517.230;  -94.585
445.568;   24.427; -694.212; -396.618
445.856;  237.159; -174.221;  357.398
446.143;  447.623;  -54.220;   -7.604
446.431;  415.311;  -25.228;  625.411
446.719;  189.201;  489.783;  675.391
447.007;  170.004;  481.769;  705.416
447.295;  180.964;  597.777;  871.402
447.583;  101.846; -464.229;  -34.587
447.870;  130.705; -434.221; -202.601
448.158;  321.284; -104.230;  129.415
448.446;  238.225; -800.219; -338.604
448.733;  166.306;   13.776;  269.403
449.021;  215.051;   60.788;  341.382
449.309;  170.669; -296.210;  208.379
449.596;  221.471;  128.783;   59.392
449.884;  185.747; -571.222; -325.600
450.172;  235.292; -756.227; -406.590
450.459;  551.802;  645.786;  780.387
450.747; 3291.520; -411.218; -147.608
451.034;10633.437;  493.772;  889.411
451.322; 8582.756; -413.214; -170.614
451.609;  672.383;  292.777;  508.403
451.897;  812.344; -550.203; -183.634
452.184; 2453.539; -622.223; -400.598
452.472; 2213.820;   97.792;  269.375
452.759;  355.250;  512.781;  864.395
453.047;   93.698; -407.212; -125.617
453.334;   49.110; -732.219; -216.606
453.621;   53.484; -438.214; -161.615
453.909;  108.985;   13.796;  384.368
454.196;  113.039; -299.199; -123.641
454.483;  271.735;  317.798;  540.364
454.771;  176.823; -215.208;  196.374
455.058;   48.652; -316.207;  102.374
455.345;  119.580;   71.807;  344.347
455.632;  112.631; -128.207;  235.373
455.919;   65.416;  -82.196;  182.354
456.207;  -34.031; -774.198; -450.642
456.494;    9.724; -475.200;  -66.639
456.781;   17.980; -399.202; -198.635
457.068;   68.189; -253.206;  -29.628
457.355;   -7.060; -698.206; -401.629
457.642;   22.422; -552.205; -290.630
457.929;   37.394; -778.194; -417.651
458.216;   93.399; -575.212; -354.617
458.503;  321.050; -173.193;  -19.652
458.790;  362.421; -864.208; -630.625
459.077;  382.311;  -77.202;  110.364
459.364; 1108.836; -350.195; -210.649
459.651; 2330.736;  -46.206;  220.372
459.938; 1043.709; -864.209; -665.623
460.225;  129.939;  132.799;  276.363
460.512;  -27.012; -836.197; -688.645
460.799;  136.443;  -32.218;  320.392
461.086;  139.305; -370.200; -251.640
461.372;   55.470; -509.198; -279.642
461.659;   97.917; -165.196;  108.354
461.946;   64.173; -445.193;  -54.651
462.233;  223.427;  842.800;  888.361
462.519;  467.648; -814.201; -464.639
462.806; 1421.588; -768.197; -497.645
463.093; 1186.073; -445.191;  -66.656
463.380;    6.372; -920.186; -824.664
463.666;   59.465; -259.197;  -18.646
463.953;  121.755; -406.195; -243.648
464.239;  233.680; -173.195;  -77.648
464.526;  373.117;  413.806;  743.350
464.813;  317.262; -565.190; -304.658
465.099;  338.724;  606.807;  607.348
465.386;  295.979;  903.807;  921.348
465.672;   40.913; -694.197; -522.645
465.959;   80.333; -598.188; -520.662
466.245;   13.079; -468.193; -359.652
466.532;   66.027; -109.195;   63.352
466.818;   41.122; -357.186; -216.664
467.104;   -0.130; -488.182; -415.672
467.391;   -9.011; -628.189; -459.658
467.677;   45.501; -289.186;    9.335
467.964;   13.147; -682.189; -471.660
468.250;   56.604; -331.186; -160.665
468.536;   74.965;   90.811;  180.341
468.822;   -7.557; -821.184; -574.668
469.109;  162.316;  351.827;  471.311
469.395;  216.741;  729.808;  787.346
469.681;  224.269;   46.811;  156.341
469.967; 1668.850; -699.188; -382.660
470.254; 3662.234; -494.188; -306.662
470.540; 2251.691; -601.196; -476.646
470.826;  303.108; -488.181; -397.675
471.112;  368.823;  288.816;  113.331
471.398;   82.328; -253.183;  -58.670
471.684;   58.192; -626.177; -447.680
471.970;   10.713; -918.180; -981.675
472.256;   51.639; -521.192; -441.654
472.542;   52.079; -499.171; -434.691
472.828;   44.540; -743.182; -607.672
473.114;   23.106; -380.166; -283.700
473.400;   39.037; -504.175; -293.684
473.686;   49.589; -452.166; -400.701
473.972;   55.904; -230.174; -131.687
474.258;  -12.134; -925.173; -843.689
474.544;  237.757; -183.178;   -2.679
474.830;  405.489;  -65.175;   45.316
475.116;  596.663; -123.190; -196.658
475.401;  840.265; -558.180; -467.676
475.687;  225.864; -725.180; -718.676
475.973;    3.800; -673.181; -770.673
476.259;  272.816;  736.825;  764.315
476.544;  468.126; -539.176; -437.682
476.830; 1068.400; -398.172; -322.690
477.116;  917.350; -430.177; -336.682
477.401;  146.215;  346.820;  358.324
477.687;    0.987; -289.175; -405.684
477.973;   39.154;   21.819;   28.326
478.258;   -4.037; -448.163; -348.706
478.544;   51.511;   21.815;   61.334
478.829;  -60.289; -818.171; -738.692
479.115;  -48.251; -749.172; -651.690
479.401;   -2.951; -444.174; -449.686
479.686;   40.163; -253.180;  -74.676
479.972;  -25.712; -886.178; -776.680
480.257;   49.933; -258.166;  -65.700
480.542;   22.440; -614.170; -469.693
480.828;  260.760; 1288.824; 1392.317
481.113;  -20.568; -464.176; -426.683
481.399;   -3.308; -236.161; -202.711
481.684;  -35.693; -620.166; -462.700
481.969;   30.008; -158.159;  -73.713
482.255;  -13.797; -439.169; -285.695
482.540;   -2.012; -569.178; -441.680
482.825;   23.491; -395.187; -404.663
483.110;  114.332;  -85.169; -105.696
483.396;  257.833; -840.157; -652.718
483.681;  608.104;  543.826;  730.313
483.966;  212.225; -696.160; -700.712
484.251;   -5.672; -404.174; -310.687
484.536;    8.270; -356.165; -378.703
484.822;   27.957; -205.173; -218.687
485.107;  -16.671; -599.152; -502.726
485.392;  115.902;  662.836;  541.296
485.677;   80.544;  354.832;  163.302
485.962;  115.255;  160.843;  270.283
486.247;  100.023;  -14.162;   -8.707
486.532;   55.059; -178.166; -325.701
486.817;  164.060;  381.839;  431.291
487.102;  126.734; -453.154; -514.722
487.387;  832.386; -637.156; -652.718
487.672; 1541.883; -154.164;  -38.705
487.957;  952.043; -394.160; -286.711
488.241;  278.674; -290.150; -314.729
488.526;  914.331; -280.152; -148.726
488.811; 1539.141; -881.177; -818.680
489.096; 1063.837; -666.154; -702.723
489.381;  567.376;    3.847;  162.275
489.666;  496.916; -428.161; -510.710
489.950;  198.266;  558.846;  627.277
490.235;  -23.357; -480.151; -458.728
490.520;  -41.810; -756.161; -723.710
490.804;  -43.337; -827.156; -736.719
491.089;   18.918; -469.149; -299.732
491.374;   47.531; -132.164;  -75.704
491.658;   -8.369; -817.147; -717.735
491.943;  118.311; -657.152; -609.727
492.227;  223.154; -178.155;  -38.721
492.512;   32.030; -294.157; -341.717
492.797;  -44.915; -713.149; -716.731
493.081;  -44.065; -588.147; -598.735
493.366;  -24.008; -751.161; -635.711
493.650;  202.023;  831.859;  917.254
493.935;   48.606; -648.147; -447.734
494.219;  -23.692; -778.142; -687.743
494.503;  -28.645; -585.150; -487.730
494.788;   32.295;   46.842;   74.285
495.072;  110.600;  184.850;  434.271
495.356;  193.172; -463.148; -343.733
495.641;  448.968; -812.146; -736.736
495.925;  405.944; -976.156; -903.719
496.209;   26.967; -599.149; -451.732
496.494;  -22.866; -763.142; -544.744
496.778;   22.909; -364.154; -360.722
497.062;  -36.482; -819.156; -627.719
497.346;  -16.779; -869.160; -640.711
497.631;  158.801;  580.852;  560.266
497.915;   67.555;  -64.145;  175.261
498.199;   46.758; -341.157; -277.718
498.483;   42.129; -562.152; -508.725
498.767;  205.952;  301.850;  300.271
499.051;  230.289; -126.149; -100.732
499.335;   40.912; -693.149; -739.731
499.619;  -34.006; -381.129; -423.767
499.903;   31.152; -272.155;  -65.721
500.187;   22.067; -588.153; -316.724
500.471;    5.860; -796.152; -595.727
500.755;   99.090;   62.839;  -96.710
501.039;   19.203; -270.155; -357.721
501.323;   80.350;  -21.141;  264.254
501.607;   40.564; -447.163; -503.706
501.891;    0.960; -607.156; -512.718
502.174;  -24.631; -726.144; -585.741
502.458;   65.665;   89.849;  370.273
502.742;   51.304; -180.138; -191.751
503.026;  134.605; -412.147; -254.734
503.310;  224.531; -437.159; -375.713
503.593;  161.382; -464.147; -325.735
503.877;  116.302; -232.133; -156.760
504.161;  176.670;    2.847;  -50.724
504.444;  158.373; -841.158; -710.716
504.728;  647.605; -487.164; -522.704
505.012;  912.048; -257.150;  -76.729
505.295;  667.367; -417.161; -212.711
505.579;  685.993; -256.156; -496.719
505.862;  973.251; -555.145; -333.738
506.146;  969.084; -681.159; -758.714
506.429;  477.185;  568.841;  461.286
506.713;   92.295; -732.151; -667.728
506.996;  388.883;   90.846;  295.278
507.280;  425.500; -633.165; -474.703
507.563;  293.900; -469.155; -261.721
507.847;  127.668; -423.153; -112.724
508.130;  122.243; -665.161; -456.711
508.413;  166.128; -758.167; -577.700
508.697;  311.728; -151.167;   12.300
508.980;  190.370; -422.153; -312.724
509.263;   23.446; -466.155; -450.720
509.547;   43.498; -124.150;   82.271
509.830;   62.045; -172.160;  140.289
510.113;   77.093;  128.844;  298.281
510.396;   61.677; -530.152; -300.725
510.680;  111.702; -818.145; -812.738
510.963;  408.514;  184.846;  180.277
511.246;  324.607; -493.150; -357.730
511.529;  269.408; -482.145;  -83.739
511.812;  476.223; -250.134;   10.241
512.095;  358.516; -740.151; -396.728
512.378;   79.287; -317.147; -245.736
512.661;   47.338; -703.137; -623.753
512.944;   68.435; -750.142; -637.744
513.227;   74.210; -170.137; -171.752
513.510;   39.343; -479.144; -671.741
513.793;   41.130; -485.140; -435.747
514.076;  138.619;  -43.127;  -39.771
514.359;  145.743; -294.149; -135.732
514.642;  123.789; -442.142; -567.744
514.925;  913.729;  581.860;  561.253
515.208; 1282.368; -498.134; -443.758
515.491;  814.310; -276.133; -182.761
515.773;  477.073; -410.143; -337.742
516.056; 2576.020;  249.864;  409.246
516.339; 3454.900; -754.136; -652.755
516.622; 1886.679; -518.150; -488.730
516.904;  841.531;  882.857;  975.257
517.187;  361.308; -730.138; -523.752
517.470;  382.130; -568.143; -510.743
517.752;  574.379; -624.136; -470.756
518.035;  464.518; -708.139; -725.749
518.318;  490.500; -799.136; -744.755
518.600; 3063.439; -300.132; -325.762
518.883; 4227.013;  310.858;   88.256
519.165; 1945.149; -585.138; -426.751
519.448;  379.689;  -61.132;  -19.762
519.730;  188.678; -573.126; -415.773
520.013;  262.330;  588.867;  664.240
520.295;  530.725;  -94.134;  -15.759
520.578; 1157.529; -335.131; -305.764
520.860; 1375.764; -254.132;   56.238
521.143;  801.131; -763.135; -584.756
521.425;  500.293; -251.125; -279.775
521.707;  798.894; -622.127; -380.771
521.990; 2240.770; -199.127;  167.229
522.272; 2613.257; -116.140;   -4.748
522.554; 1009.699; -237.143; -157.742
522.836;  296.322;  -24.134;   99.241
523.119;  186.304; -496.148; -189.734
523.401;  154.563; -448.130; -314.766
523.683;  117.863; -865.137; -693.753
523.965;  345.131;  408.862;  260.248
524.247;  346.568;   54.878;  170.220
524.529;  261.550; -451.134; -367.759
524.812;  405.890;   -3.130;  191.234
525.094; 1106.930; -773.138; -631.751
525.376; 1728.954; -143.124;   78.223
525.658; 1041.422; -441.136; -339.754
525.940;   42.900; -805.131; -671.764
526.222;   43.851; -188.136;  -88.755
526.504;   78.598; -190.131;   32.237
526.786;   86.353; -960.133; -647.760
527.068;  186.761; -124.123;  -67.778
527.349;   58.043; -865.137; -774.754
527.631;  121.089; -137.132;   22.238
527.913;  176.443; -664.127; -450.771
528.195;  217.160; -761.125; -639.774
528.477;  300.619;  -93.134;  -30.758
528.759;  186.640; -648.130; -522.766
529.040;   98.934; -569.123; -293.778
529.322;   51.038; -235.125;  -10.774
529.604;  113.767;  -47.130;   93.233
529.886;   78.077; -546.126; -302.773
530.167;   98.907;  232.870;  192.235
530.449;   37.361;    1.853;   63.265
530.731;   57.267; -572.122; -459.779
531.012;  106.292; -513.120; -216.784
531.294;   99.564; -118.116;  -43.792
531.575;  171.218;  290.875;  538.225
531.857;   98.288; -548.135; -266.757
532.138;  101.149; -113.141;   40.254
532.420;  141.358;  294.865;  403.244
532.701;  135.155; -722.133; -751.760
532.983;  257.984;  232.867;  182.239
533.264;   75.975; -243.126;  175.228
533.546;  -38.824; -491.136; -508.755
533.827;   42.601;  173.867;   -1.759
534.109;   40.112; -352.135;  -80.757
534.390;   88.543; -725.132; -582.762
534.671;  261.233; -270.135;  -82.756
534.953;  166.462; -751.123; -611.779
535.234;   39.721; -426.117; -255.789
535.515;  -60.148; -891.119; -735.785
535.796;   -1.861; -431.128; -193.770
536.078; -105.996;-1050.124; -904.777
536.359;    7.838;  -22.123;    3.221
536.640;  -24.513; -480.125; -197.774
536.921;  159.099;  225.871;  143.232
537.202;  430.951;  -87.138;  -16.751
537.483;  553.504;  251.869;  377.236
537.764;  225.382;   17.870;   98.235
538.045;  -22.307; -543.134; -371.758
538.326;  -23.474; -596.129; -447.768
538.607;   42.370; -686.127; -476.771
538.888;  222.557;   98.879;    5.218
539.169;  226.775; -704.122; -535.781
539.450;  363.347;  236.871;   16.233
539.731;  232.436; -361.121; -182.783
540.012;  134.642;  199.880;  412.216
540.293;   84.522;   82.876;  158.224
540.574;    2.364; -895.113; -717.796
540.855;  480.434;  435.879;  377.218
541.136;  597.022;   47.878;  139.220
541.416;  333.115; -161.130; -220.766
541.697;  256.148; -274.131; -170.763
541.978; 1371.210; -270.135; -315.757
542.259; 1748.995; -211.127; -236.771
542.539;  784.457; -191.116; -186.790
542.820;  189.543;  461.875;  480.225
543.101;  143.579;  -52.145;  -77.738
543.381;   51.220; -638.127; -591.771
543.662;  322.842;  159.873; -254.771
543.942;  821.690; -751.127; -830.770
544.223; 1385.724;  193.878;  161.219
544.504;  891.228; -275.124; -182.777
544.784;  756.077; -592.126; -408.773
545.065; 2169.736;  104.884; -254.791
545.345; 2546.127;  227.881;   14.215
545.626; 1636.688;  -14.113; -108.796
545.906; 1165.057;   77.869;   98.235
546.186;  473.708;   92.874;  -95.773
546.467;  249.881;   99.877;  -95.778
546.747;  409.306;  264.884;  327.210
547.027;  481.152;   91.876;  111.223
547.308;  458.314; -376.127; -530.770
547.588;  500.727;  299.871;  371.232
547.868;  233.233;  458.870;  588.235
548.149;  234.470;  609.885;  593.207
548.429;  196.593; -347.127; -299.771
548.709;  279.242; -645.120; -461.784
548.989;  603.714;   84.882;   88.213
549.269; 2655.537;   10.868;  139.239
549.550; 6255.461;  215.877;  117.222
549.830; 5563.709; -758.111; -556.799
550.110; 1092.243; -468.110; -320.801
550.390; 1095.168; -128.122;  -56.779
550.670; 1582.833; -868.114; -783.795
550.950; 1088.359; -509.121; -471.782
551.230;  220.304;  549.879;  460.218
551.510;   24.733; -381.121; -326.782
551.790;   62.252; -173.109; -127.803
552.070;  284.231;  940.877; 1181.223
552.350;  551.432; -492.119; -377.786
552.630;  757.877;   -2.121;   77.219
552.909;  453.312;  181.884;   73.209
553.189;  301.845;  -49.132;   33.237
553.469;  286.807; -703.119; -514.786
553.749;  282.072; -469.127; -357.772
554.029;  224.601;   33.883;  -24.790
554.308;  201.275; -154.115;  -37.794
554.588;  106.987; -196.128; -204.770
554.868;  110.335; -366.121;  -47.782
555.147;  208.346; -114.115;  -46.793
555.427;  754.039; -260.116; -250.792
555.707; 5019.819; -284.115; -200.793
555.986; 6130.763; -719.111; -538.800
556.266; 3145.430;   23.884;   72.210
556.546;  167.933; -888.121; -675.782
556.825;  327.780; -657.114; -556.794
557.105; 2282.885; -125.128;   17.230
557.384; 2720.135;  122.884;  187.209
557.664; 1035.964; -717.116; -508.792
557.943;  163.284; -557.121; -411.782
558.222;  240.667; -345.118; -344.788
558.502;  315.098; -116.115;  -76.793
558.781;  579.593;  194.885;  499.208
559.061;  530.792; -232.118; -227.788
559.340;  362.673;  302.883;  353.211
559.619;  903.505;   93.884;  148.210
559.899; 1337.700; -239.117; -266.789
560.178; 1208.772; -778.115; -593.793
560.457; 3912.552; -623.117; -562.790
560.736; 5572.839; -472.111; -482.800
561.015; 3648.482; -500.128; -502.769
561.295;  461.126;  180.893;  215.193
561.574;  377.170;  119.885;  116.207
561.853;  587.907;  274.891;  303.197
562.132;  634.826;  -45.114;  182.206
562.411;  542.702;  396.879;  553.219
562.690;  193.317; -592.115; -458.792
562.969;  154.746;  472.888;  630.203
563.248;  517.800; 2966.878; 2487.219
563.527;  381.014; -290.111; -408.800
563.806;  509.468; -650.127; -521.771
564.085;  543.844; -297.105; -206.810
564.364;  337.029; -594.117; -405.790
564.643;  657.328; -276.121; -223.781
564.922; 2338.700;  221.890;  397.198
565.201; 2402.404; -640.109; -700.803
565.479;  997.291; -297.115; -219.792
565.758;  464.910; -810.128; -712.770
566.037;  617.856; -155.109; -100.803
566.316;  319.336; -286.116;  -28.791
566.595;   59.344;  -17.115;  -12.793
566.873;  111.541; -166.111;  -79.801
567.152;  -35.180; -490.113; -590.797
567.431;    9.781; -113.116;    6.210
567.709;   46.201; -344.107; -212.807
567.988;  387.705; -810.114; -769.794
568.266;  734.969; -160.115;  -68.793
568.545;  533.125; -644.100; -514.819
568.824;  753.415;  160.885;  356.208
569.102;  727.929; -351.114; -235.794
569.381;  294.839; -492.116; -407.792
569.659;  -21.159; -553.113; -553.796
569.938;   96.847; -743.122; -465.780
570.216;  153.159; -225.109; -225.804
570.494;    7.083; -632.114; -572.795
570.773;   26.507;  202.879;  114.218
571.051;   30.960; -373.123; -357.778
571.330;   82.788; -221.113; -174.796
571.608;   57.471; -181.098; -173.823
571.886;  -43.593; -671.111; -581.799
572.164;  -41.665; -739.121; -621.782
572.443;  -33.876; -562.105; -512.811
572.721;  -10.423; -399.117; -289.790
572.999;   -5.605; -280.117; -168.788
573.277;  106.491;  379.894;  620.191
573.555;  352.768;   94.894;   37.190
573.834; 1723.744;  -86.117; -114.788
574.112; 1955.004;  880.893;  811.193
574.390;  594.765; -143.111;  -96.801
574.668;    5.147;  -91.112;  -61.797
574.946;    2.119; -165.106; -187.810
575.224;    5.579;   71.891;  -16.803
575.502;    2.708; -200.116; -204.791
575.780;  -69.752; -767.112; -829.798
576.058;  244.239; 1589.889; 1004.200
576.336;  -15.129; -210.110; -129.801
576.614;  -52.926; -511.112; -340.798
576.891;  109.874; -711.115; -823.794
577.169;  652.169; -158.108; -285.805
577.447;  730.453;  169.893;  202.193
577.725;  337.004;  629.888;  854.201
578.003;   20.076;  -71.112; -371.798
578.280;  119.684; -208.104; -242.812
578.558;   81.298; -450.115; -422.793
578.836;  148.083; -210.114; -145.795
579.114;   78.021; -630.112; -670.797
579.391;   67.746;   -6.117;  -18.789
579.669;  -42.100; -595.114; -704.794
579.947;  221.475; -326.107; -127.806
580.224;  439.874; -692.107; -524.806
580.502;  400.829;  127.893;   76.193
580.779;   45.353;  -42.117;   75.210
581.057;  -62.141; -584.109; -470.804
581.334;  -92.598; -726.102; -695.815
581.612;   36.144;   54.895;  511.190
581.889;  -14.582;  -83.101; -129.818
582.167;  -14.265; -298.099; -190.821
582.444;  -74.989; -845.102; -814.817
582.721;  114.162;  657.899;  715.183
582.999;   71.307; -326.100; -167.821
583.276;  709.090; -812.123; -713.779
583.553;  939.631; -364.102; -294.816
583.831;  322.205; -607.104; -631.812
584.108;   67.641;  349.892;  174.195
584.385;   46.576; -122.102;  -98.815
584.662;  -38.658; -651.111; -828.801
584.940;   46.866;  204.889;  204.199
585.217;   -2.334;  -73.113; -303.796
585.494;   55.226;   71.890;  118.198
585.771;  287.760; -250.109; -354.804
586.048;  713.565; -196.113;  -76.796
586.325;  454.594; -721.110; -773.801
586.602;  119.160;  230.896;  213.188
586.879;   13.752; -499.100; -580.820
587.156;   86.345; -156.105; -331.810
587.433;   -9.616; -701.102; -667.817
587.710;  108.849;  152.888;  234.202
587.987;  406.352; -264.105; -236.811
588.264; 1055.676;  315.888;  387.202
588.541; 1724.513;  -61.104;   26.187
588.818; 3514.663;   72.892;  171.196
589.095; 3010.257; -163.104; -174.812
589.371;  506.358; -459.109; -414.804
589.648;   47.329; -581.107; -437.807
589.925;   77.959; -517.114; -621.795
590.202;   47.699; -741.112; -607.798
590.478;  140.454; -166.105;  -73.811
590.755;  341.645; -241.108; -132.806
591.032; 3143.597; -741.110; -699.802
591.308; 4494.094; -732.094; -790.831
591.585; 2259.021; -573.110; -560.802
591.862;  241.136;-1056.102; -950.817
592.138;  109.267; -475.108; -474.805
592.415;  218.411; -486.104; -495.813
592.691; 1907.758;  460.896;  518.188
592.968; 2567.749; -208.098; -123.824
593.244; 1225.331; -695.116; -595.790
593.521;  108.711; -105.102;  -42.817
593.797;   45.044; -810.122; -720.780
594.074;  460.314; -611.096; -588.826
594.350;  850.152;  828.905;  729.172
594.626;  420.042; -303.111; -283.801
594.903;  186.637; -643.101; -645.817
595.179;  243.740;  243.896;  418.187
595.455;   16.631; -136.107; -150.807
595.731;   13.892;  -19.103;  -38.814
596.008;   -7.665; -464.111; -434.800
596.284;   50.655; -187.100; -242.820
596.560;  106.327; -501.093; -493.833
596.836;  278.748; -173.105;  -70.810
597.112;  474.543; -582.108; -437.805
597.388;  390.136;  -49.097;  -48.826
597.665;  137.769;  437.887;  530.203
597.941;  -34.963; -572.089; -658.839
598.217;   56.026; -323.110; -293.802
598.493;  348.412;   61.891; -204.804
598.769;  701.848; -175.100;  -50.819
599.045;  426.272; -490.108; -562.806
599.321;   94.254; -193.100; -261.820
599.597;  198.311; -355.109; -476.804
599.872;  606.512;  409.896;  429.187
600.148;  474.538;  -61.097; -172.826
600.424;  379.652;   91.893;  202.193
600.700;  322.280; -170.107; -280.807
600.976;  183.306; -442.097; -464.825
601.252;  330.957; -226.109; -272.803
601.527;  313.214; -833.104; -840.813
601.803;  215.254; -453.105; -404.812
602.079;  255.573; -124.100; -118.819
602.354;  748.164; -620.092; -531.835
602.630; 1072.241; -140.113; -482.796
602.906; 2821.268; -910.101; -863.818
603.181; 8571.932; -627.119; -534.786
603.457; 7211.960;   98.903; -278.826
603.733; 1069.937; -605.120; -626.783
604.008; 1204.219; -245.106; -164.810
604.284; 4009.863; -636.101; -580.817
604.559; 3476.054;   -3.112;  -42.799
604.835;  638.373; -163.105; -225.810
605.110;  573.410; -732.099; -892.821
605.385;  894.330;  224.907;  267.167
605.661;  837.780; -625.095; -729.829
605.936; 1568.622; -664.108; -737.806
606.211; 1281.300;  -17.103; -170.815
606.487;  292.528; -329.114; -376.794
606.762;   64.982; -791.119; -745.786
607.037;    0.473; -501.105; -433.810
607.313;  -27.353; -589.096; -574.828
607.588;   16.894; -375.106; -137.810
607.863;   47.792;  -28.101; -143.818
608.138;  220.824;  513.890;  516.198
608.413;   67.915; -576.099; -592.822
608.688;   88.392; -203.108; -267.805
608.964;  259.962; -509.106; -218.809
609.239;  336.795; -107.105; -212.810
609.514;  315.679;  281.895;  240.188
609.789;  908.284; -187.104; -716.812
610.064; 1170.821; -435.096; -609.827
610.339; 1149.608; -855.109; -799.804
610.614; 1504.254; -131.100; -315.820
610.889;  831.404;  215.895;  107.188
611.163;   72.505; -407.104; -591.812
611.438;  130.879;   81.886; -167.794
611.713;   29.863; -467.101; -499.817
611.988;  106.241; -144.101; -328.818
612.263;   22.377; -771.102; -717.815
612.538;  249.365;  385.887;  251.204
612.812;  260.506; -832.100; -911.820
613.087;  192.771; -358.098; -338.823
613.362;  -33.970; -497.107; -557.807
613.637;   54.295;  261.897;  138.186
613.911;   -3.561; -256.092; -345.835
614.186;  177.303; -249.107; -292.807
614.460;  895.476; -842.081; -758.854
614.735;  991.315;  -55.087;  -17.843
615.010;  222.003;   43.912;  -82.841
615.284;  313.917;  360.892;  246.195
615.559;  544.063; -792.092; -955.835
615.833;  396.763;  -76.099;  -87.822
616.108;   19.502; -225.090; -390.837
616.382;  166.166;  274.913;  402.156
616.656;  206.953; -241.090; -232.837
616.931;  681.638; -785.099; -700.822
617.205; 1414.189; -973.104; -979.813
617.480; 1275.216;  -91.125;    6.225
617.754;  244.188; -396.125; -128.774
618.028;   57.302; -369.129; -382.768
618.302;   93.515;   73.892;  -25.805
618.577;  -26.253; -371.103; -518.815
618.851;  -43.521; -399.109; -600.803
619.125;  -42.000; -335.134; -378.759
619.399;  -26.410; -244.104; -374.813
619.673;  -25.035; -330.115; -515.792
619.947;  -17.367; -333.114; -448.795
620.222;   10.218; -198.110; -204.801
620.496;   19.959;  -47.121;  -96.782
620.770;   36.750; -187.122;  -93.781
621.044;  282.520;  323.895;  346.190
621.318; 1029.913; -653.120; -614.783
621.592;  867.810; -430.121; -409.783
621.866;  479.805; -476.112; -572.799
622.140;   49.508; -207.116; -356.791
622.413;   71.585;  138.889;  112.200
622.687;   -8.136; -746.101; -492.817
622.961;   26.740; -130.108; -143.805
623.235;  -40.289; -633.111; -661.800
623.509;  -89.821; -816.105; -848.811
623.783;   22.875;  -12.107;   48.193
624.056;    2.764; -254.120; -280.783
624.330;   54.422;   63.888;   -3.797
624.604;   80.554; -271.116; -355.790
624.877;   89.548;  180.890;   26.198
625.151;   66.351; -249.114; -238.794
625.425;  -21.858; -150.103; -283.814
625.698;  -53.550; -367.119; -374.785
625.972;  -75.699; -799.110; -765.802
626.245;   87.781;  685.884;  484.210
626.519;  -44.731; -426.120; -340.784
626.792;  -17.370; -192.107; -380.807
627.066;  -75.859; -485.122; -662.779
627.339;  -72.104; -736.110; -663.802
627.613;   41.367;  351.880;  148.216
627.886;   65.253;  187.891; -612.803
628.160;    5.462;  312.880; -161.783
628.433;  -79.581; -695.125; -703.775
628.706;  -62.681; -517.120; -615.784
628.979;   24.052;  296.876;  117.223
629.253;  -66.394; -785.119; -833.786
629.526;  474.575; -334.126; -253.772
629.799;  458.460; -641.123; -479.778
630.072;  213.354; -497.128; -516.769
630.346;  -34.719;-1115.116;-1080.790
630.619;  592.456; -467.107; -545.808
630.892;  778.236;  709.889;  593.200
631.165;  390.714;  790.896;  679.187
631.438;  -37.999;-1092.112;-1055.798
631.711;   64.464;  453.877;  257.221
631.984;  -44.949; -523.117; -624.789
632.257;  -43.354; -636.117; -681.789
632.530;  -22.949; -412.119; -433.785
632.803;   48.799; -109.115;    7.207
633.076;  -49.294; -360.123; -422.777
633.349;   19.984;  173.872;  121.231
633.622;  -33.651; -187.119; -240.785
633.895; -113.086; -903.120; -823.783
634.167;  -59.872; -496.126; -525.773
634.440;    1.889;  -19.116; -137.792
634.713;    6.855;  -22.119; -120.786
634.986;   83.672;  593.871;  453.233
635.258;  -65.303; -507.115; -597.793
635.531;  109.842;  742.882; -343.788
635.804;  -23.501; -303.117; -318.789
636.077;  -85.616; -830.116; -852.791
636.349;   10.320; -586.115; -474.793
636.622;  405.399; 1695.874; 1392.228
636.894;  323.269; -474.120; -909.784
637.167;  242.617; -836.127; -789.771
637.439;   45.138; -278.128; -213.770
637.712;  -30.223; -312.126; -293.772
637.984;  -71.465; -635.116; -707.791
638.257;  486.257;  515.877;  488.222
638.529;  827.570; -881.125; -924.776
638.802;  356.879; -508.128; -449.769
639.074;  -91.876; -927.122; -952.781
639.346;  -93.886; -942.135; -930.757
639.619;   15.137;  -79.142; -319.744
639.891;    8.791;  -83.122; -168.779
640.163;  -65.582; -689.122; -756.780
640.435;   55.921;  273.878;  103.220
640.708;   15.423;  -72.122; -132.780
640.980;    4.600; -366.122; -362.781
641.252;  237.752;  -25.121;  -71.781
641.524; 2358.904;  580.879;  573.219
641.796; 2511.906;-1094.121; -907.782
642.068;  457.384; -191.121; -300.782
642.340;  -45.039; -486.121; -566.783
642.613;   43.638;  294.880;  323.217
642.885;  -75.610; -787.120; -878.783
643.157;  -13.283; -810.120; -658.784
643.428;   80.620;  170.880;  218.216
643.700;  -57.078; -498.120; -425.784
643.972;  -27.176;  -16.119; -133.785
644.244;  -71.824; -474.119; -559.785
644.516;  -36.397; -250.119; -114.786
644.788;   61.130;  662.881;  548.214
645.060;  -20.917;  -12.119; -124.786
645.332;  -97.690; -525.118; -535.787
645.603;   27.337;  479.882;  342.213
645.875;  -49.811; -334.118; -369.787
646.147;  155.016; 1487.882; 1242.212
646.418;  -35.706; -931.117; -918.788
646.690;  225.371; -714.117; -715.789
646.962;   71.398; -413.117; -451.789
647.233;   -5.675;   15.883;   11.211
647.505;  -94.548; -595.117; -475.790
647.776;   26.204;  328.884;  229.210
648.048;   32.907; -248.116; -418.790
648.320;  -49.541; -752.116; -679.791
648.591; -133.939;-1055.116; -958.791
648.862;  -80.387; -505.116; -577.792
649.134;   16.190;  115.885;  198.208
649.405;  -26.057; -661.115; -618.792
649.677;  -31.630; -475.115; -598.793
649.948;   11.622; -181.115; -296.793
650.219;   10.149;  -37.115; -147.793
650.491;  -65.349; -431.114; -520.794
650.762; -102.147; -705.114; -731.794
651.033;  -74.169; -437.114; -424.795
651.304;  -70.992; -743.114; -728.795
651.576;  -53.865; -680.114; -645.795
651.847;  -28.988; -250.113; -140.796
652.118;  -19.161;  -32.113; -189.796
652.389;  -98.034; -639.113; -722.796
652.660;  -36.731; -147.113;  -89.797
652.931; -116.754; -897.112; -871.797
653.202;  -62.177; -382.112; -541.798
653.473;  -44.200; -633.112; -533.798
653.744;  232.702; -595.112; -590.798
654.015;  223.755; -356.112; -303.799
654.286;  -56.443; -642.111; -663.799
654.557;  -41.666; -586.111; -521.799
654.828; -136.939;-1114.111;-1088.800
655.099;  -68.037; -404.111; -291.800
655.370;  -82.310; -427.111; -543.801
655.641;  -96.957; -656.110; -714.801
655.911;  -94.655; -618.110; -638.801
656.182;   70.747;  437.890;  387.198
656.453;  105.699;  830.890;  746.198
656.724;  -56.824; -466.110; -426.802
656.994;  -78.596; -553.109; -568.803
657.265;  -89.994; -862.109; -873.803
657.536;  -71.692; -500.109; -377.804
657.806; -102.465; -561.109; -593.804
658.077; -133.488; -866.109; -950.804
658.347;  -77.061; -523.108; -598.805
658.618; -100.058; -646.108; -694.805
658.888;  -19.781;  -41.108;  112.195
659.159;  -72.404; -432.108; -548.806
659.429;   10.698; -292.108; -349.806
659.700;   37.350; -435.107; -390.807
659.970;   17.953; -370.107; -359.807
660.241;   51.455; -754.107; -921.807
660.511;  684.407; -147.107; -174.808
660.781;  163.959; -793.106; -748.808
661.052;  -41.064; -222.106; -381.808
661.322;  -17.387;   21.894;   -9.809
661.592;   21.916;  257.894;  148.191
661.862;  -57.057; -369.106; -382.810
662.133;  -82.105; -551.105; -502.810
662.403;  -98.828; -770.105; -676.810
662.673;  -51.776; -256.105; -213.811
662.943;  -84.174; -612.105; -551.811
663.213;   10.354;  -85.105;  -81.811
663.483;  -70.344; -593.104; -568.812
663.753;  -48.867; -194.104; -152.812
664.023;  -19.515;   68.896;  -32.813
664.293;  -59.763; -319.104; -126.813
664.563; -104.860; -694.104; -648.813
664.833; -115.983; -743.103; -608.814
665.103; -120.456; -730.103; -793.814
665.373; -100.679; -766.103; -806.814
665.643;  -57.777; -863.103; -918.815
665.913;   86.625; -534.103; -714.815
666.182;  223.653; -685.102; -719.816
666.452;  373.230;  -22.102;  -89.816
666.722;   15.657; -724.102; -784.816
666.992; -104.241; -948.102; -921.817
667.261;  -64.939; -824.102; -808.817
667.531;  303.439;  134.899;   45.183
667.801;  909.366; -440.101; -412.818
668.070;  330.568;  714.899;  697.182
668.340;  -66.080; -883.101; -840.819
668.609;  105.122;  588.900;  301.181
668.879;  -65.401; -490.100; -558.819
669.149;  -55.823; -539.100; -516.820
669.418;  -85.346; -698.100; -726.820
669.688;    3.456; -482.100; -666.820
669.957;  134.708; -423.099; -546.821
670.226;   -4.165; -268.099; -331.821
670.496;  -83.112; -431.099; -635.822
670.765;  -62.210; -418.099; -501.822
671.034; -121.158; -872.099; -828.822
671.304;  -10.256;   55.902; -111.823
671.573; -136.004;-1085.098; -957.823
671.842;  121.948; -380.098; -294.823
672.112;   66.426; -692.098; -586.824
672.381;   29.678; -239.098; -214.824
672.650; -117.970;-1005.097;-1021.825
672.919;  -83.268; -631.097; -507.825
673.188;  -73.566; -681.097; -878.825
673.457; -116.139;-1101.097;-1143.826
673.726;  -53.486; -579.096; -646.826
673.995;  -27.159; -533.096; -479.826
674.265;   -5.907; -263.096; -333.827
674.534;   34.345; -183.096; -235.827
674.802;   39.197; -618.096; -703.828
675.071; 1218.300; -886.095; -801.828
675.340; 5145.502; -464.095; -339.828
675.609; 1700.254;  103.905;   82.171
675.878;  148.756; -949.095; -893.829
676.147;   62.433;  -26.095;   -8.829
676.416;   96.810; -210.094; -294.830
676.685;  899.638; 1000.906; -622.830
676.953;  184.440; -603.094; -452.831
677.222;  -14.783; -193.094; -273.831
677.491;  -28.906;  -24.094; -127.831
677.759;   -2.279;   11.907;  172.168
678.028;    5.974; -279.093; -222.832
678.297;   11.851;   71.907;  197.168
678.565; -125.572; -898.093; -944.833
678.834;  -51.120; -311.093; -268.833
679.102;  -69.243; -411.092; -391.834
679.371; -124.091; -898.092; -727.834
679.639; -116.063; -797.092; -786.834
679.908; -112.511; -794.092; -724.835
680.176; -148.809; -895.091; -941.835
680.445;  -46.482; -346.091; -352.835
680.713;  -15.480;  -58.091;  -23.836
680.982;  -93.102; -523.091; -525.836
681.250;  -86.325; -578.091; -507.837
681.518;  -82.798; -534.090; -751.837
681.787;   -2.221; -204.090; -167.837
682.055;  -44.469; -490.090; -422.838
682.323; -134.117; -993.090; -992.838
682.591;   64.936; -216.090; -538.838
682.859;  128.388;    9.911;  -35.839
683.128;   29.065;  232.911;  497.161
683.396; -151.408;-1102.089;-1122.840
683.664;  -28.806; -241.089;   21.160
683.932;   10.596;  144.911;  -76.840
684.200;  -80.676; -576.088; -320.841
684.468;  -29.649;  -73.088; -124.841
684.736;  -27.972; -214.088; -175.841
685.004; -106.345;-1024.088; -982.842
685.272;   -2.143; -880.088; -774.842
685.540;  -49.140; -499.087; -557.843
685.808;  -61.038; -651.087; -682.843
686.076;  -88.411; -894.087; -969.843
686.343;  -37.984; -601.087; -815.844
686.611;   76.443; -195.087; -224.844
686.879;  526.695; -530.086; -553.844
687.147; 4243.323; -483.086; -480.845
687.414; 1257.375;  -12.086; -169.845
687.682;   34.202; -658.086; -757.846
687.950;  388.154;  259.915;  263.154
688.217;   52.956; -792.085; -760.846
688.485;   22.909; -632.085; -636.847
688.753;  692.386;  -11.085; -102.847
689.020;  261.538; -820.085; -851.847
689.288;  -87.710; -853.084; -787.848
689.555;  -21.583; -195.084; -148.848
689.823;  -37.381; -241.084; -345.849
690.090;  -79.403; -546.084; -651.849
690.358; -136.051; -877.084; -897.849
690.625;   12.651;  120.917;   45.150
690.892;  -72.472; -403.083; -369.850
691.160;    3.580;   72.917;  -35.850
691.427;   13.183;  141.917;  130.149
691.694; -111.465; -855.083; -929.851
691.962; -138.063;-1177.082;-1060.852
692.229;   23.989;  127.918;   56.148
692.496;   89.091;  130.918;  -49.852
692.763;   26.743; -164.082; -201.853
693.031;  -44.529; -739.082; -716.853
693.298;  -13.577; -509.081; -368.853
693.565;  367.225; -155.081; -163.854
693.832; 1660.527;   -5.081;   -9.854
694.099;  231.404; -643.081; -642.855
694.366;  -34.393; -882.081; -896.855
694.633;   -9.341; -920.080; -633.855
694.900;  730.336; 4367.920; -114.856
695.167;  573.863; -214.080; -380.856
695.434;  165.940; -646.080; -623.856
695.701;  225.517;  121.921;  -61.857
695.968;  603.970; -365.079; -361.857
696.234; 1142.672; -415.079; -646.858
696.501;12335.599; -776.079; -614.858
696.768; 6772.076; -554.079; -617.858
697.035;  422.803; -632.078; -667.859
697.302;   98.880; -448.078; -552.859
697.568;   49.833; -458.078; -497.859
697.835;  -11.140; -683.078; -624.860
698.102;    1.587; -498.078; -407.860
698.368;   99.264;  384.923;  396.139
698.635;  -15.859;  -47.077; -424.861
698.901;   -7.156; -240.077; -348.861
699.168;   92.121; -534.077; -456.862
699.435;  106.548;  -72.077;  -13.862
699.701;  -85.700; -868.076; -764.862
699.968;   25.552;  144.924; -441.863
700.234;  -83.121; -783.076; -822.863
700.500;  -54.993; -448.076; -539.864
700.767;   29.534;   -1.075;   26.136
701.033; -116.264;-1015.075; -963.864
701.299;  -30.412; -450.075; -483.865
701.566;  118.065;  950.925;  763.135
701.832;   55.168;  -31.075;  -76.865
702.098;  -69.330;-1054.074;-1034.866
702.365;  -39.003;-1098.074;-1030.866
702.631;   15.449;-1038.074;-1063.867
702.897; 1720.201; -765.074; -676.867
703.163; 3130.978;  348.926;  254.133
703.429;  243.231; -256.073; -273.868
703.695;    3.558; -796.073; -792.868
703.961;   56.935; -214.073; -210.868
704.227;  -25.913; -630.073; -725.869
704.493;  147.464;  613.927;  510.131
704.759;   15.967; -565.072; -540.870
705.025;   75.744; -203.072; -194.870
705.291;   31.821; -666.072; -562.870
705.557;  238.898;  719.928;   34.129
705.823;   81.050; -742.072; -694.871
706.089;  221.027; -307.071; -326.871
706.355;  467.230; -315.071; -244.872
706.620; 6914.482; -776.071; -729.872
706.886;10703.284; -309.071; -362.873
707.152; 1085.536; -818.070; -973.873
707.418;   57.113;-1153.070;-1186.873
707.683;   41.890; -550.070; -530.874
707.949;  -11.632; -547.070; -578.874
708.215;   21.245; -129.070; -207.874
708.480;    7.972; -520.069; -420.875
708.746;  147.399;   68.931;   28.125
709.011;  -43.174; -578.069; -612.876
709.277;  -50.746; -538.069; -543.876
709.542;  -25.344; -428.069; -387.876
709.808;    7.633;  -59.068;   89.123
710.073;  -60.590; -577.068; -695.877
710.339;   -4.013; -242.068; -228.877
710.604;  136.289; -780.068; -845.878
710.869;  458.242; -277.068; -366.878
711.135;  -54.331; -715.067; -628.879
711.400;  -67.179; -507.067; -608.879
711.665;  -41.727; -404.067; -479.879
711.931;  -76.450; -661.067; -677.880
712.196;  -91.597; -876.067; -954.880
712.461;  164.830; -402.066; -490.880
712.726;  249.532; -727.066; -771.881
712.991;  -61.691; -647.066; -664.881
713.256;  -31.089; -350.066; -332.882
713.521;  -41.737; -417.065; -381.882
713.787;  -37.784; -454.065; -472.882
714.052;   14.243; -214.065; -400.883
714.317;  -60.130;-1045.065; -981.883
714.581; 1493.947; -374.065; -268.883
714.846; 2369.124; -822.064; -888.884
715.111;  214.502;  261.936;  257.116
715.376;   -6.096;  -86.064; -223.885
715.641;   12.881; -365.064; -367.885
715.906;  418.708;   15.936; -551.885
716.171;  186.460;  221.937;  209.114
716.436;   73.662;  -78.063; -104.886
716.700;  -81.735; -818.063; -692.886
716.965; -113.058; -794.063; -807.887
717.230;  -62.131; -339.063; -392.887
717.494;  -21.154;  -40.062; -134.888
717.759;  -68.127; -784.062; -640.888
718.024;    3.900;  269.938;  250.112
718.288;   65.403;  685.938;  395.111
718.553; -136.595; -803.062; -977.889
718.817; -117.093; -883.061; -899.889
719.082;  -27.741; -115.061; -125.890
719.346; -120.814;-1000.061; -947.890
719.611;  -36.011; -300.061; -255.891
719.875;  -78.709; -568.060; -537.891
720.140;  -41.657; -453.060; -603.891
720.404;   68.445; -136.060; -249.892
720.668; 1087.122; -475.060; -411.892
720.933;  480.349;  146.940;  137.108
721.197;  -68.498; -667.059; -600.893
721.461; -115.971; -851.059; -826.893
721.725;   -0.794;  -21.059; -250.894
721.990;  -48.417; -284.059; -204.894
722.254;  -18.465;  -26.059; -108.894
722.518;  -55.112; -286.058; -442.895
722.782;  -79.510; -743.058; -594.895
723.046;  145.042;  614.942;  570.105
723.310;   31.244;  374.942;  210.104
723.574;  -71.529; -654.058; -614.896
723.838; -100.202; -576.057; -642.897
724.102;  -28.649; -226.057; -239.897
724.366; -113.897;-1032.057; -978.897
724.630;  -81.545; -749.057; -571.898
724.894;  -65.118; -722.057; -514.898
725.158;    7.384;   38.944; -295.898
725.422;  -38.638; -394.056; -327.899
725.685;  -33.111; -441.056; -349.899
725.949;  -49.809; -566.056; -519.900
726.213;  -31.682; -732.056; -811.900
726.477;  269.820;-1020.055; -933.900
726.740;  235.472; -274.055; -104.901
727.004;  488.550; -384.055; -510.901
727.268; 4818.077; -442.055; -400.901
727.531; 1589.804; -961.055; -775.902
727.795;   -1.494; -713.054; -673.902
728.059;  -26.492; -552.054; -557.903
728.322;  -52.390; -841.054; -669.903
728.586;   63.563; -692.054; -701.903
728.849;  -58.460; -695.053; -756.904
729.112;  -94.483; -812.053; -912.904
729.376; -104.631; -959.053; -905.904
729.639;  -62.129; -536.053; -536.905
729.903; -100.451; -733.053; -699.905
730.166;  -40.049; -437.052; -399.906
730.429;  -14.097; -317.052; -468.906
730.693;  -56.895; -355.052; -894.906
730.956;  221.182;  810.948;  651.093
731.219;  959.084; -310.052; -103.907
731.482;  208.262;-1003.051; -894.907
731.745;  201.289; -794.051; -935.908
732.009;   43.266;  -30.051;   50.092
732.272;  -72.182; -904.051; -771.909
732.535;  -27.155; -300.051; -310.909
732.798; -129.477;-1083.050;-1166.909
733.061;  -46.725; -430.050; -456.910
733.324;   10.277;   31.950; -180.910
733.587;   62.929;  290.950;  365.090
733.850;  -39.819; -973.049;-1050.911
734.113;   50.483;   33.951;   32.089
734.376;   33.761; -328.049; -447.912
734.639;  247.613; 1188.951; 1011.088
734.901;  100.765; -180.049; -402.912
735.164;  652.942; -883.048; -837.913
735.427; 1831.394; -166.048; -355.913
735.690;  186.472; -205.048; -234.913
735.952;    6.749; -923.048; -925.914
736.215;   34.276;-1113.048;-1009.914
736.478;   94.478; -771.047; -774.915
736.740;  267.180;   33.953;  129.085
737.003;  774.557; -658.047; -672.915
737.266; 5252.460;  -94.047;   46.084
737.528;  623.437; -682.047; -660.916
737.791;  450.689; -316.046; -327.916
738.053;  963.391;  465.954;  649.083
738.316;12828.518; -162.046; -136.917
738.578;10543.145; -770.046; -736.918
738.841;  618.923; -382.046; -446.918
739.103;  270.825; -875.045; -777.918
739.365;  718.927;   79.955;  -69.919
739.628;   58.154; -884.045; -805.919
739.890;   12.631; -758.045; -710.919
740.152;  -10.016; -692.044; -754.920
740.414;   33.561; -408.044; -359.920
740.677;  -25.762; -785.044; -634.921
740.939;  -12.835; -587.044; -487.921
741.201;  365.392; -432.044; -572.921
741.463;  110.644; -689.043; -745.922
741.725;   34.972;  -21.043; -199.922
741.987;   83.474;  220.957;  116.078
742.249;   43.676; -751.043; -859.923
742.511;  326.278; -703.043; -794.923
742.773;   70.005; -546.042; -546.924
743.035;  144.333;  796.958;  533.076
743.297;   -3.715; -963.042;-1013.924
743.559;  997.387; -278.042; -262.925
743.821;  162.014; -735.042; -744.925
744.083;   48.291;  -44.041; -149.925
744.345;  -56.757; -869.041; -892.926
744.607;   61.746;   75.959;  122.074
744.868;  -21.802; -490.041; -554.927
745.130;  -87.400; -994.041;-1008.927
745.392;   65.677;   -1.040;  -44.927
745.653;   22.229; -411.040; -378.928
745.915;  164.407;  896.960;  631.072
746.177;   89.484;   35.960;  -43.928
746.438;   53.561; -428.040; -543.929
746.700;    1.813; -947.039; -988.929
746.961;   61.540; -659.039; -740.930
747.223;  225.642; -190.039;  -74.930
747.484;  159.920; -391.039; -471.930
747.746;  231.422;  -23.038; -106.931
748.007;  211.999; -647.038; -689.931
748.269;  419.251; -468.038; -440.931
748.530;  707.903; -852.038; -638.932
748.791;  410.605; -354.038; -420.932
749.053;  595.783;  286.963;  163.067
749.314;  630.485; -236.037; -169.933
749.575;  768.862; -945.037; -905.933
749.836; 1195.914; -217.037;   86.066
750.098; 2979.941;  -60.037;  -21.934
750.359;47611.044;  414.964;  555.066
750.620;14415.096; -121.036; -220.935
750.881; 1452.773; -585.036; -513.935
751.142; 1785.525; -950.036; -938.936
751.403;20380.202; -789.036; -705.936
751.664;10844.954;-1034.035; -999.936
751.925;  707.932; -175.035; -262.937
752.186;  396.434; -298.035; -278.937
752.447;  229.936; -590.035; -445.937
752.708;  122.663; -532.035; -648.938
752.969;   59.515; -566.034; -576.938
753.230;   55.168; -777.034; -672.939
753.491;   48.420; -650.034; -631.939
753.751;  102.472;  109.966;   19.061
754.012;  117.124;  258.967;  181.060
754.273;  109.851; -174.033;  -71.940
754.534;   50.853; -487.033; -580.940
754.794;  -57.794; -926.033; -911.941
755.055;  175.283; 1051.967;  881.059
755.316;  -11.415; -700.032; -566.942
755.576;    2.937; -606.032; -576.942
755.837;  -11.261; -527.032; -695.942
756.097;   -2.708; -530.032; -564.943
756.358;  -41.781; -725.032; -770.943
756.618;  -10.754; -705.031; -641.943
756.879;   43.373; -254.031; -349.944
757.139;  -87.025;-1098.031;-1116.944
757.400;  -22.823; -538.031; -553.945
757.660;    1.730; -365.031; -401.945
757.920;   31.532; -266.030; -228.945
758.181;   16.909; -468.030; -351.946
758.441;  -74.714; -870.030; -809.946
758.701;   -5.937; -308.030; -215.946
758.961;   -2.860; -220.030; -278.947
759.222;  -16.857; -574.029; -502.947
759.482;  -47.230; -683.029; -723.948
759.742;  -63.003; -706.029; -547.948
760.002;   20.499;  -83.029; -143.948
760.262;   37.426;   50.972;  182.051
760.522;  -30.696; -498.028; -574.949
760.782;  -31.969; -738.028; -612.949
761.042;  -26.242; -618.028; -573.950
761.302;   70.735;   55.972;  -18.950
761.562;   46.987; -164.027; -154.951
761.822;  116.764; -710.027; -551.951
762.082;  -25.683;-1104.027;-1093.951
762.342;   80.719; -328.027; -403.952
762.601;   85.471; -567.027; -506.952
762.861;  411.723; -281.026; -207.952
763.121;  407.675; -406.026; -411.953
763.381; 6501.528; -499.026; -485.953
763.640; 8693.705; -139.026; -307.954
763.900;  379.707; -242.026; -203.954
764.160;   91.909; -458.025; -491.954
764.419;    1.461; -726.025; -782.955
764.679;  -58.712; -795.025; -726.955
764.939;   -8.709; -124.025; -210.955
765.198;  -65.582; -608.025; -563.956
765.458;  -74.605; -710.024; -612.956
765.717;  -57.828; -454.024; -590.957
765.976;  -36.951; -428.024; -411.957
766.236;  -72.073; -475.024; -610.957
766.495;   15.979;  260.977;   73.042
766.755;  -56.244;-1090.023; -987.958
767.014;   48.983; -594.023; -665.958
767.273;  -39.065; -373.023; -397.959
767.533;  -38.288; -228.023; -307.959
767.792;  -23.085; -151.022; -188.960
768.051;  -47.208; -228.022; -276.960
768.310;  -73.306; -546.022; -650.960
768.569;    2.721; -161.022;    4.039
768.828;  -23.802; -285.022; -363.961
769.088;  -96.024;-1050.021; -942.961
769.347;  -65.522; -755.021; -599.962
769.606;  -72.795; -876.021; -857.962
769.865; -107.168;-1016.021;-1033.963
770.124;   22.234; -411.021; -336.963
770.383;  -19.264; -778.020; -910.963
770.641;   43.114; -398.020; -400.964
770.900;  -32.734; -953.020; -846.964
771.159;   -9.157; -851.020; -951.964
771.418;   11.395; -917.020; -779.965
771.677;  181.572; -224.019; -293.965
771.936;  215.499; -794.019; -865.966
772.194; 2318.952; -465.019; -437.966
772.453;13836.079; -213.019; -391.966
772.712; 1037.456;  416.982;  329.033
772.970;  149.033;   32.982;   63.033
773.229;  105.760;  -22.018;  102.033
773.488;  -58.437; -814.018; -770.968
773.746;   73.815;  296.982;  335.032
774.005;   13.217;  190.983;  -22.969
774.263;   20.119;  243.983;  177.031
774.522;  -33.504; -422.017; -548.969
774.780;  -68.552; -484.017; -417.970
775.039;  -85.649; -551.017; -531.970
775.297;  -29.372; -135.016; -351.970
775.555;  -79.295; -489.016; -612.971
775.814; -118.068; -618.016; -570.971
776.072; -105.966; -749.016; -740.971
776.330;  -91.688; -630.016; -520.972
776.589; -115.311; -703.015; -721.972
776.847; -122.259; -645.015; -624.973
777.105; -165.657;-1016.015;-1032.973
777.363;  -79.155; -459.015; -454.973
777.621; -125.078; -660.015; -717.974
777.879;  -19.050;  -42.014;   32.026
778.138;  -95.023; -554.014; -717.974
778.396;  -94.896; -585.014; -526.975
778.654; -148.044;-1015.014; -970.975
778.912;  -61.567; -269.014; -371.976
779.170; -120.964; -880.013; -803.976
779.427; -123.712; -922.013; -897.976
779.685; -127.810; -880.013; -832.977
779.943;  -50.483; -654.013; -593.977
780.201; -147.131; -964.012; -883.978
780.459;  -92.954; -651.012; -610.978
780.717;  -86.126; -440.012; -390.978
780.974;  -87.649; -449.012; -490.979
781.232;  -71.347; -358.012; -338.979
781.490;  -70.545; -551.011; -472.979
781.747;  -90.093; -555.011; -476.980
782.005;    4.634;  462.989;  254.020
782.263; -158.988; -542.011;-1004.981
782.520;  -75.961; -326.011; -501.981
782.778; -162.659;-1013.010;-1051.981
783.035; -161.607; -962.010; -938.982
783.293;  -54.955; -248.010; -206.982
783.550;  -57.802; -134.010; -198.982
783.808; -126.850; -764.010; -776.983
784.065; -154.323; -745.009; -874.983
784.322;  -48.371;   25.991;  -86.984
784.580; -120.744; -915.009; -771.984
784.837;  -99.942; -392.009; -466.984
785.094; -132.814; -783.009; -762.985
785.352;  -66.162; -304.008; -404.985
785.609;  -72.110; -934.008; -839.985
785.866;  -71.583; -345.008; -401.986
786.123;  -39.631; -639.008; -583.986
786.380;  -88.003; -665.008; -604.987
786.637;  -26.151; -225.007; -380.987
786.895;   23.501; -456.007; -543.987
787.152;  -53.997; -135.007; -267.988
787.409;  -45.595; -123.007; -225.988
787.666;  -88.343; -299.006; -378.988
787.923; -106.240; -616.006; -695.989
788.179; -104.838; -551.006; -584.989
788.436;  -97.736; -585.006; -585.990
788.693;  -31.934;  -92.006;  -87.990
788.950;  155.068; -125.005; -112.990
789.207;  354.996; -381.005; -372.991
789.464;  -57.877; -161.005; -301.991
789.720;   -4.175;  150.995;  110.009
789.977; -164.748;-1003.005; -671.992
790.234;  -23.646;   44.996;  -66.992
790.490; -150.544; -884.004;-1031.993
790.747;  -11.741;  -85.004;   22.007
791.004;  -24.289; -426.004; -348.993
791.260;  -72.662; -430.004; -560.994
791.517;  -92.235; -843.003; -788.994
791.773;  -28.958; -379.003; -342.994
792.030;  -97.856; -596.003; -660.995
792.286;  -89.603; -686.003; -636.995
792.543;  -17.476;  -74.002; -159.995
792.799;  -51.774; -584.002; -382.996
793.055; -158.547;-1179.002;-1210.996
793.312;  -79.870; -827.002; -816.997
793.568;  -35.742; -746.002; -599.997
793.824;   13.635; -226.001; -284.997
794.081;   27.612; -447.001; -508.998
794.337;   63.739; -664.001; -561.998
794.593; 1039.416; -319.001; -271.999
794.849; 6757.818; -746.001; -772.999
795.105;  423.421; -270.000; -261.999
795.361;   33.248; -490.000; -457.000
795.617;  -51.925; -875.000; -945.000
795.873;  -38.375; -360.000; -407.000
796.129;  -16.400; -368.000; -306.000
796.385;    7.200; -124.000; -156.000
796.641;   76.275;  412.000;  550.000
796.897;  -71.275; -666.000; -635.000
797.153;   66.175;  453.000;  357.000
797.409;  -79.225; -785.000; -868.000
797.665;  -45.325; -625.000; -732.000
797.921;  -55.075; -775.000; -762.000
798.176;  -31.150; -744.000; -747.000
798.432;  -12.925; -824.000; -596.000
798.688;  -35.075;-1174.000;-1078.000
798.943;  129.850; -165.000; -147.000
799.199;   49.400;-1005.000; -959.000
799.455;  286.225;  369.000;  316.000
799.710;  197.600; -813.000; -380.000
799.966;  408.325; -162.000; -160.000
800.221;  601.850; -638.000; -721.000
800.477;11828.850; -743.000; -710.000
800.732;13468.650; -773.000; -800.000
800.988;  837.125;  205.000;  -19.000
801.243; 1750.325; -454.000; -344.000
801.498; 9545.000; -814.000; -739.000
801.754;  650.175; -289.000; -163.000
802.009;  125.575; -257.000; -335.000
802.264;  -15.225; -967.000;-1033.000
802.520;   49.525;  222.000;   -3.000
802.775;  -41.650; -524.000; -359.000
803.030;   64.800;  395.000;  356.000
803.285;  -95.125; -840.000; -903.000
803.540;  -46.200; -686.000; -699.000
803.795;   -6.900; -648.000; -583.000
804.051;  -28.150; -279.000; -346.000
804.306;   27.675;  168.000;  128.000
804.561;  178.700;  451.000;  362.000
804.816;  142.350;  714.000;  861.000
805.071;   34.500; -185.000; -280.000
805.325;  291.575; -257.000; -427.000
805.580;  -73.725; -841.000; -877.000
805.835;   -5.150; -204.000; -297.000
806.090;  -59.100; -760.000; -676.000
806.345;  -12.850; -344.000; -264.000
806.600;    2.125; -549.000; -632.000
806.854;   -2.850; -408.000; -538.000
807.109;   11.200; -493.000; -577.000
807.364;   12.175; -407.000; -328.000
807.618;   15.850; -415.000; -381.000
807.873;   62.850; -470.000; -494.000
808.128;  126.600; -257.000; -518.000
808.382;  132.400; -224.000; -332.000
808.637;   90.225; -440.000; -511.000
808.891;  192.575; -257.000; -180.000
809.146;  125.200; -902.000; -794.000
809.400;  294.675; -848.000; -923.000
809.654;  363.625; -779.000; -551.000
809.909;  526.900; -841.000; -927.000
810.163; 5883.700; -813.000; -651.000
810.418;19665.525; -940.000; -861.000
810.672; 1265.125; -685.000; -690.000
810.926;  742.300; -993.000; -973.000
811.180; 1311.175; -439.000; -372.000
811.434;28944.225;  240.000;  135.000
811.689;15308.825; -231.000; -365.000
811.943;  751.750; -936.000; -953.000
812.197;  356.375; -893.000; -671.000
812.451;  153.575; -379.000; -514.000
812.705;   -6.800; -809.000; -619.000
812.959;   10.725; -263.000; -388.000
813.213;   13.500; -283.000; -209.000
813.467;   73.325;  470.000;  253.000
813.721;  -97.725; -764.000; -792.000
813.975; -107.925; -826.000; -877.000
814.229;   55.575;  430.000;  353.000
814.482;  -55.000; -517.000; -566.000
814.736; -102.800; -766.000; -744.000
814.990; -113.425; -779.000; -872.000
815.244;  -40.700; -228.000; -285.000
815.497;  -85.925; -636.000; -601.000
815.751;  -12.075; -141.000;   82.000
816.005;  -80.875; -470.000; -586.000
816.258;  -50.225; -510.000; -363.000
816.512; -106.175; -693.000; -610.000
816.766;   -4.050;  121.000;  157.000
817.019;   34.725;  148.000;  149.000
817.273; -100.875;-1000.000; -802.000
817.526;  -42.350; -206.000; -173.000
817.779;  -32.150;-1049.000; -960.000
818.033;  -43.025; -693.000; -807.000
818.286; -114.550; -725.000; -792.000
818.540;  -76.175; -403.000; -403.000
818.793;  -77.675; -402.000; -489.000
819.046; -109.900; -582.000; -520.000
819.299;  -48.650; -157.000; -166.000
819.553; -105.350; -552.000; -592.000
819.806; -159.950;-1016.000; -838.000
820.059;  -50.750; -334.000; -354.000
820.312;   13.975;  152.000;  185.000
820.565;   -3.875;  110.000;  -27.000
820.818;  -35.600;  -59.000; -173.000
821.071; -153.150;-1041.000; -957.000
821.324;  -97.650; -536.000; -540.000
821.577; -100.000; -457.000; -483.000
821.830;  -50.800; -270.000; -172.000
822.083; -125.475; -733.000; -288.000
822.336;  -39.225; -261.000; -167.000
822.589; -117.125; -805.000; -688.000
822.842; -129.900; -875.000; -770.000
823.094; -157.875;-1076.000;-1114.000
823.347; -127.025; -925.000; -729.000
823.600;   12.125;  402.000;  187.000
823.853;  -36.300; -311.000; -267.000
824.105;  -58.900; -331.000; -575.000
824.358;  -82.450; -617.000; -716.000
824.611;   47.725;  234.000;   40.000
824.863;  -28.375; -612.000; -591.000
825.116;   67.400;  -33.000;   27.000
825.368;  140.650; -366.000; -372.000
825.621;  242.325; -186.000; -240.000
825.873;  149.875; -704.000; -737.000
826.126;  687.650; -669.000; -641.000
826.378;14356.350; -389.000; -505.000
826.630; 4833.800; -890.000; -898.000
826.883;  136.775; -754.000; -693.000
827.135;   89.725; -279.000; -270.000
827.387;  -73.250; -893.000; -839.000
827.639;  -24.300;  -86.000;   32.000
827.892; -116.425; -742.000; -582.000
828.144; -140.550; -848.000; -804.000
828.396;  -28.175;  104.000;  -80.000
828.648;  -90.825; -440.000; -333.000
828.900; -131.350; -702.000; -795.000
829.152;  -99.200; -684.000; -683.000
829.404;  -65.475; -215.000; -267.000
829.656;    0.400;  321.000;  214.000
829.908;  -22.075;  393.000;  229.000
830.160; -158.050;-1064.000;-1047.000
830.412;  -97.075; -481.000; -430.000
830.664; -107.375; -557.000; -665.000
830.916;  -61.675; -268.000; -206.000
831.167; -174.925;-1073.000; -951.000
831.419; -106.675; -623.000; -566.000
831.671; -134.775; -764.000; -809.000
831.923;  -82.075; -311.000; -447.000
832.174;  -70.000; -273.000; -331.000
832.426;  -98.975; -493.000; -582.000
832.678; -172.100;-1043.000;-1091.000
832.929; -143.800; -947.000; -935.000
833.181;  -43.000; -575.000; -677.000
833.432;  -43.250;  -59.000; -186.000
833.684;  -15.675;  112.000;  -27.000
833.935; -106.225; -610.000; -566.000
834.187; -115.475; -829.000; -823.000
834.438;  -36.600;  -58.000;  -25.000
834.689;  -55.500; -255.000; -123.000
834.941;  -48.200; -343.000; -244.000
835.192;  -86.825; -590.000; -533.000
835.443;  -93.675; -419.000; -506.000
835.695;  -21.550;  138.000;  -16.000
835.946;  -83.075; -608.000; -378.000
836.197;  -92.625; -599.000; -622.000
836.448;  -80.825; -528.000; -395.000
836.699;  -57.175; -253.000; -341.000
836.950;    5.500;   72.000;    7.000
837.201; -141.225;-1003.000; -987.000
837.452;  -36.500; -356.000; -170.000
837.703;  -83.450; -791.000; -737.000
837.954;  -31.900; -205.000; -365.000
838.205;  -53.750;-1029.000;-1008.000
838.456;  226.950; -196.000; -282.000
838.707;   33.350; -423.000; -519.000
838.958;   47.500; -634.000; -647.000
839.209;  336.800;   18.000;   40.000
839.460;  174.275; -439.000; -201.000
839.710;  211.800; -135.000; -297.000
839.961;  485.875;  730.000;  612.000
840.212;  430.700; -382.000; -497.000
840.462; 1292.225; -328.000; -277.000
840.713;20595.950; -571.000; -536.000
840.964;10877.025;  -62.000; -143.000
841.214;  648.725; -384.000; -624.000
841.465;  635.600; -214.000; -141.000
841.715;  561.725; -417.000; -380.000
841.966;  668.225; -746.000; -685.000
842.216; 7339.925; -330.000; -431.000
842.466;36078.775; -169.000; -313.000
842.717; 2759.825; -964.000; -952.000
842.967;  332.425; -635.000; -641.000
843.217;  299.975;   20.000;   28.000
843.468;   77.925; -104.000; -132.000
843.718;  -15.675; -718.000; -726.000
843.968;  -79.350; -837.000; -765.000
844.218;   36.475; -315.000; -262.000
844.469;  -38.050; -577.000; -561.000
844.719;  -90.275; -537.000; -682.000
844.969;  -86.575; -550.000; -580.000
845.219; -136.275; -814.000; -862.000
845.469;  -65.575; -392.000; -342.000
845.719; -132.550; -792.000; -884.000
845.969;  -14.275;  119.000;  174.000
846.219; -102.850; -738.000; -720.000
846.469;   21.875;  464.000;  432.000
846.718;  -49.325; -115.000;   31.000
846.968; -139.400; -827.000; -827.000
847.218;  -46.175; -224.000; -371.000
847.468;   -0.850; -586.000; -555.000
847.718; -134.550; -827.000; -798.000
847.967; -115.350; -826.000; -915.000
848.217;  -69.775; -449.000; -569.000
848.467;  -46.600; -405.000; -376.000
848.716;  -94.375; -708.000; -725.000
848.966;   32.200; -372.000; -358.000
849.215;  -33.525; -428.000; -419.000
849.465;  -72.875; -785.000; -615.000
849.714; -106.425;-1132.000;-1150.000
849.964;  -47.275; -551.000; -613.000
850.213;    3.700; -393.000; -355.000
850.463;  108.850;  137.000;  340.000
850.712;   41.950; -542.000; -567.000
850.961;   64.200; -739.000; -678.000
851.211;  164.350; -513.000; -504.000
851.460;  271.800; -635.000; -650.000
851.709;  724.000;  -25.000;   18.000
851.958;11965.125; -912.000; -750.000
852.208;19424.375; -859.000; -879.000
852.457;  823.400; -181.000;  -13.000
852.706;  156.425; -791.000; -823.000
852.955;   88.575; -507.000; -528.000
853.204;  -41.775; -521.000; -461.000
853.453;  -56.875; -418.000; -458.000
853.702; -121.100; -660.000; -750.000
853.951;  -96.200; -532.000; -520.000
854.200; -103.900; -613.000; -562.000
854.449; -118.225; -695.000; -661.000
854.698; -103.050; -340.000; -279.000
854.946;  -73.350; -181.000; -284.000
855.195; -141.000; -843.000; -868.000
855.444;  -77.400; -395.000; -420.000
855.693; -123.900; -345.000; -432.000
855.941; -107.975; -387.000; -516.000
856.190;  -35.500; -256.000; -382.000
856.439; -104.550; -652.000; -703.000
856.687;  -60.625;  -99.000;  -72.000
856.936; -102.750; -621.000; -323.000
857.184; -192.775;-1067.000;-1020.000
857.433; -103.575; -423.000; -512.000
857.681; -155.850; -989.000; -953.000
857.930;  -65.250; -282.000; -433.000
858.178; -171.525; -856.000; -929.000
858.427; -135.850; -802.000; -781.000
858.675; -108.650; -377.000; -544.000
858.923;  -90.750; -527.000; -819.000
859.172; -181.000;-1094.000;-1070.000
859.420;  -87.025; -339.000; -239.000
859.668; -128.950; -624.000; -628.000
859.916;  -18.575;  109.000;  115.000
860.164; -102.525; -699.000; -603.000
860.413;  341.300; -878.000; -696.000
860.661;  388.000; -709.000; -577.000
860.909;  -77.250; -339.000; -325.000
861.157;  -82.725; -277.000; -444.000
861.405; -107.825; -534.000; -670.000
861.653;   12.975;  310.000;  310.000
861.901;  222.600; -543.000; -613.000
862.149;   77.975; -801.000; -824.000
862.396;  -72.500; -297.000; -187.000
862.644;  -84.850; -368.000; -347.000
862.892;  -32.500;   98.000;  138.000
863.140; -115.375; -549.000; -530.000
863.388; -136.675; -815.000; -759.000
863.635; -116.675; -642.000; -601.000
863.883;   -8.450;  231.000;  190.000
864.131;  -93.625; -288.000; -357.000
864.378; -110.075; -675.000; -540.000
864.626; -103.925; -347.000; -415.000
864.873;  -99.375; -556.000; -505.000
865.121; -130.075; -714.000; -799.000
865.368;  -34.725; -173.000;   75.000
865.616;  -29.225;  -33.000;  -40.000
865.863;  -51.200; -462.000; -506.000
866.111;  -79.400; -795.000; -824.000
866.358;   76.425; -426.000; -420.000
866.605; 2921.050;  -64.000; -804.000
866.853; 3945.875; -621.000; -537.000
867.100;   59.400; -728.000; -775.000
867.347;  -72.975; -672.000; -611.000
867.594;  -56.075; -740.000; -714.000
867.841;  129.325;   97.000;   17.000
868.089; -132.375; -746.000; -698.000
868.336; -106.025; -477.000; -420.000
868.583; -134.950; -637.000; -741.000
868.830;  -57.975; -131.000; -170.000
869.077; -156.600; -859.000; -787.000
869.324; -116.675; -502.000; -458.000
869.571; -116.425; -398.000; -430.000
869.818; -106.950; -485.000; -439.000
870.065; -106.800; -439.000; -513.000
870.311; -105.000; -456.000; -542.000
870.558;  -95.825; -332.000; -311.000
870.805;  -63.900; -320.000; -384.000
871.052; -111.075; -494.000; -369.000
871.298;  -59.675; -204.000; -131.000
871.545;  -66.150; -151.000; -185.000
871.792;  -87.450; -173.000; -222.000
872.038;  -67.875;   43.000; -126.000
872.285; -118.875; -496.000; -387.000
872.532; -104.700; -357.000; -387.000
872.778;   19.575;  556.000;  403.000
873.025;  -94.925; -384.000; -359.000
873.271;    8.675;  501.000;  578.000
873.517;  -31.025; -133.000; -209.000
873.764;   -5.250; -193.000;  -80.000
874.010;  -65.400; -143.000; -230.000
874.257;  -45.650;  123.000;   90.000
874.503; -123.250; -579.000; -479.000
874.749;  -59.975;   31.000;  275.000
874.995;  -60.825;  -80.000;  -20.000
875.242; -119.850; -540.000; -478.000
875.488; -106.700; -414.000; -439.000
875.734;  -48.475; -106.000; -234.000
875.980;  243.050; -872.000;-1032.000
876.226;  567.100; -157.000; -255.000
876.472;    9.250;  343.000;  237.000
876.718;  -34.000;  184.000;  158.000
876.964;  -61.075;   56.000;   55.000
877.210; -139.225; -547.000; -677.000
877.456; -125.275; -630.000; -557.000
877.702; -168.825; -821.000; -832.000
877.948; -108.525; -377.000; -497.000
878.193;   11.850;  361.000;  255.000
878.439;  -74.025; -487.000; -472.000
878.685;  -84.325; -272.000; -343.000
878.931; -135.425; -618.000; -676.000
879.176;  -79.375; -201.000; -201.000
879.422; -166.200; -933.000; -820.000
879.668;   40.025;   10.000;   79.000
879.913;  202.425;   53.000;  137.000
880.159;  -46.325; -112.000;  -17.000
880.404;  -51.500; -152.000; -162.000
880.650;  -32.050;   91.000;  141.000
880.895; -159.400; -670.000; -710.000
881.141; -117.550; -454.000; -428.000
881.386; -144.175; -503.000; -658.000
881.631;  -82.450; -311.000; -166.000
881.877;  -38.400;  112.000;  -13.000
882.122; -120.450; -684.000; -600.000
882.367;  -93.950; -136.000; -186.000
882.612;  -71.425;  -80.000; -176.000
882.858; -164.800; -877.000; -823.000
883.103;  -93.800; -297.000; -267.000
883.348; -141.075; -759.000; -852.000
883.593; -136.475; -677.000; -602.000
883.838;  -49.025; -311.000;  -24.000
884.083;   36.650;  353.000;  288.000
884.328;  -89.100; -564.000; -545.000
884.573;  -46.950; -196.000; -143.000
884.818;  261.750; -694.000; -531.000
885.063;  323.200; -348.000; -315.000
885.308;  -92.175; -475.000; -398.000
885.553;  -21.425;  245.000;  325.000
885.797; -114.800; -545.000; -615.000
886.042;  -51.725;    8.000;   58.000
886.287;  -90.550; -253.000; -211.000
886.532;  -58.950;   26.000;  204.000
886.776; -101.050; -407.000; -525.000
887.021; -144.550; -621.000; -574.000
887.265; -154.175; -685.000; -689.000
887.510; -133.375; -557.000; -496.000
887.755;  -92.775; -194.000; -164.000
887.999; -123.825; -552.000; -575.000
888.244;  -58.275;  -58.000;  161.000
888.488;   -7.600;  371.000;  393.000
888.732; -126.975; -368.000; -520.000
888.977; -123.025; -622.000; -567.000
889.221; -147.700; -683.000; -659.000
889.465; -113.525; -422.000; -566.000
889.710;  -80.550;  -56.000; -299.000
889.954;    3.075;  579.000;  467.000
890.198; -140.625; -584.000; -707.000
890.442; -147.450; -716.000; -712.000
890.687; -155.550; -800.000; -753.000
890.931;  -93.175; -273.000; -210.000
891.175; -126.275; -502.000; -500.000
891.419;  -78.600; -105.000; -110.000
891.663;  -88.350; -239.000; -112.000
891.907; -154.100; -801.000; -545.000
892.151; -173.100; -920.000; -815.000
892.395; -112.000; -274.000; -387.000
892.638;  -23.450;  408.000;  291.000
892.882; -179.075; -780.000; -867.000
893.126;    9.300;  758.000;  558.000
893.370;  -93.500; -167.000; -168.000
893.614; -146.725; -714.000; -715.000
893.857;  -90.925; -183.000; -197.000
894.101; -129.725; -527.000; -631.000
894.345;  -47.300;  300.000;  150.000
894.588;   15.225;  569.000;  380.000
894.832;  -85.250; -178.000;  -84.000
895.075;  -80.100;   15.000;  -92.000
895.319; -128.975; -552.000; -420.000
895.563; -111.075; -413.000; -353.000
895.806; -140.350; -628.000; -741.000
896.049;  -61.300; -576.000; -368.000
896.293;  126.150;  527.000;  405.000
896.536;  -39.250; -465.000; -468.000
896.779;  -68.550; -149.000;   -1.000
897.023; -136.200; -751.000; -714.000
897.266;  -31.775;  325.000;  269.000
897.509; -173.425; -900.000; -901.000
897.752;  -50.600;  149.000;  171.000
897.996; -207.225; -972.000; -864.000
898.239;  -39.725;  168.000;  102.000
898.482; -131.625; -431.000; -453.000
898.725;  -26.900;  101.000;   53.000
898.968; -135.475; -609.000; -744.000
899.211; -100.475; -513.000; -361.000
899.454; -109.950; -633.000; -539.000
899.697;  -62.875;   90.000;  -43.000
899.940; -159.925; -761.000; -757.000
900.182;  -97.375; -335.000; -405.000
900.425;  -97.925; -150.000; -298.000
900.668;  -35.900;  491.000;  350.000
900.911; -100.450; -292.000; -345.000
901.154;  -58.650;  141.000;   -3.000
901.396; -129.300; -407.000; -412.000
901.639; -149.275; -430.000; -496.000
901.882; -175.475; -790.000; -809.000
902.124;  -84.400;  -29.000; -143.000
902.367; -127.125; -315.000; -361.000
902.609; -131.575; -476.000; -453.000
902.852;  -77.700; -108.000; -260.000
903.094; -123.300; -458.000; -337.000
903.337;  -62.875;  -26.000;   53.000
903.579; -105.350; -228.000; -441.000
903.821; -146.850; -597.000; -744.000
904.064;  -62.875;   85.000;  127.000
904.306;  -85.525; -126.000; -166.000
904.548; -101.050; -152.000; -366.000
904.790; -106.975; -195.000; -340.000
905.033; -121.600; -625.000; -577.000
905.275; -140.475; -513.000; -524.000
905.517;   52.525;  468.000;  256.000
905.759;  -30.575; -667.000; -761.000
906.001;  -98.075; -322.000; -369.000
906.243;  -59.800; -162.000; -224.000
906.485;  153.125; -265.000; -207.000
906.727;  229.225; -499.000; -542.000
906.969;  -11.925;  -30.000; -135.000
907.211;  164.700; -316.000; -382.000
907.453;  387.700; -188.000; -237.000
907.695;   66.375; -158.000; -385.000
907.936;   35.550;  818.000;  706.000
908.178;  -61.525;   92.000; -135.000
908.420;  -61.525; -111.000; -162.000
908.662; -129.825; -633.000; -682.000
908.903;  -92.000; -208.000; -123.000
909.145;  -69.925; -240.000; -305.000
909.386;   -0.200;  315.000;  280.000
909.628;   36.500;  363.000;  397.000
909.870;   14.200;   29.000;  264.000
910.111;  -85.225; -809.000; -949.000
910.353;   19.175; -123.000; -161.000
910.594;   11.100; -574.000; -606.000
910.835;   98.950; -265.000; -326.000
911.077;  161.400; -503.000; -604.000
911.318;  294.300; -505.000; -471.000
911.559;  481.650; -577.000; -880.000
911.801; 1272.100; -284.000; -280.000
912.042; 9126.275;  -50.000; -159.000
912.283;28325.575;  404.000;  371.000
912.524; 5602.000; -396.000; -457.000
912.765;  581.175; -193.000;   79.000
913.006;  272.525; -307.000; -338.000
913.247;   76.550; -270.000; -290.000
913.488;    6.700;  -43.000;   30.000
913.729;  -72.600; -373.000; -373.000
913.970;  -64.000;  -96.000; -292.000
914.211;  -70.275; -160.000; -198.000
914.452;  -63.225; -118.000;  -11.000
914.693;   10.675;  510.000;  592.000
914.934;   11.475;  510.000;  440.000
915.175;  -62.025;   53.000;  -95.000
915.415;  -76.400; -137.000;   27.000
915.656;  -52.475;  -28.000;  192.000
915.897;  -78.525; -252.000;  -82.000
916.137;  -63.675;   74.000;   -9.000
916.378; -137.000; -573.000; -517.000
916.619;  -78.000; -159.000;  -63.000
916.859;  -18.725;  303.000;  330.000
917.100;  125.300; 1655.000; 1070.000
917.340;   51.300;  930.000;  728.000
917.581;   52.025;  965.000;  789.000
917.821;  -11.875; -171.000;  143.000
918.061;   52.650; -199.000;  -72.000
918.302;  -27.225; -152.000; -211.000
918.542;    3.300;  -22.000;    3.000
918.782;   72.100;  369.000;  377.000
919.023;  180.575;  360.000;  427.000
919.263; 1897.575; 8131.000;  202.000
919.503; 1702.875; -137.000;  -54.000
919.743;  845.000;  390.000;  266.000
919.983;  434.225; -134.000;  -26.000
920.223;  141.625;  135.000;   14.000
920.463;  211.200;  631.000;  554.000
920.703;  199.550;   84.000;   39.000
920.943;  260.400; -110.000;   90.000
921.183;  361.475; -414.000; -405.000
921.423;  688.925;  307.000;  546.000
921.663;  989.650; -174.000; -257.000
921.903; 2050.525;  237.000;  173.000
922.143;10688.625;  372.000;  389.000
922.383;44366.750;  158.000;  115.000
922.622;19407.475; -120.000;  -15.000
922.862; 1973.400;  796.000;  785.000
923.102;  726.900;  -51.000;   33.000
923.341;  305.700;   59.000;   74.000
923.581;  131.125;  450.000;  360.000
923.821;   61.725;  301.000;  398.000
924.060;   25.975;  351.000;  193.000
924.300;  -34.150;  -16.000; -128.000
924.539;    4.350;  584.000;  473.000
924.779;   17.625;  812.000;  597.000
925.018;  -47.400;  247.000;  353.000
925.257;   -7.350;  595.000;  666.000
925.497;  -40.075;  447.000;  412.000
925.736;  -85.350;  -35.000;  102.000
925.975;    7.050;  687.000;  669.000
926.214;   23.975;  907.000;  850.000
926.454;   30.450;  706.000;  757.000
926.693;  -34.675;  419.000;  543.000
926.932;   33.225; 1021.000;  825.000
927.171;   64.000; 1107.000; 1044.000
927.410;   59.375; 1144.000;  967.000
927.649;   29.500;  924.000;  742.000
927.888;    4.575;  590.000;  564.000
928.127;   -2.775;  680.000;  678.000
928.366;   35.175;  842.000;  826.000
928.605;   49.425;  831.000;  737.000
928.844;  275.550; 1451.000; 1393.000
929.083;  832.125;  770.000;  613.000
929.321;  488.250; 1335.000; 1359.000
929.560;  103.675; 1158.000; 1122.000
929.799;  -15.700;  574.000;  475.000
930.038;   92.850; 1025.000; 1394.000
930.276;  -45.975;  334.000;  397.000
930.515;   15.300;  827.000;  681.000
930.753;  -15.025;  614.000;  589.000
930.992;  -25.400;  664.000;  717.000
931.230;   10.475;  847.000;  847.000
931.469;  172.600; 2162.000;  892.000
931.707;   56.225;  840.000;  751.000
931.946;   61.425; 1278.000; 1344.000
932.184;   58.425; 1437.000; 1175.000
932.423;   48.900; 1265.000;  963.000
932.661;   87.275; 1296.000; 1428.000
932.899;   30.325;  987.000;  821.000
933.137;   30.950;  754.000;  564.000
933.376;  170.800; 1664.000; 1335.000
933.614;  179.350; 1759.000; 1196.000
933.852;   80.550; 1357.000; 1171.000
934.090;  148.050; 1722.000; 1747.000
934.328;  137.000; 1252.000; 1457.000
934.566;  141.850; 1431.000; 1110.000
934.804;  221.775; 1263.000; 1309.000
935.042;  675.000; 1861.000; 1850.000
935.280; 2725.450; 2088.000; 2063.000
935.518; 3134.175; 2113.000; 2007.000
935.756;  597.500; 2481.000; 2316.000
935.994;  233.850; 1808.000; 1751.000
936.231;  382.625; 2890.000; 2950.000
936.469;  209.050; 2367.000; 2378.000
936.707;  178.125; 2220.000; 2167.000
936.945;  244.550; 2825.000; 2882.000
937.182;  203.600; 2679.000; 2741.000
937.420;  316.250; 3602.000; 3031.000
937.657;  429.475; 3365.000; 3478.000
937.895;  373.125; 3331.000; 3488.000
938.133;  313.900; 3540.000; 3528.000
938.370;  355.725; 3896.000; 4191.000
938.607;  405.475; 4488.000; 4205.000
938.845;  551.500; 5587.000; 5549.000
939.082;  501.400; 5387.000; 5177.000
939.320;  527.225; 5799.000; 5728.000
939.557;  636.750; 6549.000; 6491.000
939.794;  726.075; 7285.000; 7097.000
940.031;  899.675; 8421.000; 8368.000
940.269; 1151.325; 9552.000; 9107.000
940.506; 1145.300;10901.000;10507.000

