
Integration time [ms]: 100.000
Averaging Nr. [scans]: 40
Smoothing Nr. [pixels]: 0
Data measured with spectrometer [name]: 2101013U2
Wave   ;Sample   ;Dark     ;Reference
[nm]   ;[counts] ;[counts] ;[counts] 

394.013;   54.688; -450.257; -315.536
394.305;  199.735; -461.258; -419.536
394.596; 1116.483; -676.269; -527.514
394.887; 2775.450; -796.268; -654.518
395.178; 1059.730;  145.736;   11.476
395.470;   86.741; -210.263; -356.526
395.761;  189.464;  305.734;  394.479
396.052;  288.609; -545.284; -306.489
396.343;  255.478; -557.276; -454.503
396.634;  100.147; -200.279; -290.497
396.926;  101.622; -618.268; -565.517
397.217;  103.608;   11.725;  -17.504
397.508;   40.548; -366.273; -154.507
397.799;   34.497; -555.279; -571.497
398.090;   -8.433; -973.280; -902.495
398.381;  108.334;   11.708;  -11.473
398.672;  -20.214; -585.292; -742.473
398.963;   34.028; -348.279; -373.498
399.254;   78.320;   54.709; -209.475
399.545;  -31.639;-1017.266; -883.520
399.836;   48.692; -407.277; -343.501
400.127;   55.186; -205.295; -209.468
400.418;   54.268; -423.274; -392.506
400.709;   59.229; -359.281; -333.493
401.000;   37.874; -268.291; -309.476
401.290;  103.598;  225.698;  115.545
401.581;   64.367; -166.286; -228.485
401.872;   20.133; -542.298; -486.462
402.163;   47.978; -313.296; -252.467
402.454;   81.495; -123.291; -163.475
402.744;   53.820; -844.297; -813.465
403.035;  418.576; -226.293;  -86.471
403.326;  527.888; -366.292; -384.474
403.617;  353.603;  204.701;  165.539
403.907;  249.240; -593.283; -679.490
404.198; 2420.927; -545.307; -599.446
404.489; 6340.594; -618.283; -588.491
404.779; 2065.701; -618.302; -660.456
405.070;  240.705;  -67.304; -174.451
405.360;  347.778; -259.293; -238.472
405.651;  354.963;  125.699;   98.542
405.942;  170.637;  209.714;  127.516
406.232;  226.127; -432.285; -413.487
406.523;  439.071;  641.706;  758.530
406.813;   88.089; -579.286; -644.484
407.104;  312.708;  261.708;  144.527
407.394;  140.404; -604.299; -591.462
407.685;  163.926;  336.715;  222.513
407.975;   53.768; -400.283; -382.490
408.265;  111.885; -134.289; -190.478
408.556;   68.342; -472.291; -459.475
408.846;  165.047;  474.706;  429.530
409.137;   82.968;   -1.288; -216.480
409.427;   59.476; -193.285; -271.487
409.717;   22.077; -776.273; -692.508
410.007;  137.095;    4.715; -170.486
410.298;   82.764; -360.295; -342.469
410.588;   49.874; -495.285; -510.486
410.878;   26.554; -792.287; -873.482
411.168;  106.711; -481.298; -478.463
411.459;  115.588; -295.283; -242.489
411.749;   60.466; -609.292; -507.474
412.039;   38.991; -755.289; -386.480
412.329;  204.185;   40.722;  132.501
412.619;  183.740;  -62.286; -148.485
412.909;  339.862;  639.711;  594.521
413.199;  326.167; -130.280; -251.495
413.490;  381.253;  521.710;  352.523
413.780;  138.246;-1013.279; -913.496
414.070;  330.054;  -46.276;  235.497
414.360;  369.407; -729.278; -666.498
414.650;  395.325; -726.288; -688.482
414.940;  523.245; -538.280; -441.496
415.230;  916.247;   50.712;   74.519
415.520; 6130.582;  155.730;   66.486
415.809;24244.503; -305.281; -125.493
416.099;18740.345; -388.277; -229.501
416.389; 5289.491;  435.726;  236.494
416.679; 3102.295;   91.738;   85.473
416.969;  523.683; -527.287; -503.483
417.259;  462.048;  341.721;  171.503
417.549;  690.152;  522.718;  318.508
417.838; 1706.474; -205.268; -147.518
418.128; 5591.458;  650.710;  492.522
418.418; 4668.783; -491.272; -579.509
418.708; 3156.141;    9.726;  -48.506
418.997;11885.237; -474.275; -480.505
419.287;12343.323; -733.273; -790.507
419.577;11791.937; -160.283; -123.489
419.866;39024.868; -588.277; -498.501
420.156;39706.703; -242.270;  -55.513
420.446; 7045.537; -112.263;  -26.526
420.735;  829.297; -376.271; -446.512
421.025;  830.256; 1830.722;  315.502
421.314;  642.921; -203.271; -226.512
421.604; 1300.067;   89.732;  233.484
421.893;  756.842; -705.271; -602.511
422.183;  238.412; -487.263; -461.526
422.472;  378.193;  -36.271; -107.511
422.762;  445.917; -416.266; -379.521
423.051;  245.430; -916.276; -916.503
423.341;  307.325; -491.273; -439.507
423.630;  387.248; -121.265;   15.477
423.919;  379.861;   58.725;   49.495
424.209;  391.443;  -31.263;   56.473
424.498;  475.097;   68.732;  161.483
424.787; 1110.478; -535.267; -601.518
425.077; 3365.346;   34.735;   29.478
425.366; 4619.473; -734.262; -744.528
425.655;10098.300;  639.727;  259.493
425.945;22598.376; -313.247; -268.554
426.234;12404.771;  117.741;  300.467
426.523; 5112.601;  -86.259; -350.534
426.812; 6980.738;  107.734;  159.480
427.101;10459.338; -127.269; -323.515
427.390;13055.257;  -55.270;  -86.514
427.680; 2832.871; -624.257; -411.538
427.969;  458.356; -330.255; -301.540
428.258;  308.887; -385.257; -477.536
428.547;  516.087;  449.728;  397.490
428.836; 1179.597; -421.253; -398.543
429.125; 1672.453; -199.259;  -72.534
429.414;  771.895; -330.251; -294.548
429.703; 3187.645; -231.251; -213.548
429.992; 9571.398; -938.250; -828.549
430.281; 6242.205; -397.264; -331.524
430.570;  567.435;  -21.252;   32.454
430.859;  517.151;  279.741;  352.466
431.148;  427.447;  636.752;  631.446
431.437;  272.460;  391.748;  367.454
431.725;  142.539; -544.257; -481.536
432.014;  116.455; -845.253; -756.545
432.303;  363.347; -149.239; -105.569
432.592;  586.012; -460.263; -178.525
432.881; 1045.073; -601.248; -437.554
433.169; 6329.132; -343.255;  -61.540
433.458;12904.006;  445.765;  540.424
433.747; 5324.904; -397.261; -289.529
434.036;  848.598; -275.242; -280.564
434.324; 2088.211; -395.249; -379.551
434.613; 3677.367;   40.757;  159.437
434.902; 1196.038;  333.760;  439.433
435.190;  492.496;   75.761;  295.431
435.479;  274.274;  -52.245;   83.441
435.767;   97.607; -411.244; -427.561
436.056;  206.094; -340.242; -294.563
436.345;  366.540; -372.240; -223.568
436.633;  380.731;   60.750;  383.450
436.922;  230.767;  208.760;  414.432
437.210;  501.846; -194.236;    1.426
437.499; 1632.954; -583.235; -432.576
437.787; 1776.095; -339.236;  -10.574
438.075;  452.652;   56.761;  162.430
438.364;  635.854;  -44.238;  250.429
438.652;  382.808; -286.226; -138.592
438.941;  131.747;    3.770;  269.415
439.229;   -4.967; -665.252; -466.545
439.517;   33.812; -160.234;  -85.577
439.806;  -14.251; -501.225; -290.595
440.094;  177.495;  377.766;  650.421
440.382;  149.724; -653.233; -302.580
440.670;  165.004; -361.235; -285.576
440.959;   25.016; -347.223; -170.599
441.247;   73.009; -151.229; -109.587
441.535;   94.461; -266.235;   31.423
441.823;   37.617; -497.234; -305.578
442.111;  176.113;  173.771;  327.412
442.400;  458.523; -628.245; -335.559
442.688; 1193.594; -111.234; -620.579
442.976;  849.203; -786.213; -450.617
443.264;   87.805; -324.224; -364.597
443.552;   84.084; -258.226;   51.408
443.840;  165.509;  602.765;  876.423
444.128;  101.348;  265.767;  269.420
444.416;   10.590; -694.228; -312.588
444.704;   19.495; -465.219;  -92.605
444.992;   73.112;   -0.226;  240.407
445.280;   37.898; -517.230;  -94.585
445.568;   36.906; -694.212; -396.618
445.856;  306.529; -174.221;  357.398
446.143;  689.442;  -54.220;   -7.604
446.431;  551.394;  -25.228;  625.411
446.719;  223.214;  489.783;  675.391
447.007;  174.717;  481.769;  705.416
447.295;  173.488;  597.777;  871.402
447.583;   66.231; -464.229;  -34.587
447.870;  129.476; -434.221; -202.601
448.158;  381.072; -104.230;  129.415
448.446;  276.093; -800.219; -338.604
448.733;  157.282;   13.776;  269.403
449.021;  218.231;   60.788;  341.382
449.309;  169.846; -296.210;  208.379
449.596;  203.761;  128.783;   59.392
449.884;  148.320; -571.222; -325.600
450.172;  163.474; -756.227; -406.590
450.459;  447.486;  645.786;  780.387
450.747; 2481.934; -411.218; -147.608
451.034; 7879.295;  493.772;  889.411
451.322; 6502.239; -413.214; -170.614
451.609;  535.808;  292.777;  508.403
451.897;  595.933; -550.203; -183.634
452.184; 1842.913; -622.223; -400.598
452.472; 1707.092;   97.792;  269.375
452.759;  334.343;  512.781;  864.395
453.047;  114.354; -407.212; -125.617
453.334;   78.251; -732.219; -216.606
453.621;   67.492; -438.214; -161.615
453.909;  105.725;   13.796;  384.368
454.196;   83.795; -299.199; -123.641
454.483;  188.671;  317.798;  540.364
454.771;  108.920; -215.208;  196.374
455.058;   35.348; -316.207;  102.374
455.345;  100.875;   71.807;  344.347
455.632;   76.501; -128.207;  235.373
455.919;   37.868;  -82.196;  182.354
456.207;  -57.625; -774.198; -450.642
456.494;   -8.367; -475.200;  -66.639
456.781;   25.617; -399.202; -198.635
457.068;   57.933; -253.206;  -29.628
457.355;   -9.091; -698.206; -401.629
457.642;  -12.585; -552.205; -290.630
457.929;   -6.084; -778.194; -417.651
458.216;   47.179; -575.212; -354.617
458.503;  240.946; -173.193;  -19.652
458.790;  236.543; -864.208; -630.625
459.077;  251.472;  -77.202;  110.364
459.364;  823.909; -350.195; -210.649
459.651; 1727.031;  -46.206;  220.372
459.938;  805.633; -864.209; -665.623
460.225;  130.075;  132.799;  276.363
460.512;  -49.485; -836.197; -688.645
460.799;  105.458;  -32.218;  320.392
461.086;   61.938; -370.200; -251.640
461.372;   40.725; -509.198; -279.642
461.659;   96.519; -165.196;  108.354
461.946;   51.669; -445.193;  -54.651
462.233;  237.635;  842.800;  888.361
462.519;  345.432; -814.201; -464.639
462.806; 1020.915; -768.197; -497.645
463.093;  876.815; -445.191;  -66.656
463.380;  -21.294; -920.186; -824.664
463.666;   42.942; -259.197;  -18.646
463.953;  104.879; -406.195; -243.648
464.239;  201.154; -173.195;  -77.648
464.526;  378.690;  413.806;  743.350
464.813;  315.951; -565.190; -304.658
465.099;  347.120;  606.807;  607.348
465.386;  294.749;  903.807;  921.348
465.672;    1.515; -694.197; -522.645
465.959;   17.819; -598.188; -520.662
466.245;    9.449; -468.193; -359.652
466.532;   77.052; -109.195;   63.352
466.818;   52.130; -357.186; -216.664
467.104;   -0.505; -488.182; -415.672
467.391;  -31.197; -628.189; -459.658
467.677;   25.884; -289.186;    9.335
467.964;  -11.415; -682.189; -471.660
468.250;   44.837; -331.186; -160.665
468.536;   69.229;   90.811;  180.341
468.822;  -32.677; -821.184; -574.668
469.109;  130.575;  351.827;  471.311
469.395;  184.459;  729.808;  787.346
469.681;  194.507;   46.811;  156.341
469.967; 1254.712; -699.188; -382.660
470.254; 2775.070; -494.188; -306.662
470.540; 1765.192; -601.196; -476.646
470.826;  246.456; -488.181; -397.675
471.112;  315.002;  288.816;  113.331
471.398;   79.456; -253.183;  -58.670
471.684;   44.234; -626.177; -447.680
471.970;    2.860; -918.180; -981.675
472.256;   10.608; -521.192; -441.654
472.542;   -1.339; -499.171; -434.691
472.828;   -8.884; -743.182; -607.672
473.114;   13.154; -380.166; -283.700
473.400;   15.551; -504.175; -293.684
473.686;   16.810; -452.166; -400.701
473.972;   46.165; -230.174; -131.687
474.258;  -43.200; -925.173; -843.689
474.544;  189.526; -183.178;   -2.679
474.830;  322.302;  -65.175;   45.316
475.116;  502.278; -123.190; -196.658
475.401;  692.412; -558.180; -467.676
475.687;  203.611; -725.180; -718.676
475.973;  -12.451; -673.181; -770.673
476.259;  249.579;  736.825;  764.315
476.544;  361.442; -539.176; -437.682
476.830;  856.982; -398.172; -322.690
477.116;  767.241; -430.177; -336.682
477.401;  134.812;  346.820;  358.324
477.687;  -18.624; -289.175; -405.684
477.973;   24.653;   21.819;   28.326
478.258;  -10.544; -448.163; -348.706
478.544;   42.942;   21.815;   61.334
478.829;  -60.659; -818.171; -738.692
479.115;  -51.493; -749.172; -651.690
479.401;  -16.539; -444.174; -449.686
479.686;   31.486; -253.180;  -74.676
479.972;  -44.294; -886.178; -776.680
480.257;   24.556; -258.166;  -65.700
480.542;   -2.705; -614.170; -469.693
480.828;  211.574; 1288.824; 1392.317
481.113;  -45.778; -464.176; -426.683
481.399;   -4.746; -236.161; -202.711
481.684;  -44.145; -620.166; -462.700
481.969;    7.292; -158.159;  -73.713
482.255;   -7.469; -439.169; -285.695
482.540;    6.756; -569.178; -441.680
482.825;  -12.074; -395.187; -404.663
483.110;   80.359;  -85.169; -105.696
483.396;  191.764; -840.157; -652.718
483.681;  516.115;  543.826;  730.313
483.966;  156.736; -696.160; -700.712
484.251;   -4.086; -404.174; -310.687
484.536;  -18.934; -356.165; -378.703
484.822;    1.517; -205.173; -218.687
485.107;  -23.773; -599.152; -502.726
485.392;  120.521;  662.836;  541.296
485.677;   81.469;  354.832;  163.302
485.962;  106.886;  160.843;  270.283
486.247;   75.438;  -14.162;   -8.707
486.532;   40.957; -178.166; -325.701
486.817;  155.924;  381.839;  431.291
487.102;  112.685; -453.154; -514.722
487.387;  697.641; -637.156; -652.718
487.672; 1231.226; -154.164;  -38.705
487.957;  779.656; -394.160; -286.711
488.241;  210.593; -290.150; -314.729
488.526;  760.928; -280.152; -148.726
488.811; 1268.433; -881.177; -818.680
489.096;  918.837; -666.154; -702.723
489.381;  508.474;    3.847;  162.275
489.666;  403.929; -428.161; -510.710
489.950;  177.765;  558.846;  627.277
490.235;  -36.112; -480.151; -458.728
490.520;  -56.372; -756.161; -723.710
490.804;  -63.582; -827.156; -736.719
491.089;    5.734; -469.149; -299.732
491.374;   29.850; -132.164;  -75.704
491.658;  -15.255; -817.147; -717.735
491.943;  141.232; -657.152; -609.727
492.227;  238.931; -178.155;  -38.721
492.512;   60.136; -294.157; -341.717
492.797;  -68.847; -713.149; -716.731
493.081;  -52.802; -588.147; -598.735
493.366;  -37.396; -751.161; -635.711
493.650;  191.075;  831.859;  917.254
493.935;   32.269; -648.147; -447.734
494.219;  -43.562; -778.142; -687.743
494.503;  -41.077; -585.150; -487.730
494.788;   34.528;   46.842;   74.285
495.072;  115.594;  184.850;  434.271
495.356;  171.637; -463.148; -343.733
495.641;  460.404; -812.146; -736.736
495.925;  422.247; -976.156; -903.719
496.209;   29.708; -599.149; -451.732
496.494;  -50.437; -763.142; -544.744
496.778;    2.035; -364.154; -360.722
497.062;  -55.978; -819.156; -627.719
497.346;  -25.893; -869.160; -640.711
497.631;  137.115;  580.852;  560.266
497.915;   61.565;  -64.145;  175.261
498.199;   39.714; -341.157; -277.718
498.483;   37.801; -562.152; -508.725
498.767;  197.171;  301.850;  300.271
499.051;  187.581; -126.149; -100.732
499.335;   30.054; -693.149; -739.731
499.619;  -31.699; -381.129; -423.767
499.903;   19.654; -272.155;  -65.721
500.187;   32.767; -588.153; -316.724
500.471;    8.356; -796.152; -595.727
500.755;   95.353;   62.839;  -96.710
501.039;   24.605; -270.155; -357.721
501.323;   83.227;  -21.141;  264.254
501.607;   29.431; -447.163; -503.706
501.891;   -4.460; -607.156; -512.718
502.174;  -39.899; -726.144; -585.741
502.458;   59.685;   89.849;  370.273
502.742;   26.176; -180.138; -191.751
503.026;  112.719; -412.147; -254.734
503.310;  180.891; -437.159; -375.713
503.593;  125.296; -464.147; -325.735
503.877;   96.366; -232.133; -156.760
504.161;  190.794;    2.847;  -50.724
504.444;  121.305; -841.158; -710.716
504.728;  476.674; -487.164; -522.704
505.012;  749.592; -257.150;  -76.729
505.295;  551.379; -417.161; -212.711
505.579;  554.122; -256.156; -496.719
505.862;  795.511; -555.145; -333.738
506.146;  775.544; -681.159; -758.714
506.429;  405.444;  568.841;  461.286
506.713;   56.840; -732.151; -667.728
506.996;  339.984;   90.846;  295.278
507.280;  347.969; -633.165; -474.703
507.563;  232.603; -469.155; -261.721
507.847;  111.668; -423.153; -112.724
508.130;   87.130; -665.161; -456.711
508.413;  125.001; -758.167; -577.700
508.697;  262.026; -151.167;   12.300
508.980;  154.044; -422.153; -312.724
509.263;    3.824; -466.155; -450.720
509.547;   23.867; -124.150;   82.271
509.830;   39.482; -172.160;  140.289
510.113;   73.072;  128.844;  298.281
510.396;   36.100; -530.152; -300.725
510.680;  127.987; -818.145; -812.738
510.963;  540.514;  184.846;  180.277
511.246;  449.225; -493.150; -357.730
511.529;  258.617; -482.145;  -83.739
511.812;  374.312; -250.134;   10.241
512.095;  262.487; -740.151; -396.728
512.378;   70.625; -317.147; -245.736
512.661;   26.883; -703.137; -623.753
512.944;   31.040; -750.142; -637.744
513.227;   65.231; -170.137; -171.752
513.510;   45.826; -479.144; -671.741
513.793;   27.906; -485.140; -435.747
514.076;  120.321;  -43.127;  -39.771
514.359;  116.609; -294.149; -135.732
514.642;   90.918; -442.142; -567.744
514.925;  770.180;  581.860;  561.253
515.208; 1042.534; -498.134; -443.758
515.491;  690.297; -276.133; -182.761
515.773;  378.804; -410.143; -337.742
516.056; 2178.140;  249.864;  409.246
516.339; 2911.419; -754.136; -652.755
516.622; 1872.223; -518.150; -488.730
516.904; 1129.386;  882.857;  975.257
517.187;  525.054; -730.138; -523.752
517.470;  384.760; -568.143; -510.743
517.752;  455.371; -624.136; -470.756
518.035;  360.467; -708.139; -725.749
518.318;  380.819; -799.136; -744.755
518.600; 2548.676; -300.132; -325.762
518.883; 3520.642;  310.858;   88.256
519.165; 1691.572; -585.138; -426.751
519.448;  391.500;  -61.132;  -19.762
519.730;  199.304; -573.126; -415.773
520.013;  307.918;  588.867;  664.240
520.295;  743.139;  -94.134;  -15.759
520.578; 1684.463; -335.131; -305.764
520.860; 1900.476; -254.132;   56.238
521.143; 1019.973; -763.135; -584.756
521.425;  482.166; -251.125; -279.775
521.707;  693.322; -622.127; -380.771
521.990; 1834.947; -199.127;  167.229
522.272; 2098.433; -116.140;   -4.748
522.554;  939.055; -237.143; -157.742
522.836;  349.037;  -24.134;   99.241
523.119;  217.768; -496.148; -189.734
523.401;  159.945; -448.130; -314.766
523.683;   85.584; -865.137; -693.753
523.965;  293.452;  408.862;  260.248
524.247;  280.712;   54.878;  170.220
524.529;  207.264; -451.134; -367.759
524.812;  358.597;   -3.130;  191.234
525.094;  896.227; -773.138; -631.751
525.376; 1401.950; -143.124;   78.223
525.658;  857.466; -441.136; -339.754
525.940;   39.185; -805.131; -671.764
526.222;   40.194; -188.136;  -88.755
526.504;   97.458; -190.131;   32.237
526.786;  158.616; -960.133; -647.760
527.068;  271.781; -124.123;  -67.778
527.349;  107.787; -865.137; -774.754
527.631;  116.600; -137.132;   22.238
527.913;  143.221; -664.127; -450.771
528.195;  173.909; -761.125; -639.774
528.477;  244.609;  -93.134;  -30.758
528.759;  143.097; -648.130; -522.766
529.040;   58.705; -569.123; -293.778
529.322;   54.712; -235.125;  -10.774
529.604;  133.174;  -47.130;   93.233
529.886;  119.428; -546.126; -302.773
530.167;  120.641;  232.870;  192.235
530.449;   39.574;    1.853;   63.265
530.731;   11.411; -572.122; -459.779
531.012;   76.132; -513.120; -216.784
531.294;   74.021; -118.116;  -43.792
531.575;  141.116;  290.875;  538.225
531.857;   64.079; -548.135; -266.757
532.138;  102.876; -113.141;   40.254
532.420;  185.400;  294.865;  403.244
532.701;  181.044; -722.133; -751.760
532.983;  312.272;  232.867;  182.239
533.264;  105.676; -243.126;  175.228
533.546;  -25.531; -491.136; -508.755
533.827;   33.565;  173.867;   -1.759
534.109;   21.329; -352.135;  -80.757
534.390;   84.829; -725.132; -582.762
534.671;  240.725; -270.135;  -82.756
534.953;  134.432; -751.123; -611.779
535.234;   14.081; -426.117; -255.789
535.515;  -82.360; -891.119; -735.785
535.796;  -11.808; -431.128; -193.770
536.078; -117.475;-1050.124; -904.777
536.359;    9.383;  -22.123;    3.221
536.640;  -28.789; -480.125; -197.774
536.921;  151.854;  225.871;  143.232
537.202;  367.148;  -87.138;  -16.751
537.483;  471.563;  251.869;  377.236
537.764;  175.291;   17.870;   98.235
538.045;  -57.867; -543.134; -371.758
538.326;  -37.094; -596.129; -447.768
538.607;   17.447; -686.127; -476.771
538.888;  168.248;   98.879;    5.218
539.169;  204.493; -704.122; -535.781
539.450;  352.028;  236.871;   16.233
539.731;  221.877; -361.121; -182.783
540.012;  122.807;  199.880;  412.216
540.293;   86.670;   82.876;  158.224
540.574;   -1.209; -895.113; -717.796
540.855;  443.701;  435.879;  377.218
541.136;  527.640;   47.878;  139.220
541.416;  284.473; -161.130; -220.766
541.697;  191.234; -274.131; -170.763
541.978; 1072.602; -270.135; -315.757
542.259; 1361.997; -211.127; -236.771
542.539;  655.340; -191.116; -186.790
542.820;  182.216;  461.875;  480.225
543.101;  129.539;  -52.145;  -77.738
543.381;   34.597; -638.127; -591.771
543.662;  261.470;  159.873; -254.771
543.942;  602.343; -751.127; -830.770
544.223; 1092.517;  193.878;  161.219
544.504;  723.450; -275.124; -182.777
544.784;  589.953; -592.126; -408.773
545.065; 1685.293;  104.884; -254.791
545.345; 1983.215;  227.881;   14.215
545.626; 1345.265;  -14.113; -108.796
545.906;  905.315;   77.869;   98.235
546.186;  382.858;   92.874;  -95.773
546.467;  201.302;   99.877;  -95.778
546.747;  336.489;  264.884;  327.210
547.027;  381.948;   91.876;  111.223
547.308;  332.792; -376.127; -530.770
547.588;  400.532;  299.871;  371.232
547.868;  204.642;  458.870;  588.235
548.149;  204.601;  609.885;  593.207
548.429;  129.695; -347.127; -299.771
548.709;  206.907; -645.120; -461.784
548.989;  494.550;   84.882;   88.213
549.269; 2205.924;   10.868;  139.239
549.550; 5039.031;  215.877;  117.222
549.830; 4513.183; -758.111; -556.799
550.110;  900.191; -468.110; -320.801
550.390;  876.687; -128.122;  -56.779
550.670; 1189.561; -868.114; -783.795
550.950;  824.175; -509.121; -471.782
551.230;  178.421;  549.879;  460.218
551.510;   -8.001; -381.121; -326.782
551.790;   34.948; -173.109; -127.803
552.070;  259.902;  940.877; 1181.223
552.350;  420.519; -492.119; -377.786
552.630;  604.744;   -2.121;   77.219
552.909;  378.144;  181.884;   73.209
553.189;  238.705;  -49.132;   33.237
553.469;  192.944; -703.119; -514.786
553.749;  202.074; -469.127; -357.772
554.029;  169.435;   33.883;  -24.790
554.308;  151.230; -154.115;  -37.794
554.588;   60.691; -196.128; -204.770
554.868;   68.101; -366.121;  -47.782
555.147;  162.677; -114.115;  -46.793
555.427;  614.746; -260.116; -250.792
555.707; 4064.250; -284.115; -200.793
555.986; 4906.086; -719.111; -538.800
556.266; 2598.163;   23.884;   72.210
556.546;  143.974; -888.121; -675.782
556.825;  268.759; -657.114; -556.794
557.105; 1879.139; -125.128;   17.230
557.384; 2197.768;  122.884;  187.209
557.664;  834.520; -717.116; -508.792
557.943;  120.625; -557.121; -411.782
558.222;  181.203; -345.118; -344.788
558.502;  284.103; -116.115;  -76.793
558.781;  512.374;  194.885;  499.208
559.061;  431.353; -232.118; -227.788
559.340;  304.408;  302.883;  353.211
559.619;  753.763;   93.884;  148.210
559.899; 1084.934; -239.117; -266.789
560.178;  989.203; -778.115; -593.793
560.457; 3325.811; -623.117; -562.790
560.736; 4630.263; -472.111; -482.800
561.015; 3024.912; -500.128; -502.769
561.295;  393.468;  180.893;  215.193
561.574;  345.025;  119.885;  116.207
561.853;  516.253;  274.891;  303.197
562.132;  511.305;  -45.114;  182.206
562.411;  469.920;  396.879;  553.219
562.690;  140.049; -592.115; -458.792
562.969;  148.322;  472.888;  630.203
563.248;  508.392; 2966.878; 2487.219
563.527;  280.137; -290.111; -408.800
563.806;  396.245; -650.127; -521.771
564.085;  433.608; -297.105; -206.810
564.364;  248.912; -594.117; -405.790
564.643;  531.420; -276.121; -223.781
564.922; 1954.822;  221.890;  397.198
565.201; 1972.300; -640.109; -700.803
565.479;  846.697; -297.115; -219.792
565.758;  328.289; -810.128; -712.770
566.037;  503.701; -155.109; -100.803
566.316;  238.568; -286.116;  -28.791
566.595;   42.175;  -17.115;  -12.793
566.873;   83.564; -166.111;  -79.801
567.152;  -65.928; -490.113; -590.797
567.431;   10.764; -113.116;    6.210
567.709;   13.293; -344.107; -212.807
567.988;  278.034; -810.114; -769.794
568.266;  543.975; -160.115;  -68.793
568.545;  402.579; -644.100; -514.819
568.824;  621.922;  160.885;  356.208
569.102;  564.508; -351.114; -235.794
569.381;  251.396; -492.116; -407.792
569.659;  -43.982; -553.113; -553.796
569.938;   29.466; -743.122; -465.780
570.216;  107.179; -225.109; -225.804
570.494;  -20.088; -632.114; -572.795
570.773;   39.774;  202.879;  114.218
571.051;    6.455; -373.123; -357.778
571.330;   59.041; -221.113; -174.796
571.608;   38.147; -181.098; -173.823
571.886;  -61.694; -671.111; -581.799
572.164;  -64.674; -739.121; -621.782
572.443;  -45.088; -562.105; -512.811
572.721;  -41.864; -399.117; -289.790
572.999;  -30.545; -280.117; -168.788
573.277;   95.530;  379.894;  620.191
573.555;  297.032;   94.894;   37.190
573.834; 1408.304;  -86.117; -114.788
574.112; 1621.795;  880.893;  811.193
574.390;  468.813; -143.111;  -96.801
574.668;   14.748;  -91.112;  -61.797
574.946;   -5.193; -165.106; -187.810
575.224;   10.175;   71.891;  -16.803
575.502;  -28.534; -200.116; -204.791
575.780;  -78.301; -767.112; -829.798
576.058;  139.437; 1589.889; 1004.200
576.336;  -22.032; -210.110; -129.801
576.614;  -56.151; -511.112; -340.798
576.891;   54.604; -711.115; -823.794
577.169;  515.837; -158.108; -285.805
577.447;  594.295;  169.893;  202.193
577.725;  269.529;  629.888;  854.201
578.003;    1.077;  -71.112; -371.798
578.280;  100.170; -208.104; -242.812
578.558;   56.328; -450.115; -422.793
578.836;  122.461; -210.114; -145.795
579.114;   48.023; -630.112; -670.797
579.391;   67.681;   -6.117;  -18.789
579.669;  -75.295; -595.114; -704.794
579.947;  171.092; -326.107; -127.806
580.224;  347.542; -692.107; -524.806
580.502;  336.421;  127.893;   76.193
580.779;   20.687;  -42.117;   75.210
581.057;  -68.471; -584.109; -470.804
581.334;  -87.940; -726.102; -695.815
581.612;   37.158;   54.895;  511.190
581.889;  -30.677;  -83.101; -129.818
582.167;  -35.313; -298.099; -190.821
582.444;  -93.682; -845.102; -814.817
582.721;   95.194;  657.899;  715.183
582.999;   53.835; -326.100; -167.821
583.276;  540.809; -812.123; -713.779
583.553;  743.763; -364.102; -294.816
583.831;  235.817; -607.104; -631.812
584.108;   62.185;  349.892;  174.195
584.385;   23.185; -122.102;  -98.815
584.662;  -73.986; -651.111; -828.801
584.940;   32.714;  204.889;  204.199
585.217;  -26.757;  -73.113; -303.796
585.494;   43.897;   71.890;  118.198
585.771;  218.505; -250.109; -354.804
586.048;  516.268; -196.113;  -76.796
586.325;  309.617; -721.110; -773.801
586.602;   91.171;  230.896;  213.188
586.879;  -16.044; -499.100; -580.820
587.156;   48.159; -156.105; -331.810
587.433;  -34.884; -701.102; -667.817
587.710;   63.425;  152.888;  234.202
587.987;  290.264; -264.105; -236.811
588.264;  785.552;  315.888;  387.202
588.541; 1366.473;  -61.104;   26.187
588.818; 2773.807;   72.892;  171.196
589.095; 2352.344; -163.104; -174.812
589.371;  377.653; -459.109; -414.804
589.648;   16.095; -581.107; -437.807
589.925;   29.562; -517.114; -621.795
590.202;   24.475; -741.112; -607.798
590.478;   83.891; -166.105;  -73.811
590.755;  259.313; -241.108; -132.806
591.032; 2577.569; -741.110; -699.802
591.308; 3551.537; -732.094; -790.831
591.585; 1847.844; -573.110; -560.802
591.862;  154.492;-1056.102; -950.817
592.138;   63.511; -475.108; -474.805
592.415;  147.322; -486.104; -495.813
592.691; 1489.194;  460.896;  518.188
592.968; 1899.924; -208.098; -123.824
593.244;  931.664; -695.116; -595.790
593.521;   76.893; -105.102;  -42.817
593.797;  -11.412; -810.122; -720.780
594.074;  337.411; -611.096; -588.826
594.350;  675.322;  828.905;  729.172
594.626;  298.865; -303.111; -283.801
594.903;  102.918; -643.101; -645.817
595.179;  188.025;  243.896;  418.187
595.455;   18.422; -136.107; -150.807
595.731;   -2.073;  -19.103;  -38.814
596.008;  -48.641; -464.111; -434.800
596.284;   39.684; -187.100; -242.820
596.560;   61.593; -501.093; -493.833
596.836;  225.736; -173.105;  -70.810
597.112;  361.761; -582.108; -437.805
597.388;  302.859;  -49.097;  -48.826
597.665;  119.345;  437.887;  530.203
597.941;  -58.128; -572.089; -658.839
598.217;   13.172; -323.110; -293.802
598.493;  281.981;   61.891; -204.804
598.769;  519.028; -175.100;  -50.819
599.045;  303.839; -490.108; -562.806
599.321;   39.058; -193.100; -261.820
599.597;  156.181; -355.109; -476.804
599.872;  513.498;  409.896;  429.187
600.148;  386.886;  -61.097; -172.826
600.424;  297.519;   91.893;  202.193
600.700;  261.946; -170.107; -280.807
600.976;  124.830; -442.097; -464.825
601.252;  242.527; -226.109; -272.803
601.527;  221.449; -833.104; -840.813
601.803;  150.167; -453.105; -404.812
602.079;  199.003; -124.100; -118.819
602.354;  583.403; -620.092; -531.835
602.630;  831.868; -140.113; -482.796
602.906; 2382.498; -910.101; -863.818
603.181; 6945.144; -627.119; -534.786
603.457; 5904.259;   98.903; -278.826
603.733;  861.253; -605.120; -626.783
604.008; 1008.683; -245.106; -164.810
604.284; 3194.420; -636.101; -580.817
604.559; 2721.779;   -3.112;  -42.799
604.835;  491.411; -163.105; -225.810
605.110;  425.788; -732.099; -892.821
605.385;  687.221;  224.907;  267.167
605.661;  664.500; -625.095; -729.829
605.936; 1208.065; -664.108; -737.806
606.211; 1018.158;  -17.103; -170.815
606.487;  213.257; -329.114; -376.794
606.762;   37.294; -791.119; -745.786
607.037;  -34.339; -501.105; -433.810
607.313;  -52.656; -589.096; -574.828
607.588;   -6.717; -375.106; -137.810
607.863;   37.873;  -28.101; -143.818
608.138;  182.071;  513.890;  516.198
608.413;   36.492; -576.099; -592.822
608.688;   59.311; -203.108; -267.805
608.964;  207.127; -509.106; -218.809
609.239;  263.033; -107.105; -212.810
609.514;  258.641;  281.895;  240.188
609.789;  649.846; -187.104; -716.812
610.064;  881.642; -435.096; -609.827
610.339;  883.578; -855.109; -799.804
610.614; 1227.783; -131.100; -315.820
610.889;  668.991;  215.895;  107.188
611.163;   49.342; -407.104; -591.812
611.438;   82.009;   81.886; -167.794
611.713;    5.420; -467.101; -499.817
611.988;   67.247; -144.101; -328.818
612.263;  -22.515; -771.102; -717.815
612.538;  218.867;  385.887;  251.204
612.812;  185.109; -832.100; -911.820
613.087;  146.997; -358.098; -338.823
613.362;  -40.303; -497.107; -557.807
613.637;   39.005;  261.897;  138.186
613.911;   -5.272; -256.092; -345.835
614.186;  124.095; -249.107; -292.807
614.460;  700.646; -842.081; -758.854
614.735;  818.320;  -55.087;  -17.843
615.010;  173.360;   43.912;  -82.841
615.284;  244.285;  360.892;  246.195
615.559;  400.152; -792.092; -955.835
615.833;  295.765;  -76.099;  -87.822
616.108;    0.039; -225.090; -390.837
616.382;  134.147;  274.913;  402.156
616.656;  155.564; -241.090; -232.837
616.931;  517.340; -785.099; -700.822
617.205; 1090.425; -973.104; -979.813
617.480; 1002.439;  -91.125;    6.225
617.754;  165.862; -396.125; -128.774
618.028;    9.733; -369.129; -382.768
618.302;   58.884;   73.892;  -25.805
618.577;  -40.169; -371.103; -518.815
618.851;  -52.851; -399.109; -600.803
619.125;  -49.411; -335.134; -378.759
619.399;  -39.225; -244.104; -374.813
619.673;  -50.053; -330.115; -515.792
619.947;  -46.764; -333.114; -448.795
620.222;  -20.735; -198.110; -204.801
620.496;    2.051;  -47.121;  -96.782
620.770;   -8.133; -187.122;  -93.781
621.044;  217.034;  323.895;  346.190
621.318;  741.903; -653.120; -614.783
621.592;  676.626; -430.121; -409.783
621.866;  378.305; -476.112; -572.799
622.140;   33.491; -207.116; -356.791
622.413;   59.309;  138.889;  112.200
622.687;  -54.505; -746.101; -492.817
622.961;    6.709; -130.108; -143.805
623.235;  -69.840; -633.111; -661.800
623.509; -100.409; -816.105; -848.811
623.783;   10.368;  -12.107;   48.193
624.056;   -7.495; -254.120; -280.783
624.330;   43.073;   63.888;   -3.797
624.604;   51.887; -271.116; -355.790
624.877;   74.945;  180.890;   26.198
625.151;   41.106; -249.114; -238.794
625.425;  -30.798; -150.103; -283.814
625.698;  -64.211; -367.119; -374.785
625.972;  -92.578; -799.110; -765.802
626.245;   53.164;  685.884;  484.210
626.519;  -55.691; -426.120; -340.784
626.792;  -45.204; -192.107; -380.807
627.066;  -98.090; -485.122; -662.779
627.339; -101.882; -736.110; -663.802
627.613;   36.607;  351.880;  148.216
627.886;   48.849;  187.891; -612.803
628.160;  -13.247;  312.880; -161.783
628.433;  -94.008; -695.125; -703.775
628.706;  -81.691; -517.120; -615.784
628.979;   22.598;  296.876;  117.223
629.253;  -87.531; -785.119; -833.786
629.526;  393.102; -334.126; -253.772
629.799;  340.680; -641.123; -479.778
630.072;  171.484; -497.128; -516.769
630.346;  -54.861;-1115.116;-1080.790
630.619;  458.197; -467.107; -545.808
630.892;  637.435;  709.889;  593.200
631.165;  329.225;  790.896;  679.187
631.438;  -81.023;-1092.112;-1055.798
631.711;   44.933;  453.877;  257.221
631.984;  -41.190; -523.117; -624.789
632.257;  -70.369; -636.117; -681.789
632.530;  -53.011; -412.119; -433.785
632.803;    7.479; -109.115;    7.207
633.076;  -70.923; -360.123; -422.777
633.349;    5.138;  173.872;  121.231
633.622;  -56.412; -187.119; -240.785
633.895; -130.946; -903.120; -823.783
634.167;  -64.921; -496.126; -525.773
634.440;  -20.354;  -19.116; -137.792
634.713;   -7.383;  -22.119; -120.786
634.986;   76.328;  593.871;  453.233
635.258;  -73.673; -507.115; -597.793
635.531;   87.952;  742.882; -343.788
635.804;  -43.792; -303.117; -318.789
636.077;  -93.583; -830.116; -852.791
636.349;    4.851; -586.115; -474.793
636.622;  371.701; 1695.874; 1392.228
636.894;  251.409; -474.120; -909.784
637.167;  160.045; -836.127; -789.771
637.439;   21.566; -278.128; -213.770
637.712;  -49.322; -312.126; -293.772
637.984;  -78.858; -635.116; -707.791
638.257;  367.503;  515.877;  488.222
638.529;  563.443; -881.125; -924.776
638.802;  264.409; -508.128; -449.769
639.074; -111.258; -927.122; -952.781
639.346; -124.170; -942.135; -930.757
639.619;    0.466;  -79.142; -319.744
639.891;   -6.240;  -83.122; -168.779
640.163;  -76.788; -689.122; -756.780
640.435;   21.939;  273.878;  103.220
640.708;   15.841;  -72.122; -132.780
640.980;  -31.507; -366.122; -362.781
641.252;  178.420;  -25.121;  -71.781
641.524; 1809.046;  580.879;  573.219
641.796; 1838.373;-1094.121; -907.782
642.068;  342.075; -191.121; -300.782
642.340;  -64.723; -486.121; -566.783
642.613;   39.104;  294.880;  323.217
642.885;  -81.870; -787.120; -878.783
643.157;  -50.918; -810.120; -658.784
643.428;   59.634;  170.880;  218.216
643.700;  -72.539; -498.120; -425.784
643.972;  -34.337;  -16.119; -133.785
644.244;  -79.611; -474.119; -559.785
644.516;  -59.184; -250.119; -114.786
644.788;   55.168;  662.881;  548.214
645.060;  -41.155;  -12.119; -124.786
645.332;  -96.578; -525.118; -535.787
645.603;   30.648;  479.882;  342.213
645.875;  -72.725; -334.118; -369.787
646.147;  165.352; 1487.882; 1242.212
646.418;  -65.096; -931.117; -918.788
646.690;  162.656; -714.117; -715.789
646.962;   29.332; -413.117; -451.789
647.233;    0.009;   15.883;   11.211
647.505; -113.939; -595.117; -475.790
647.776;   23.013;  328.884;  229.210
648.048;    0.115; -248.116; -418.790
648.320;  -86.683; -752.116; -679.791
648.591; -154.407;-1055.116; -958.791
648.862;  -99.005; -505.116; -577.792
649.134;    8.722;  115.885;  198.208
649.405;  -33.826; -661.115; -618.792
649.677;  -45.299; -475.115; -598.793
649.948;   -7.873; -181.115; -296.793
650.219;  -11.921;  -37.115; -147.793
650.491;  -74.844; -431.114; -520.794
650.762; -121.467; -705.114; -731.794
651.033;  -96.340; -437.114; -424.795
651.304;  -92.214; -743.114; -728.795
651.576;  -73.662; -680.114; -645.795
651.847;  -49.035; -250.113; -140.796
652.118;  -32.108;  -32.113; -189.796
652.389; -104.756; -639.113; -722.796
652.660;  -46.805; -147.113;  -89.797
652.931; -140.078; -897.112; -871.797
653.202;  -86.626; -382.112; -541.798
653.473;  -64.299; -633.112; -533.798
653.744;  160.203; -595.112; -590.798
654.015;  143.004; -356.112; -303.799
654.286;  -74.219; -642.111; -663.799
654.557;  -56.867; -586.111; -521.799
654.828; -161.840;-1114.111;-1088.800
655.099;  -92.288; -404.111; -291.800
655.370; -104.687; -427.111; -543.801
655.641; -132.535; -656.110; -714.801
655.911;  -98.858; -618.110; -638.801
656.182;   30.919;  437.890;  387.198
656.453;   83.396;  830.890;  746.198
656.724;  -75.927; -466.110; -426.802
656.994;  -76.326; -553.109; -568.803
657.265; -108.849; -862.109; -873.803
657.536;  -94.747; -500.109; -377.804
657.806; -114.220; -561.109; -593.804
658.077; -144.493; -866.109; -950.804
658.347;  -87.567; -523.108; -598.805
658.618; -119.065; -646.108; -694.805
658.888;  -19.038;  -41.108;  112.195
659.159;  -86.961; -432.108; -548.806
659.429;   -5.309; -292.108; -349.806
659.700;   16.542; -435.107; -390.807
659.970;  -22.831; -370.107; -359.807
660.241;   10.796; -754.107; -921.807
660.511;  477.923; -147.107; -174.808
660.781;   98.775; -793.106; -748.808
661.052;  -48.574; -222.106; -381.808
661.322;  -23.497;   21.894;   -9.809
661.592;   13.055;  257.894;  148.191
661.862;  -86.343; -369.106; -382.810
662.133; -106.791; -551.105; -502.810
662.403; -119.840; -770.105; -676.810
662.673;  -48.913; -256.105; -213.811
662.943; -107.861; -612.105; -551.811
663.213;   -4.384;  -85.105;  -81.811
663.483;  -72.932; -593.104; -568.812
663.753;  -58.480; -194.104; -152.812
664.023;  -25.954;   68.896;  -32.813
664.293;  -76.502; -319.104; -126.813
664.563; -100.550; -694.104; -648.813
664.833; -119.973; -743.103; -608.814
665.103; -134.696; -730.103; -793.814
665.373; -116.670; -766.103; -806.814
665.643;  -95.118; -863.103; -918.815
665.913;   37.509; -534.103; -714.815
666.182;  133.411; -685.102; -719.816
666.452;  278.513;  -22.102;  -89.816
666.722;  -32.086; -724.102; -784.816
666.992; -121.134; -948.102; -921.817
667.261;  -91.957; -824.102; -808.817
667.531;  189.370;  134.899;   45.183
667.801;  536.747; -440.101; -412.818
668.070;  228.298;  714.899;  697.182
668.340;  -98.975; -883.101; -840.819
668.609;   87.077;  588.900;  301.181
668.879;  -80.746; -490.100; -558.819
669.149;  -73.094; -539.100; -516.820
669.418;  -90.243; -698.100; -726.820
669.688;  -37.666; -482.100; -666.820
669.957;   85.561; -423.099; -546.821
670.226;  -25.412; -268.099; -331.821
670.496;  -92.185; -431.099; -635.822
670.765;  -78.558; -418.099; -501.822
671.034; -139.357; -872.099; -828.822
671.304;  -17.855;   55.902; -111.823
671.573; -156.103;-1085.098; -957.823
671.842;   86.424; -380.098; -294.823
672.112;   26.376; -692.098; -586.824
672.381;    4.802; -239.098; -214.824
672.650; -136.596;-1005.097;-1021.825
672.919;  -89.469; -631.097; -507.825
673.188;  -90.817; -681.097; -878.825
673.457; -156.315;-1101.097;-1143.826
673.726;  -74.164; -579.096; -646.826
673.995;  -47.612; -533.096; -479.826
674.265;  -14.935; -263.096; -333.827
674.534;    1.217; -183.096; -235.827
674.802;    3.419; -618.096; -703.828
675.071; 1024.120; -886.095; -801.828
675.340; 4041.397; -464.095; -339.828
675.609; 1338.724;  103.905;   82.171
675.878;   85.176; -949.095; -893.829
676.147;   34.828;  -26.095;   -8.829
676.416;   99.254; -210.094; -294.830
676.685;  742.881; 1000.906; -622.830
676.953;  115.783; -603.094; -452.831
677.222;  -36.765; -193.094; -273.831
677.491;  -34.263;  -24.094; -127.831
677.759;   -8.211;   11.907;  172.168
678.028;  -27.185; -279.093; -222.832
678.297;   -8.383;   71.907;  197.168
678.565; -146.531; -898.093; -944.833
678.834;  -67.379; -311.093; -268.833
679.102;  -79.777; -411.092; -391.834
679.371; -130.601; -898.092; -727.834
679.639; -137.849; -797.092; -786.834
679.908; -112.922; -794.092; -724.835
680.176; -159.470; -895.091; -941.835
680.445;  -80.743; -346.091; -352.835
680.713;  -27.267;  -58.091;  -23.836
680.982;  -88.465; -523.091; -525.836
681.250; -115.563; -578.091; -507.837
681.518; -100.011; -534.090; -751.837
681.787;  -19.134; -204.090; -167.837
682.055;  -62.033; -490.090; -422.838
682.323; -164.406; -993.090; -992.838
682.591;   25.496; -216.090; -538.838
682.859;   90.473;    9.911;  -35.839
683.128;   25.375;  232.911;  497.161
683.396; -160.524;-1102.089;-1122.840
683.664;  -45.197; -241.089;   21.160
683.932;   -9.695;  144.911;  -76.840
684.200;  -84.768; -576.088; -320.841
684.468;  -21.791;  -73.088; -124.841
684.736;  -39.890; -214.088; -175.841
685.004; -119.413;-1024.088; -982.842
685.272;  -49.011; -880.088; -774.842
685.540;  -68.884; -499.087; -557.843
685.808;  -92.582; -651.087; -682.843
686.076; -110.380; -894.087; -969.843
686.343;  -62.179; -601.087; -815.844
686.611;   46.248; -195.087; -224.844
686.879;  438.825; -530.086; -553.844
687.147; 3391.277; -483.086; -480.845
687.414;  960.579;  -12.086; -169.845
687.682;    4.280; -658.086; -757.846
687.950;  327.657;  259.915;  263.154
688.217;    7.409; -792.085; -760.846
688.485;   -4.739; -632.085; -636.847
688.753;  540.363;  -11.085; -102.847
689.020;  176.314; -820.085; -851.847
689.288;  -94.159; -853.084; -787.848
689.555;  -39.632; -195.084; -148.848
689.823;  -43.655; -241.084; -345.849
690.090;  -78.803; -546.084; -651.849
690.358; -154.127; -877.084; -897.849
690.625;   -3.200;  120.917;   45.150
690.892;  -78.823; -403.083; -369.850
691.160;  -35.921;   72.917;  -35.850
691.427;  -14.069;  141.917;  130.149
691.694; -131.418; -855.083; -929.851
691.962; -153.041;-1177.082;-1060.852
692.229;   14.061;  127.918;   56.148
692.496;   66.313;  130.918;  -49.852
692.763;    7.465; -164.082; -201.853
693.031;  -82.358; -739.082; -716.853
693.298;  -30.407; -509.081; -368.853
693.565;  302.745; -155.081; -163.854
693.832; 1312.147;   -5.081;   -9.854
694.099;  150.424; -643.081; -642.855
694.366;  -58.899; -882.081; -896.855
694.633;  -62.098; -920.080; -633.855
694.900;  714.879; 4367.920; -114.856
695.167;  413.881; -214.080; -380.856
695.434;   89.433; -646.080; -623.856
695.701;  195.135;  121.921;  -61.857
695.968;  467.736; -365.079; -361.857
696.234;  964.663; -415.079; -646.858
696.501;10111.090; -776.079; -614.858
696.768; 5206.192; -554.079; -617.858
697.035;  308.094; -632.078; -667.859
697.302;   16.345; -448.078; -552.859
697.568;   13.697; -458.078; -497.859
697.835;  -49.901; -683.078; -624.860
698.102;  -23.674; -498.078; -407.860
698.368;   79.053;  384.923;  396.139
698.635;  -42.096;  -47.077; -424.861
698.901;  -13.794; -240.077; -348.861
699.168;   80.833; -534.077; -456.862
699.435;   74.510;  -72.077;  -13.862
699.701;  -99.238; -868.076; -764.862
699.968;    2.064;  144.924; -441.863
700.234;  -95.135; -783.076; -822.863
700.500;  -55.558; -448.076; -539.864
700.767;    0.419;   -1.075;   26.136
701.033; -130.429;-1015.075; -963.864
701.299;  -40.602; -450.075; -483.865
701.566;  124.249;  950.925;  763.135
701.832;   15.076;  -31.075;  -76.865
702.098;  -94.822;-1054.074;-1034.866
702.365;  -76.820;-1098.074;-1030.866
702.631;  -32.443;-1038.074;-1063.867
702.897; 1355.408; -765.074; -676.867
703.163; 2252.160;  348.926;  254.133
703.429;  163.037; -256.073; -273.868
703.695;  -43.836; -796.073; -792.868
703.961;   12.666; -214.073; -210.868
704.227;  -66.133; -630.073; -725.869
704.493;  125.794;  613.927;  510.131
704.759;  -28.604; -565.072; -540.870
705.025;   23.423; -203.072; -194.870
705.291;   -4.775; -666.072; -562.870
705.557;  193.551;  719.928;   34.129
705.823;   35.903; -742.072; -694.871
706.089;  136.555; -307.071; -326.871
706.355;  340.707; -315.071; -244.872
706.620; 5249.509; -776.071; -729.872
706.886; 7581.886; -309.071; -362.873
707.152;  729.812; -818.070; -973.873
707.418;  -18.986;-1153.070;-1186.873
707.683;  -12.634; -550.070; -530.874
707.949;  -39.082; -547.070; -578.874
708.215;  -11.505; -129.070; -207.874
708.480;  -23.429; -520.069; -420.875
708.746;   96.698;   68.931;   28.125
709.011;  -61.275; -578.069; -612.876
709.277;  -81.098; -538.069; -543.876
709.542;  -35.996; -428.069; -387.876
709.808;  -10.320;  -59.068;   89.123
710.073;  -81.968; -577.068; -695.877
710.339;  -16.541; -242.068; -228.877
710.604;   66.636; -780.068; -845.878
710.869;  321.738; -277.068; -366.878
711.135;  -66.811; -715.067; -628.879
711.400;  -83.309; -507.067; -608.879
711.665;  -71.257; -404.067; -479.879
711.931;  -89.180; -661.067; -677.880
712.196; -126.028; -876.067; -954.880
712.461;  107.998; -402.066; -490.880
712.726;  139.500; -727.066; -771.881
712.991;  -97.798; -647.066; -664.881
713.256;  -46.821; -350.066; -332.882
713.521;  -53.869; -417.065; -381.882
713.787;  -61.868; -454.065; -472.882
714.052;  -38.866; -214.065; -400.883
714.317;  -96.214;-1045.065; -981.883
714.581;  961.088; -374.065; -268.883
714.846; 1343.915; -822.064; -888.884
715.111;  127.292;  261.936;  257.116
715.376;  -25.857;  -86.064; -223.885
715.641;  -20.730; -365.064; -367.885
715.906;  301.422;   15.936; -551.885
716.171;  137.824;  221.937;  209.114
716.436;   19.251;  -78.063; -104.886
716.700;  -98.623; -818.063; -692.886
716.965; -120.671; -794.063; -807.887
717.230;  -81.319; -339.063; -392.887
717.494;  -34.842;  -40.062; -134.888
717.759;  -98.640; -784.062; -640.888
718.024;    1.436;  269.938;  250.112
718.288;   74.238;  685.938;  395.111
718.553; -147.060; -803.062; -977.889
718.817; -142.383; -883.061; -899.889
719.082;  -50.456; -115.061; -125.890
719.346; -136.430;-1000.061; -947.890
719.611;  -45.503; -300.061; -255.891
719.875; -101.701; -568.060; -537.891
720.140;  -67.924; -453.060; -603.891
720.404;   25.003; -136.060; -249.892
720.668;  842.904; -475.060; -411.892
720.933;  335.056;  146.940;  137.108
721.197; -101.867; -667.059; -600.893
721.461; -143.340; -851.059; -826.893
721.725;   -9.838;  -21.059; -250.894
721.990;  -64.761; -284.059; -204.894
722.254;  -41.485;  -26.059; -108.894
722.518;  -74.983; -286.058; -442.895
722.782;  -93.756; -743.058; -594.895
723.046;  135.346;  614.942;  570.105
723.310;   13.823;  374.942;  210.104
723.574; -103.451; -654.058; -614.896
723.838; -106.399; -576.057; -642.897
724.102;  -50.847; -226.057; -239.897
724.366; -137.170;-1032.057; -978.897
724.630;  -96.693; -749.057; -571.898
724.894;  -80.092; -722.057; -514.898
725.158;  -21.290;   38.944; -295.898
725.422;  -48.163; -394.056; -327.899
725.685;  -61.761; -441.056; -349.899
725.949;  -78.634; -566.056; -519.900
726.213;  -85.608; -732.056; -811.900
726.477;  175.069;-1020.055; -933.900
726.740;  150.871; -274.055; -104.901
727.004;  307.948; -384.055; -510.901
727.268; 3205.250; -442.055; -400.901
727.531;  869.176; -961.055; -775.902
727.795;  -53.297; -713.054; -673.902
728.059;  -57.670; -552.054; -557.903
728.322;  -90.693; -841.054; -669.903
728.586;   39.934; -692.054; -701.903
728.849;  -79.514; -695.053; -756.904
729.112; -113.713; -812.053; -912.904
729.376; -137.886; -959.053; -905.904
729.639;  -82.859; -536.053; -536.905
729.903; -106.957; -733.053; -699.905
730.166;  -45.630; -437.052; -399.906
730.429;  -38.029; -317.052; -468.906
730.693;  -74.352; -355.052; -894.906
730.956;  208.750;  810.948;  651.093
731.219;  740.627; -310.052; -103.907
731.482;  117.104;-1003.051; -894.907
731.745;  100.755; -794.051; -935.908
732.009;   12.482;  -30.051;   50.092
732.272;  -94.766; -904.051; -771.909
732.535;  -47.764; -300.051; -310.909
732.798; -155.187;-1083.050;-1166.909
733.061;  -51.236; -430.050; -456.910
733.324;   -6.634;   31.950; -180.910
733.587;   58.893;  290.950;  365.090
733.850;  -75.605; -973.049;-1050.911
734.113;   32.122;   33.951;   32.089
734.376;    3.948; -328.049; -447.912
734.639;  220.650; 1188.951; 1011.088
734.901;   76.202; -180.049; -402.912
735.164;  491.979; -883.048; -837.913
735.427; 1358.281; -166.048; -355.913
735.690;  130.058; -205.048; -234.913
735.952;  -41.316; -923.048; -925.914
736.215;  -24.564;-1113.048;-1009.914
736.478;   34.188; -771.047; -774.915
736.740;  212.890;   33.953;  129.085
737.003;  665.792; -658.047; -672.915
737.266; 4162.518;  -94.047;   46.084
737.528;  439.945; -682.047; -660.916
737.791;  300.222; -316.046; -327.916
738.053;  784.074;  465.954;  649.083
738.316;10528.901; -162.046; -136.917
738.578; 7579.427; -770.046; -736.918
738.841;  440.304; -382.046; -446.918
739.103;  180.881; -875.045; -777.918
739.365;  505.608;   79.955;  -69.919
739.628;    5.385; -884.045; -805.919
739.890;  -27.864; -758.045; -710.919
740.152;  -45.687; -692.044; -754.920
740.414;  -26.510; -408.044; -359.920
740.677;  -57.208; -785.044; -634.921
740.939;  -46.681; -587.044; -487.921
741.201;  265.645; -432.044; -572.921
741.463;   40.297; -689.043; -745.922
741.725;   -0.276;  -21.043; -199.922
741.987;   50.301;  220.957;  116.078
742.249;    3.803; -751.043; -859.923
742.511;  210.004; -703.043; -794.923
742.773;    2.531; -546.042; -546.924
743.035;  120.633;  796.958;  533.076
743.297;  -34.165; -963.042;-1013.924
743.559;  724.487; -278.042; -262.925
743.821;   60.839; -735.042; -744.925
744.083;   -5.585;  -44.041; -149.925
744.345;  -94.958; -869.041; -892.926
744.607;   36.594;   75.959;  122.074
744.868;  -55.079; -490.041; -554.927
745.130; -117.202; -994.041;-1008.927
745.392;   24.374;   -1.040;  -44.927
745.653;   -4.874; -411.040; -378.928
745.915;  158.053;  896.960;  631.072
746.177;   49.830;   35.960;  -43.928
746.438;  -12.743; -428.040; -543.929
746.700;  -39.167; -947.039; -988.929
746.961;  -12.840; -659.039; -740.930
747.223;  134.587; -190.039;  -74.930
747.484;   88.064; -391.039; -471.930
747.746;  147.941;  -23.038; -106.931
748.007;  106.067; -647.038; -689.931
748.269;  300.769; -468.038; -440.931
748.530;  503.746; -852.038; -638.932
748.791;  265.323; -354.038; -420.932
749.053;  433.900;  286.963;  163.067
749.314;  469.801; -236.037; -169.933
749.575;  513.728; -945.037; -905.933
749.836;  848.430; -217.037;   86.066
750.098; 2407.932;  -60.037;  -21.934
750.359;36787.959;  414.964;  555.066
750.620; 9585.886; -121.036; -220.935
750.881; 1047.212; -585.036; -513.935
751.142; 1337.764; -950.036; -938.936
751.403;16505.716; -789.036; -705.936
751.664; 7510.493;-1034.035; -999.936
751.925;  500.020; -175.035; -262.937
752.186;  273.771; -298.035; -278.937
752.447;  127.598; -590.035; -445.937
752.708;   51.425; -532.035; -648.938
752.969;   13.952; -566.034; -576.938
753.230;   -2.571; -777.034; -672.939
753.491;   -2.495; -650.034; -631.939
753.751;   65.082;  109.966;   19.061
754.012;  101.834;  258.967;  181.060
754.273;   49.661; -174.033;  -71.940
754.534;   -3.312; -487.033; -580.940
754.794;  -82.661; -926.033; -911.941
755.055;  133.491; 1051.967;  881.059
755.316;  -49.732; -700.032; -566.942
755.576;  -35.180; -606.032; -576.942
755.837;  -57.703; -527.032; -695.942
756.097;  -32.227; -530.032; -564.943
756.358;  -81.525; -725.032; -770.943
756.618;  -46.423; -705.031; -641.943
756.879;  -11.571; -254.031; -349.944
757.139; -117.019;-1098.031;-1116.944
757.400;  -58.542; -538.031; -553.945
757.660;  -22.441; -365.031; -401.945
757.920;   10.436; -266.030; -228.945
758.181;  -29.587; -468.030; -351.946
758.441;  -90.260; -870.030; -809.946
758.701;  -14.058; -308.030; -215.946
758.961;  -30.032; -220.030; -278.947
759.222;  -53.455; -574.029; -502.947
759.482;  -88.928; -683.029; -723.948
759.742;  -93.876; -706.029; -547.948
760.002;    5.901;  -83.029; -143.948
760.262;    9.227;   50.972;  182.051
760.522;  -40.146; -498.028; -574.949
760.782;  -66.394; -738.028; -612.949
761.042;  -34.267; -618.028; -573.950
761.302;   45.360;   55.972;  -18.950
761.562;   58.161; -164.027; -154.951
761.822;   82.938; -710.027; -551.951
762.082;  -40.585;-1104.027;-1093.951
762.342;   71.267; -328.027; -403.952
762.601;   76.919; -567.027; -506.952
762.861;  371.295; -281.026; -207.952
763.121;  402.947; -406.026; -411.953
763.381; 7227.924; -499.026; -485.953
763.640; 8225.076; -139.026; -307.954
763.900;  362.803; -242.026; -203.954
764.160;   80.055; -458.025; -491.954
764.419;  -10.494; -726.025; -782.955
764.679;  -71.267; -795.025; -726.955
764.939;  -20.790; -124.025; -210.955
765.198;  -71.988; -608.025; -563.956
765.458;  -86.736; -710.024; -612.956
765.717;  -93.560; -454.024; -590.957
765.976;  -50.983; -428.024; -411.957
766.236;  -78.131; -475.024; -610.957
766.495;   21.021;  260.977;   73.042
766.755;  -99.152;-1090.023; -987.958
767.014;   -0.026; -594.023; -665.958
767.273;  -55.149; -373.023; -397.959
767.533;  -45.022; -228.023; -307.959
767.792;  -40.045; -151.022; -188.960
768.051;  -57.668; -228.022; -276.960
768.310;  -84.967; -546.022; -650.960
768.569;   -8.590; -161.022;    4.039
768.828;  -40.363; -285.022; -363.961
769.088; -120.311;-1050.021; -942.961
769.347;  -89.509; -755.021; -599.962
769.606; -104.908; -876.021; -857.962
769.865; -137.056;-1016.021;-1033.963
770.124;   -8.979; -411.021; -336.963
770.383;  -54.802; -778.020; -910.963
770.641;    4.750; -398.020; -400.964
770.900;  -72.374; -953.020; -846.964
771.159;  -54.422; -851.020; -951.964
771.418;  -25.295; -917.020; -779.965
771.677;  124.707; -224.019; -293.965
771.936;  117.334; -794.019; -865.966
772.194; 2007.486; -465.019; -437.966
772.453;10823.012; -213.019; -391.966
772.712;  779.614;  416.982;  329.033
772.970;  104.216;   32.982;   63.033
773.229;   79.193;  -22.018;  102.033
773.488;  -88.730; -814.018; -770.968
773.746;   51.196;  296.982;  335.032
774.005;    0.348;  190.983;  -22.969
774.263;    7.025;  243.983;  177.031
774.522;  -47.248; -422.017; -548.969
774.780;  -79.771; -484.017; -417.970
775.039;  -96.270; -551.017; -531.970
775.297;  -42.718; -135.016; -351.970
775.555; -107.491; -489.016; -612.971
775.814; -122.139; -618.016; -570.971
776.072; -127.237; -749.016; -740.971
776.330; -115.361; -630.016; -520.972
776.589; -111.584; -703.015; -721.972
776.847; -128.332; -645.015; -624.973
777.105; -177.830;-1016.015;-1032.973
777.363;  -87.678; -459.015; -454.973
777.621; -145.927; -660.015; -717.974
777.879;  -30.575;  -42.014;   32.026
778.138; -117.923; -554.014; -717.974
778.396; -102.521; -585.014; -526.975
778.654; -166.844;-1015.014; -970.975
778.912;  -70.467; -269.014; -371.976
779.170; -136.966; -880.013; -803.976
779.427; -151.514; -922.013; -897.976
779.685; -150.812; -880.013; -832.977
779.943;  -73.135; -654.013; -593.977
780.201; -166.758; -964.012; -883.978
780.459; -120.257; -651.012; -610.978
780.717;  -92.005; -440.012; -390.978
780.974; -100.403; -449.012; -490.979
781.232;  -79.826; -358.012; -338.979
781.490;  -77.649; -551.011; -472.979
781.747; -108.723; -555.011; -476.980
782.005;    8.704;  462.989;  254.020
782.263; -169.444; -542.011;-1004.981
782.520;  -84.367; -326.011; -501.981
782.778; -165.515;-1013.010;-1051.981
783.035; -172.064; -962.010; -938.982
783.293;  -75.387; -248.010; -206.982
783.550;  -72.910; -134.010; -198.982
783.808; -133.283; -764.010; -776.983
784.065; -168.606; -745.009; -874.983
784.322;  -50.405;   25.991;  -86.984
784.580; -149.653; -915.009; -771.984
784.837;  -98.176; -392.009; -466.984
785.094; -150.074; -783.009; -762.985
785.352;  -68.322; -304.008; -404.985
785.609; -119.620; -934.008; -839.985
785.866;  -80.719; -345.008; -401.986
786.123;  -78.342; -639.008; -583.986
786.380; -107.990; -665.008; -604.987
786.637;  -43.038; -225.007; -380.987
786.895;  -17.286; -456.007; -543.987
787.152;  -54.285; -135.007; -267.988
787.409;  -47.683; -123.007; -225.988
787.666;  -86.256; -299.006; -378.988
787.923; -111.904; -616.006; -695.989
788.179; -100.627; -551.006; -584.989
788.436; -108.876; -585.006; -585.990
788.693;  -46.199;  -92.006;  -87.990
788.950;  141.778; -125.005; -112.990
789.207;  227.980; -381.005; -372.991
789.464;  -50.668; -161.005; -301.991
789.720;  -15.642;  150.995;  110.009
789.977; -186.990;-1003.005; -671.992
790.234;  -33.638;   44.996;  -66.992
790.490; -162.161; -884.004;-1031.993
790.747;  -18.384;  -85.004;   22.007
791.004;  -35.158; -426.004; -348.993
791.260;  -84.006; -430.004; -560.994
791.517;  -99.479; -843.003; -788.994
791.773;  -49.427; -379.003; -342.994
792.030; -113.400; -596.003; -660.995
792.286; -106.673; -686.003; -636.995
792.543;  -25.772;  -74.002; -159.995
792.799;  -74.345; -584.002; -382.996
793.055; -164.818;-1179.002;-1210.996
793.312;  -99.416; -827.002; -816.997
793.568;  -71.339; -746.002; -599.997
793.824;   10.512; -226.001; -284.997
794.081;   16.214; -447.001; -508.998
794.337;   72.816; -664.001; -561.998
794.593; 1245.843; -319.001; -271.999
794.849; 6584.820; -746.001; -772.999
795.105;  306.671; -270.000; -261.999
795.361;    4.198; -490.000; -457.000
795.617;  -66.725; -875.000; -945.000
795.873;  -54.900; -360.000; -407.000
796.129;  -37.625; -368.000; -306.000
796.385;  -14.475; -124.000; -156.000
796.641;   59.475;  412.000;  550.000
796.897;  -97.175; -666.000; -635.000
797.153;   55.850;  453.000;  357.000
797.409; -106.200; -785.000; -868.000
797.665;  -87.450; -625.000; -732.000
797.921;  -80.575; -775.000; -762.000
798.176;  -61.150; -744.000; -747.000
798.432;  -48.225; -824.000; -596.000
798.688;  -73.050;-1174.000;-1078.000
798.943;   75.925; -165.000; -147.000
799.199;    1.500;-1005.000; -959.000
799.455;  218.500;  369.000;  316.000
799.710;   99.275; -813.000; -380.000
799.966;  295.275; -162.000; -160.000
800.221;  451.525; -638.000; -721.000
800.477;10072.725; -743.000; -710.000
800.732; 9373.050; -773.000; -800.000
800.988;  615.575;  205.000;  -19.000
801.243; 1642.650; -454.000; -344.000
801.498; 7391.400; -814.000; -739.000
801.754;  425.475; -289.000; -163.000
802.009;   71.825; -257.000; -335.000
802.264;  -63.725; -967.000;-1033.000
802.520;    5.525;  222.000;   -3.000
802.775;  -58.925; -524.000; -359.000
803.030;   48.000;  395.000;  356.000
803.285; -134.675; -840.000; -903.000
803.540;  -64.300; -686.000; -699.000
803.795;  -46.600; -648.000; -583.000
804.051;  -48.350; -279.000; -346.000
804.306;   19.925;  168.000;  128.000
804.561;  139.550;  451.000;  362.000
804.816;  111.625;  714.000;  861.000
805.071;    2.975; -185.000; -280.000
805.325;  220.050; -257.000; -427.000
805.580;  -93.450; -841.000; -877.000
805.835;  -26.525; -204.000; -297.000
806.090;  -80.125; -760.000; -676.000
806.345;  -24.575; -344.000; -264.000
806.600;  -23.475; -549.000; -632.000
806.854;  -40.525; -408.000; -538.000
807.109;  -21.825; -493.000; -577.000
807.364;   -2.400; -407.000; -328.000
807.618;  -13.150; -415.000; -381.000
807.873;   45.925; -470.000; -494.000
808.128;   99.375; -257.000; -518.000
808.382;  105.050; -224.000; -332.000
808.637;   67.600; -440.000; -511.000
808.891;  174.000; -257.000; -180.000
809.146;   98.350; -902.000; -794.000
809.400;  247.700; -848.000; -923.000
809.654;  325.600; -779.000; -551.000
809.909;  483.275; -841.000; -927.000
810.163; 6439.175; -813.000; -651.000
810.418;17595.725; -940.000; -861.000
810.672; 1064.625; -685.000; -690.000
810.926;  692.650; -993.000; -973.000
811.180; 1357.550; -439.000; -372.000
811.434;30597.450;  240.000;  135.000
811.689;12923.100; -231.000; -365.000
811.943;  639.525; -936.000; -953.000
812.197;  320.975; -893.000; -671.000
812.451;  126.950; -379.000; -514.000
812.705;  -32.175; -809.000; -619.000
812.959;  -15.575; -263.000; -388.000
813.213;  -21.100; -283.000; -209.000
813.467;   87.100;  470.000;  253.000
813.721;  -99.400; -764.000; -792.000
813.975; -132.900; -826.000; -877.000
814.229;   44.450;  430.000;  353.000
814.482;  -68.225; -517.000; -566.000
814.736; -123.725; -766.000; -744.000
814.990; -123.000; -779.000; -872.000
815.244;  -44.175; -228.000; -285.000
815.497;  -92.375; -636.000; -601.000
815.751;  -34.750; -141.000;   82.000
816.005;  -91.625; -470.000; -586.000
816.258;  -71.425; -510.000; -363.000
816.512; -109.725; -693.000; -610.000
816.766;    9.950;  121.000;  157.000
817.019;   14.775;  148.000;  149.000
817.273; -126.175;-1000.000; -802.000
817.526;  -55.625; -206.000; -173.000
817.779;  -33.800;-1049.000; -960.000
818.033;  -80.450; -693.000; -807.000
818.286; -118.075; -725.000; -792.000
818.540;  -94.600; -403.000; -403.000
818.793;  -71.475; -402.000; -489.000
819.046; -110.525; -582.000; -520.000
819.299;  -55.200; -157.000; -166.000
819.553; -124.100; -552.000; -592.000
819.806; -167.075;-1016.000; -838.000
820.059;  -68.075; -334.000; -354.000
820.312;   10.600;  152.000;  185.000
820.565;  -13.350;  110.000;  -27.000
820.818;  -80.925;  -59.000; -173.000
821.071; -179.750;-1041.000; -957.000
821.324; -116.125; -536.000; -540.000
821.577; -118.850; -457.000; -483.000
821.830;  -72.975; -270.000; -172.000
822.083; -125.075; -733.000; -288.000
822.336;  -64.450; -261.000; -167.000
822.589; -139.200; -805.000; -688.000
822.842; -161.025; -875.000; -770.000
823.094; -183.975;-1076.000;-1114.000
823.347; -143.700; -925.000; -729.000
823.600;   -1.975;  402.000;  187.000
823.853;  -56.125; -311.000; -267.000
824.105;  -74.150; -331.000; -575.000
824.358; -110.150; -617.000; -716.000
824.611;   14.100;  234.000;   40.000
824.863;  -71.175; -612.000; -591.000
825.116;   41.825;  -33.000;   27.000
825.368;   80.925; -366.000; -372.000
825.621;  146.675; -186.000; -240.000
825.873;   75.425; -704.000; -737.000
826.126;  539.425; -669.000; -641.000
826.378;11382.275; -389.000; -505.000
826.630; 2964.350; -890.000; -898.000
826.883;   24.950; -754.000; -693.000
827.135;   39.375; -279.000; -270.000
827.387; -114.950; -893.000; -839.000
827.639;  -38.850;  -86.000;   32.000
827.892; -123.175; -742.000; -582.000
828.144; -159.875; -848.000; -804.000
828.396;  -43.475;  104.000;  -80.000
828.648; -105.725; -440.000; -333.000
828.900; -132.825; -702.000; -795.000
829.152; -123.150; -684.000; -683.000
829.404;  -74.075; -215.000; -267.000
829.656;  -53.350;  321.000;  214.000
829.908;  -20.400;  393.000;  229.000
830.160; -181.325;-1064.000;-1047.000
830.412; -105.250; -481.000; -430.000
830.664; -134.475; -557.000; -665.000
830.916;  -77.800; -268.000; -206.000
831.167; -179.000;-1073.000; -951.000
831.419; -120.625; -623.000; -566.000
831.671; -158.400; -764.000; -809.000
831.923;  -84.625; -311.000; -447.000
832.174;  -73.875; -273.000; -331.000
832.426; -125.800; -493.000; -582.000
832.678; -196.100;-1043.000;-1091.000
832.929; -176.975; -947.000; -935.000
833.181;  -60.100; -575.000; -677.000
833.432;  -64.925;  -59.000; -186.000
833.684;  -32.375;  112.000;  -27.000
833.935; -121.200; -610.000; -566.000
834.187; -125.900; -829.000; -823.000
834.438;  -50.125;  -58.000;  -25.000
834.689;  -55.075; -255.000; -123.000
834.941;  -58.775; -343.000; -244.000
835.192;  -92.275; -590.000; -533.000
835.443;  -99.775; -419.000; -506.000
835.695;  -19.200;  138.000;  -16.000
835.946; -112.575; -608.000; -378.000
836.197; -107.675; -599.000; -622.000
836.448;  -95.850; -528.000; -395.000
836.699;  -77.250; -253.000; -341.000
836.950;   -8.675;   72.000;    7.000
837.201; -153.950;-1003.000; -987.000
837.452;  -69.700; -356.000; -170.000
837.703; -113.400; -791.000; -737.000
837.954;  -28.175; -205.000; -365.000
838.205;  -87.875;-1029.000;-1008.000
838.456;  163.075; -196.000; -282.000
838.707;   13.000; -423.000; -519.000
838.958;    9.950; -634.000; -647.000
839.209;  292.800;   18.000;   40.000
839.460;  107.425; -439.000; -201.000
839.710;  169.025; -135.000; -297.000
839.961;  411.425;  730.000;  612.000
840.212;  336.075; -382.000; -497.000
840.462; 1084.950; -328.000; -277.000
840.713;17504.550; -571.000; -536.000
840.964; 7540.425;  -62.000; -143.000
841.214;  506.225; -384.000; -624.000
841.465;  563.525; -214.000; -141.000
841.715;  501.050; -417.000; -380.000
841.966;  657.325; -746.000; -685.000
842.216; 8867.625; -330.000; -431.000
842.466;35685.525; -169.000; -313.000
842.717; 2095.050; -964.000; -952.000
842.967;  310.125; -635.000; -641.000
843.217;  272.775;   20.000;   28.000
843.468;   70.150; -104.000; -132.000
843.718;  -36.375; -718.000; -726.000
843.968;  -91.350; -837.000; -765.000
844.218;    8.225; -315.000; -262.000
844.469;  -41.650; -577.000; -561.000
844.719; -109.675; -537.000; -682.000
844.969; -107.300; -550.000; -580.000
845.219; -137.975; -814.000; -862.000
845.469;  -80.050; -392.000; -342.000
845.719; -148.400; -792.000; -884.000
845.969;  -20.850;  119.000;  174.000
846.219; -122.775; -738.000; -720.000
846.469;    4.375;  464.000;  432.000
846.718;  -49.175; -115.000;   31.000
846.968; -140.350; -827.000; -827.000
847.218;  -58.375; -224.000; -371.000
847.468; -120.725; -586.000; -555.000
847.718; -145.950; -827.000; -798.000
847.967; -145.700; -826.000; -915.000
848.217;  -91.475; -449.000; -569.000
848.467;  -70.075; -405.000; -376.000
848.716; -112.150; -708.000; -725.000
848.966;   -2.725; -372.000; -358.000
849.215;  -68.300; -428.000; -419.000
849.465; -108.300; -785.000; -615.000
849.714; -139.525;-1132.000;-1150.000
849.964;  -73.500; -551.000; -613.000
850.213;  -23.275; -393.000; -355.000
850.463;   78.400;  137.000;  340.000
850.712;    4.725; -542.000; -567.000
850.961;   15.950; -739.000; -678.000
851.211;   88.600; -513.000; -504.000
851.460;  160.050; -635.000; -650.000
851.709;  540.725;  -25.000;   18.000
851.958; 9943.050; -912.000; -750.000
852.208;12908.875; -859.000; -879.000
852.457;  476.400; -181.000;  -13.000
852.706;   71.150; -791.000; -823.000
852.955;   20.825; -507.000; -528.000
853.204;  -79.950; -521.000; -461.000
853.453;  -79.850; -418.000; -458.000
853.702; -139.000; -660.000; -750.000
853.951; -109.850; -532.000; -520.000
854.200; -121.550; -613.000; -562.000
854.449; -127.475; -695.000; -661.000
854.698;  -97.425; -340.000; -279.000
854.946;  -64.675; -181.000; -284.000
855.195; -150.150; -843.000; -868.000
855.444;  -94.275; -395.000; -420.000
855.693; -137.875; -345.000; -432.000
855.941; -120.250; -387.000; -516.000
856.190;  -61.825; -256.000; -382.000
856.439; -136.750; -652.000; -703.000
856.687;  -61.200;  -99.000;  -72.000
856.936; -118.250; -621.000; -323.000
857.184; -187.825;-1067.000;-1020.000
857.433; -109.775; -423.000; -512.000
857.681; -170.625; -989.000; -953.000
857.930;  -79.950; -282.000; -433.000
858.178; -173.700; -856.000; -929.000
858.427; -163.575; -802.000; -781.000
858.675; -128.900; -377.000; -544.000
858.923; -114.825; -527.000; -819.000
859.172; -201.525;-1094.000;-1070.000
859.420;  -88.875; -339.000; -239.000
859.668; -144.650; -624.000; -628.000
859.916;  -38.100;  109.000;  115.000
860.164; -117.175; -699.000; -603.000
860.413;  271.300; -878.000; -696.000
860.661;  245.625; -709.000; -577.000
860.909;  -87.775; -339.000; -325.000
861.157;  -96.900; -277.000; -444.000
861.405; -127.375; -534.000; -670.000
861.653;   18.200;  310.000;  310.000
861.901;  173.600; -543.000; -613.000
862.149;   14.600; -801.000; -824.000
862.396;  -86.850; -297.000; -187.000
862.644; -100.425; -368.000; -347.000
862.892;  -30.300;   98.000;  138.000
863.140; -125.975; -549.000; -530.000
863.388; -173.800; -815.000; -759.000
863.635; -150.675; -642.000; -601.000
863.883;  -19.725;  231.000;  190.000
864.131; -101.200; -288.000; -357.000
864.378; -138.000; -675.000; -540.000
864.626; -118.850; -347.000; -415.000
864.873; -126.350; -556.000; -505.000
865.121; -146.375; -714.000; -799.000
865.368;  -62.200; -173.000;   75.000
865.616;  -43.200;  -33.000;  -40.000
865.863;  -94.875; -462.000; -506.000
866.111; -117.525; -795.000; -824.000
866.358;   14.475; -426.000; -420.000
866.605; 2060.350;  -64.000; -804.000
866.853; 2252.075; -621.000; -537.000
867.100;  -56.825; -728.000; -775.000
867.347; -105.375; -672.000; -611.000
867.594; -101.625; -740.000; -714.000
867.841;   87.425;   97.000;   17.000
868.089; -165.475; -746.000; -698.000
868.336; -113.525; -477.000; -420.000
868.583; -140.175; -637.000; -741.000
868.830;  -73.400; -131.000; -170.000
869.077; -177.075; -859.000; -787.000
869.324; -141.125; -502.000; -458.000
869.571; -128.000; -398.000; -430.000
869.818; -116.650; -485.000; -439.000
870.065;  -98.775; -439.000; -513.000
870.311; -125.425; -456.000; -542.000
870.558; -119.475; -332.000; -311.000
870.805;  -93.225; -320.000; -384.000
871.052; -120.700; -494.000; -369.000
871.298;  -61.575; -204.000; -131.000
871.545;  -76.375; -151.000; -185.000
871.792;  -93.550; -173.000; -222.000
872.038;  -68.025;   43.000; -126.000
872.285; -123.325; -496.000; -387.000
872.532; -112.400; -357.000; -387.000
872.778;    4.350;  556.000;  403.000
873.025; -102.700; -384.000; -359.000
873.271;   15.975;  501.000;  578.000
873.517;  -43.750; -133.000; -209.000
873.764;  -44.325; -193.000;  -80.000
874.010;  -78.950; -143.000; -230.000
874.257;  -52.000;  123.000;   90.000
874.503; -144.450; -579.000; -479.000
874.749;  -80.575;   31.000;  275.000
874.995;  -69.850;  -80.000;  -20.000
875.242; -132.900; -540.000; -478.000
875.488; -115.900; -414.000; -439.000
875.734;  -55.900; -106.000; -234.000
875.980;  179.275; -872.000;-1032.000
876.226;  388.275; -157.000; -255.000
876.472;  -12.875;  343.000;  237.000
876.718;  -50.525;  184.000;  158.000
876.964;  -44.850;   56.000;   55.000
877.210; -154.875; -547.000; -677.000
877.456; -155.200; -630.000; -557.000
877.702; -180.375; -821.000; -832.000
877.948; -126.600; -377.000; -497.000
878.193;   -0.400;  361.000;  255.000
878.439;  -96.275; -487.000; -472.000
878.685; -108.450; -272.000; -343.000
878.931; -133.350; -618.000; -676.000
879.176; -100.850; -201.000; -201.000
879.422; -195.425; -933.000; -820.000
879.668;   14.175;   10.000;   79.000
879.913;  134.025;   53.000;  137.000
880.159;  -54.550; -112.000;  -17.000
880.404;  -78.100; -152.000; -162.000
880.650;  -44.075;   91.000;  141.000
880.895; -167.175; -670.000; -710.000
881.141; -129.525; -454.000; -428.000
881.386; -155.075; -503.000; -658.000
881.631;  -92.700; -311.000; -166.000
881.877;  -38.375;  112.000;  -13.000
882.122; -144.625; -684.000; -600.000
882.367;  -97.525; -136.000; -186.000
882.612;  -92.375;  -80.000; -176.000
882.858; -180.625; -877.000; -823.000
883.103; -110.150; -297.000; -267.000
883.348; -154.775; -759.000; -852.000
883.593; -145.975; -677.000; -602.000
883.838;  -46.600; -311.000;  -24.000
884.083;   26.225;  353.000;  288.000
884.328;  -99.150; -564.000; -545.000
884.573;  -66.450; -196.000; -143.000
884.818;  171.425; -694.000; -531.000
885.063;  203.900; -348.000; -315.000
885.308; -100.475; -475.000; -398.000
885.553;  -28.600;  245.000;  325.000
885.797; -138.725; -545.000; -615.000
886.042;  -64.625;    8.000;   58.000
886.287;  -81.225; -253.000; -211.000
886.532;  -58.800;   26.000;  204.000
886.776; -123.300; -407.000; -525.000
887.021; -154.700; -621.000; -574.000
887.265; -147.300; -685.000; -689.000
887.510; -155.925; -557.000; -496.000
887.755;  -92.475; -194.000; -164.000
887.999; -147.375; -552.000; -575.000
888.244;  -76.100;  -58.000;  161.000
888.488;   -5.700;  371.000;  393.000
888.732; -143.700; -368.000; -520.000
888.977; -138.725; -622.000; -567.000
889.221; -167.250; -683.000; -659.000
889.465; -125.575; -422.000; -566.000
889.710;  -86.675;  -56.000; -299.000
889.954;  -15.875;  579.000;  467.000
890.198; -165.100; -584.000; -707.000
890.442; -161.225; -716.000; -712.000
890.687; -172.525; -800.000; -753.000
890.931; -104.000; -273.000; -210.000
891.175; -150.875; -502.000; -500.000
891.419;  -93.275; -105.000; -110.000
891.663;  -93.475; -239.000; -112.000
891.907; -170.050; -801.000; -545.000
892.151; -190.925; -920.000; -815.000
892.395; -130.500; -274.000; -387.000
892.638;  -28.650;  408.000;  291.000
892.882; -191.750; -780.000; -867.000
893.126;    0.425;  758.000;  558.000
893.370; -110.650; -167.000; -168.000
893.614; -166.025; -714.000; -715.000
893.857; -109.150; -183.000; -197.000
894.101; -143.525; -527.000; -631.000
894.345;  -65.000;  300.000;  150.000
894.588;   -7.050;  569.000;  380.000
894.832;  -92.400; -178.000;  -84.000
895.075;  -80.800;   15.000;  -92.000
895.319; -161.350; -552.000; -420.000
895.563; -131.075; -413.000; -353.000
895.806; -152.475; -628.000; -741.000
896.049;  -66.350; -576.000; -368.000
896.293;   88.925;  527.000;  405.000
896.536;  -78.100; -465.000; -468.000
896.779;  -55.075; -149.000;   -1.000
897.023; -152.275; -751.000; -714.000
897.266;  -41.400;  325.000;  269.000
897.509; -181.250; -900.000; -901.000
897.752;  -69.900;  149.000;  171.000
897.996; -202.900; -972.000; -864.000
898.239;  -65.650;  168.000;  102.000
898.482; -139.475; -431.000; -453.000
898.725;  -42.975;  101.000;   53.000
898.968; -158.225; -609.000; -744.000
899.211; -120.350; -513.000; -361.000
899.454; -137.425; -633.000; -539.000
899.697;  -75.650;   90.000;  -43.000
899.940; -185.750; -761.000; -757.000
900.182; -117.150; -335.000; -405.000
900.425; -103.300; -150.000; -298.000
900.668;  -31.875;  491.000;  350.000
900.911; -127.525; -292.000; -345.000
901.154;  -55.400;  141.000;   -3.000
901.396; -151.250; -407.000; -412.000
901.639; -156.925; -430.000; -496.000
901.882; -186.475; -790.000; -809.000
902.124;  -87.150;  -29.000; -143.000
902.367; -123.100; -315.000; -361.000
902.609; -139.225; -476.000; -453.000
902.852; -107.675; -108.000; -260.000
903.094; -147.100; -458.000; -337.000
903.337;  -65.800;  -26.000;   53.000
903.579; -122.325; -228.000; -441.000
903.821; -171.775; -597.000; -744.000
904.064;  -68.500;   85.000;  127.000
904.306;  -89.025; -126.000; -166.000
904.548; -108.900; -152.000; -366.000
904.790; -111.950; -195.000; -340.000
905.033; -143.100; -625.000; -577.000
905.275; -142.500; -513.000; -524.000
905.517;   17.100;  468.000;  256.000
905.759;  -86.250; -667.000; -761.000
906.001; -108.900; -322.000; -369.000
906.243;  -68.925; -162.000; -224.000
906.485;   99.475; -265.000; -207.000
906.727;  119.525; -499.000; -542.000
906.969;  -36.225;  -30.000; -135.000
907.211;  116.775; -316.000; -382.000
907.453;  278.325; -188.000; -237.000
907.695;   14.175; -158.000; -385.000
907.936;   38.025;  818.000;  706.000
908.178;  -71.875;   92.000; -135.000
908.420;  -75.725; -111.000; -162.000
908.662; -156.825; -633.000; -682.000
908.903;  -88.525; -208.000; -123.000
909.145;  -62.675; -240.000; -305.000
909.386;   -9.075;  315.000;  280.000
909.628;   33.750;  363.000;  397.000
909.870;  -14.650;   29.000;  264.000
910.111; -108.300; -809.000; -949.000
910.353;    3.050; -123.000; -161.000
910.594;  -13.100; -574.000; -606.000
910.835;   78.875; -265.000; -326.000
911.077;  150.750; -503.000; -604.000
911.318;  281.625; -505.000; -471.000
911.559;  448.925; -577.000; -880.000
911.801; 1306.000; -284.000; -280.000
912.042; 9965.125;  -50.000; -159.000
912.283;26939.125;  404.000;  371.000
912.524; 4317.200; -396.000; -457.000
912.765;  474.525; -193.000;   79.000
913.006;  220.000; -307.000; -338.000
913.247;   50.525; -270.000; -290.000
913.488;  -26.250;  -43.000;   30.000
913.729;  -90.675; -373.000; -373.000
913.970;  -79.650;  -96.000; -292.000
914.211;  -79.475; -160.000; -198.000
914.452;  -65.550; -118.000;  -11.000
914.693;    5.175;  510.000;  592.000
914.934;   -1.125;  510.000;  440.000
915.175;  -90.100;   53.000;  -95.000
915.415;  -68.675; -137.000;   27.000
915.656;  -80.375;  -28.000;  192.000
915.897; -103.000; -252.000;  -82.000
916.137;  -91.050;   74.000;   -9.000
916.378; -132.500; -573.000; -517.000
916.619;  -98.400; -159.000;  -63.000
916.859;  -45.500;  303.000;  330.000
917.100;  118.075; 1655.000; 1070.000
917.340;   41.150;  930.000;  728.000
917.581;   46.125;  965.000;  789.000
917.821;  -24.300; -171.000;  143.000
918.061;    1.175; -199.000;  -72.000
918.302;  -65.325; -152.000; -211.000
918.542;  -33.550;  -22.000;    3.000
918.782;   30.325;  369.000;  377.000
919.023;  123.000;  360.000;  427.000
919.263; 1417.375; 8131.000;  202.000
919.503; 1115.750; -137.000;  -54.000
919.743;  623.625;  390.000;  266.000
919.983;  279.050; -134.000;  -26.000
920.223;   85.650;  135.000;   14.000
920.463;  147.725;  631.000;  554.000
920.703;  126.450;   84.000;   39.000
920.943;  144.825; -110.000;   90.000
921.183;  218.450; -414.000; -405.000
921.423;  493.750;  307.000;  546.000
921.663;  709.325; -174.000; -257.000
921.903; 1530.525;  237.000;  173.000
922.143; 8296.750;  372.000;  389.000
922.383;32707.200;  158.000;  115.000
922.622;11608.900; -120.000;  -15.000
922.862; 1216.950;  796.000;  785.000
923.102;  439.075;  -51.000;   33.000
923.341;  167.450;   59.000;   74.000
923.581;   68.650;  450.000;  360.000
923.821;   20.875;  301.000;  398.000
924.060;   -3.850;  351.000;  193.000
924.300;  -43.650;  -16.000; -128.000
924.539;  -11.325;  584.000;  473.000
924.779;    5.350;  812.000;  597.000
925.018;  -58.475;  247.000;  353.000
925.257;  -18.450;  595.000;  666.000
925.497;  -41.750;  447.000;  412.000
925.736;  -90.075;  -35.000;  102.000
925.975;   -7.900;  687.000;  669.000
926.214;    6.650;  907.000;  850.000
926.454;   13.825;  706.000;  757.000
926.693;  -52.125;  419.000;  543.000
926.932;   27.700; 1021.000;  825.000
927.171;   65.600; 1107.000; 1044.000
927.410;   47.350; 1144.000;  967.000
927.649;   30.850;  924.000;  742.000
927.888;  -27.075;  590.000;  564.000
928.127;   -7.475;  680.000;  678.000
928.366;   23.825;  842.000;  826.000
928.605;   28.625;  831.000;  737.000
928.844;  217.900; 1451.000; 1393.000
929.083;  601.625;  770.000;  613.000
929.321;  318.900; 1335.000; 1359.000
929.560;   86.025; 1158.000; 1122.000
929.799;  -42.900;  574.000;  475.000
930.038;   78.775; 1025.000; 1394.000
930.276;  -56.975;  334.000;  397.000
930.515;   -8.400;  827.000;  681.000
930.753;  -18.750;  614.000;  589.000
930.992;  -25.425;  664.000;  717.000
931.230;    3.450;  847.000;  847.000
931.469;  173.125; 2162.000;  892.000
931.707;   49.000;  840.000;  751.000
931.946;   53.600; 1278.000; 1344.000
932.184;   48.100; 1437.000; 1175.000
932.423;   30.250; 1265.000;  963.000
932.661;   78.925; 1296.000; 1428.000
932.899;   28.775;  987.000;  821.000
933.137;   -2.175;  754.000;  564.000
933.376;  127.550; 1664.000; 1335.000
933.614;  142.975; 1759.000; 1196.000
933.852;   57.125; 1357.000; 1171.000
934.090;  136.525; 1722.000; 1747.000
934.328;  108.225; 1252.000; 1457.000
934.566;   85.525; 1431.000; 1110.000
934.804;  119.550; 1263.000; 1309.000
935.042;  424.675; 1861.000; 1850.000
935.280; 1682.200; 2088.000; 2063.000
935.518; 1668.500; 2113.000; 2007.000
935.756;  363.175; 2481.000; 2316.000
935.994;  159.675; 1808.000; 1751.000
936.231;  325.225; 2890.000; 2950.000
936.469;  191.300; 2367.000; 2378.000
936.707;  150.800; 2220.000; 2167.000
936.945;  216.425; 2825.000; 2882.000
937.182;  204.025; 2679.000; 2741.000
937.420;  293.375; 3602.000; 3031.000
937.657;  424.275; 3365.000; 3478.000
937.895;  352.625; 3331.000; 3488.000
938.133;  312.050; 3540.000; 3528.000
938.370;  352.425; 3896.000; 4191.000
938.607;  387.250; 4488.000; 4205.000
938.845;  535.550; 5587.000; 5549.000
939.082;  465.025; 5387.000; 5177.000
939.320;  519.825; 5799.000; 5728.000
939.557;  634.525; 6549.000; 6491.000
939.794;  697.750; 7285.000; 7097.000
940.031;  903.000; 8421.000; 8368.000
940.269; 1091.450; 9552.000; 9107.000
940.506; 1112.600;10901.000;10507.000

