
Integration time [ms]: 100.000
Averaging Nr. [scans]: 40
Smoothing Nr. [pixels]: 0
Data measured with spectrometer [name]: 2101013U2
Wave   ;Sample   ;Dark     ;Reference
[nm]   ;[counts] ;[counts] ;[counts] 

394.013;   57.346; -450.257; -315.536
394.305;  192.394; -461.258; -419.536
394.596; 1096.040; -676.269; -527.514
394.887; 2666.232; -796.268; -654.518
395.178; 1057.688;  145.736;   11.476
395.470;   79.899; -210.263; -356.526
395.761;  207.447;  305.734;  394.479
396.052;  273.263; -545.284; -306.489
396.343;  317.709; -557.276; -454.503
396.634;  119.877; -200.279; -290.497
396.926;  156.679; -618.268; -565.517
397.217;  108.414;   11.725;  -17.504
397.508;   53.755; -366.273; -154.507
397.799;   48.427; -555.279; -571.497
398.090;   25.097; -973.280; -902.495
398.381;  118.763;   11.708;  -11.473
398.672;  -12.786; -585.292; -742.473
398.963;   37.184; -348.279; -373.498
399.254;  126.148;   54.709; -209.475
399.545;  -20.957;-1017.266; -883.520
399.836;   71.248; -407.277; -343.501
400.127;   49.664; -205.295; -209.468
400.418;   61.249; -423.274; -392.506
400.709;   53.084; -359.281; -333.493
401.000;   51.827; -268.291; -309.476
401.290;  113.824;  225.698;  115.545
401.581;   84.946; -166.286; -228.485
401.872;   20.135; -542.298; -486.462
402.163;   68.306; -313.296; -252.467
402.454;   81.499; -123.291; -163.475
402.744;   92.522; -844.297; -813.465
403.035;  457.129; -226.293;  -86.471
403.326;  615.117; -366.292; -384.474
403.617;  404.180;  204.701;  165.539
403.907;  251.894; -593.283; -679.490
404.198; 2368.153; -545.307; -599.446
404.489; 6252.599; -618.283; -588.491
404.779; 2112.278; -618.302; -660.456
405.070;  238.131;  -67.304; -174.451
405.360;  331.806; -259.293; -238.472
405.651;  388.389;  125.699;   98.542
405.942;  212.491;  209.714;  127.516
406.232;  290.606; -432.285; -413.487
406.523;  502.923;  641.706;  758.530
406.813;  106.218; -579.286; -644.484
407.104;  355.411;  261.708;  144.527
407.394;  193.156; -604.299; -591.462
407.685;  156.180;  336.715;  222.513
407.975;   75.673; -400.283; -382.490
408.265;  126.238; -134.289; -190.478
408.556;   73.920; -472.291; -459.475
408.846;  160.624;  474.706;  429.530
409.137;   87.747;   -1.288; -216.480
409.427;   35.656; -193.285; -271.487
409.717;   51.933; -776.273; -692.508
410.007;  160.374;    4.715; -170.486
410.298;  101.041; -360.295; -342.469
410.588;   63.328; -495.285; -510.486
410.878;   36.158; -792.287; -873.482
411.168;  109.738; -481.298; -478.463
411.459;  132.417; -295.283; -242.489
411.749;   75.944; -609.292; -507.474
412.039;   67.920; -755.289; -386.480
412.329;  218.216;   40.722;  132.501
412.619;  206.819;  -62.286; -148.485
412.909;  388.941;  639.711;  594.521
413.199;  341.322; -130.280; -251.495
413.490;  415.881;  521.710;  352.523
413.780;  150.626;-1013.279; -913.496
414.070;  326.735;  -46.276;  235.497
414.360;  391.187; -729.278; -666.498
414.650;  423.879; -726.288; -688.482
414.940;  543.200; -538.280; -441.496
415.230;  917.776;   50.712;   74.519
415.520; 6098.239;  155.730;   66.486
415.809;23853.758; -305.281; -125.493
416.099;18556.400; -388.277; -229.501
416.389; 5099.647;  435.726;  236.494
416.679; 3004.728;   91.738;   85.473
416.969;  544.337; -527.287; -503.483
417.259;  609.853;  341.721;  171.503
417.549;  704.107;  522.718;  318.508
417.838; 1652.081; -205.268; -147.518
418.128; 5383.587;  650.710;  492.522
418.418; 4580.564; -491.272; -579.509
418.708; 3064.947;    9.726;  -48.506
418.997;11457.018; -474.275; -480.505
419.287;12058.729; -733.273; -790.507
419.577;11304.542; -160.283; -123.489
419.866;37344.123; -588.277; -498.501
420.156;38536.385; -242.270;  -55.513
420.446; 7058.020; -112.263;  -26.526
420.735;  912.079; -376.271; -446.512
421.025;  856.636; 1830.722;  315.502
421.314;  732.177; -203.271; -226.512
421.604; 1507.124;   89.732;  233.484
421.893;  894.673; -705.271; -602.511
422.183;  232.320; -487.263; -461.526
422.472;  381.650;  -36.271; -107.511
422.762;  437.924; -416.266; -379.521
423.051;  272.785; -916.276; -916.503
423.341;  313.581; -491.273; -439.507
423.630;  427.230; -121.265;   15.477
423.919;  402.392;   58.725;   49.495
424.209;  378.476;  -31.263;   56.473
424.498;  503.379;   68.732;  161.483
424.787; 1064.335; -535.267; -601.518
425.077; 3318.204;   34.735;   29.478
425.366; 4786.256; -734.262; -744.528
425.655; 9823.631;  639.727;  259.493
425.945;21086.862; -313.247; -268.554
426.234;11817.354;  117.741;  300.467
426.523; 5045.810;  -86.259; -350.534
426.812; 6932.470;  107.734;  159.480
427.101;10088.195; -127.269; -323.515
427.390;12897.614;  -55.270;  -86.514
427.680; 3024.629; -624.257; -411.538
427.969;  480.540; -330.255; -301.540
428.258;  317.671; -385.257; -477.536
428.547;  546.743;  449.728;  397.490
428.836; 1316.432; -421.253; -398.543
429.125; 1878.886; -199.259;  -72.534
429.414;  836.580; -330.251; -294.548
429.703; 3098.555; -231.251; -213.548
429.992; 9235.908; -938.250; -828.549
430.281; 6102.938; -397.264; -331.524
430.570;  601.345;  -21.252;   32.454
430.859;  578.359;  279.741;  352.466
431.148;  458.658;  636.752;  631.446
431.437;  286.344;  391.748;  367.454
431.725;  158.972; -544.257; -481.536
432.014;  118.789; -845.253; -756.545
432.303;  411.859; -149.239; -105.569
432.592;  630.420; -460.263; -178.525
432.881; 1064.484; -601.248; -437.554
433.169; 6092.641; -343.255;  -61.540
433.458;12439.718;  445.765;  540.424
433.747; 5254.062; -397.261; -289.529
434.036;  918.860; -275.242; -280.564
434.324; 2104.796; -395.249; -379.551
434.613; 3620.628;   40.757;  159.437
434.902; 1235.249;  333.760;  439.433
435.190;  604.083;   75.761;  295.431
435.479;  362.035;  -52.245;   83.441
435.767;  125.918; -411.244; -427.561
436.056;  210.930; -340.242; -294.563
436.345;  384.201; -372.240; -223.568
436.633;  398.491;   60.750;  383.450
436.922;  275.754;  208.760;  414.432
437.210;  642.258; -194.236;    1.426
437.499; 2068.116; -583.235; -432.576
437.787; 2295.683; -339.236;  -10.574
438.075;  573.463;   56.761;  162.430
438.364;  751.041;  -44.238;  250.429
438.652;  475.422; -286.226; -138.592
438.941;  144.085;    3.770;  269.415
439.229;   20.292; -665.252; -466.545
439.517;   38.075; -160.234;  -85.577
439.806;    7.538; -501.225; -290.595
440.094;  181.107;  377.766;  650.421
440.382;  196.411; -653.233; -302.580
440.670;  234.191; -361.235; -285.576
440.959;   45.955; -347.223; -170.599
441.247;   75.922; -151.229; -109.587
441.535;  111.748; -266.235;   31.423
441.823;   43.730; -497.234; -305.578
442.111;  206.351;  173.771;  327.412
442.400;  577.734; -628.245; -335.559
442.688; 1540.482; -111.234; -620.579
442.976; 1078.669; -786.213; -450.617
443.264;  118.494; -324.224; -364.597
443.552;  111.148; -258.226;   51.408
443.840;  174.847;  602.765;  876.423
444.128;  103.860;  265.767;  269.420
444.416;   22.729; -694.228; -312.588
444.704;   34.035; -465.219;  -92.605
444.992;   80.276;   -0.226;  240.407
445.280;   56.586; -517.230;  -94.585
445.568;   49.172; -694.212; -396.618
445.856;  369.894; -174.221;  357.398
446.143;  819.281;  -54.220;   -7.604
446.431;  679.907;  -25.228;  625.411
446.719;  262.579;  489.783;  675.391
447.007;  178.230;  481.769;  705.416
447.295;  205.202;  597.777;  871.402
447.583;   81.620; -464.229;  -34.587
447.870;  159.816; -434.221; -202.601
448.158;  435.160; -104.230;  129.415
448.446;  340.807; -800.219; -338.604
448.733;  174.921;   13.776;  269.403
449.021;  260.997;   60.788;  341.382
449.309;  191.387; -296.210;  208.379
449.596;  217.926;  128.783;   59.392
449.884;  142.659; -571.222; -325.600
450.172;  169.388; -756.227; -406.590
450.459;  443.627;  645.786;  780.387
450.747; 2335.049; -411.218; -147.608
451.034; 7463.159;  493.772;  889.411
451.322; 6167.230; -413.214; -170.614
451.609;  505.772;  292.777;  508.403
451.897;  583.851; -550.203; -183.634
452.184; 1771.527; -622.223; -400.598
452.472; 1695.134;   97.792;  269.375
452.759;  352.608;  512.781;  864.395
453.047;  123.444; -407.212; -125.617
453.334;   73.441; -732.219; -216.606
453.621;   88.132; -438.214; -161.615
453.909;  113.317;   13.796;  384.368
454.196;  126.013; -299.199; -123.641
454.483;  220.064;  317.798;  540.364
454.771;  132.637; -215.208;  196.374
455.058;   36.415; -316.207;  102.374
455.345;  125.394;   71.807;  344.347
455.632;   77.593; -128.207;  235.373
455.919;   51.536;  -82.196;  182.354
456.207;  -56.432; -774.198; -450.642
456.494;  -13.399; -475.200;  -66.639
456.781;    3.109; -399.202; -198.635
457.068;   43.300; -253.206;  -29.628
457.355;    0.476; -698.206; -401.629
457.642;    2.607; -552.205; -290.630
457.929;   -5.465; -778.194; -417.651
458.216;   70.370; -575.212; -354.617
458.503;  215.640; -173.193;  -19.652
458.790;  225.109; -864.208; -630.625
459.077;  267.389;  -77.202;  110.364
459.364;  797.478; -350.195; -210.649
459.651; 1670.548;  -46.206;  220.372
459.938;  767.050; -864.209; -665.623
460.225;  161.143;  132.799;  276.363
460.512;  -32.267; -836.197; -688.645
460.799;  102.623;  -32.218;  320.392
461.086;   74.955; -370.200; -251.640
461.372;   50.093; -509.198; -279.642
461.659;  122.137; -165.196;  108.354
461.946;   59.163; -445.193;  -54.651
462.233;  247.928;  842.800;  888.361
462.519;  329.975; -814.201; -464.639
462.806; 1009.684; -768.197; -497.645
463.093;  871.309; -445.191;  -66.656
463.380;  -31.174; -920.186; -824.664
463.666;   55.810; -259.197;  -18.646
463.953;  100.923; -406.195; -243.648
464.239;  188.423; -173.195;  -77.648
464.526;  409.008;  413.806;  743.350
464.813;  355.471; -565.190; -304.658
465.099;  360.514;  606.807;  607.348
465.386;  327.793;  903.807;  921.348
465.672;   32.084; -694.197; -522.645
465.959;    9.839; -598.188; -520.662
466.245;   21.443; -468.193; -359.652
466.532;   94.820; -109.195;   63.352
466.818;   67.225; -357.186; -216.664
467.104;   -2.684; -488.182; -415.672
467.391;  -23.102; -628.189; -459.658
467.677;   27.104; -289.186;    9.335
467.964;    3.379; -682.189; -471.660
468.250;   55.332; -331.186; -160.665
468.536;   90.599;   90.811;  180.341
468.822;  -33.181; -821.184; -574.668
469.109;  163.947;  351.827;  471.311
469.395;  204.728;  729.808;  787.346
469.681;  205.677;   46.811;  156.341
469.967; 1227.882; -699.188; -382.660
470.254; 2654.765; -494.188; -306.662
470.540; 1723.811; -601.196; -476.646
470.826;  255.352; -488.181; -397.675
471.112;  301.047;  288.816;  113.331
471.398;   93.677; -253.183;  -58.670
471.684;   47.881; -626.177; -447.680
471.970;    0.856; -918.180; -981.675
472.256;   19.502; -521.192; -441.654
472.542;   12.758; -499.171; -434.691
472.828;    9.037; -743.182; -607.672
473.114;   39.127; -380.166; -283.700
473.400;   17.147; -504.175; -293.684
473.686;   37.734; -452.166; -400.701
473.972;   59.612; -230.174; -131.687
474.258;  -25.878; -925.173; -843.689
474.544;  202.897; -183.178;   -2.679
474.830;  301.999;  -65.175;   45.316
475.116;  443.697; -123.190; -196.658
475.401;  661.133; -558.180; -467.676
475.687;  190.682; -725.180; -718.676
475.973;   32.170; -673.181; -770.673
476.259;  233.701;  736.825;  764.315
476.544;  369.364; -539.176; -437.682
476.830;  807.654; -398.172; -322.690
477.116;  683.912; -430.177; -336.682
477.401;  139.633;  346.820;  358.324
477.687;   -7.627; -289.175; -405.684
477.973;   34.923;   21.819;   28.326
478.258;    7.904; -448.163; -348.706
478.544;   50.537;   21.815;   61.334
478.829;  -59.761; -818.171; -738.692
479.115;  -52.146; -749.172; -651.690
479.401;    0.583; -444.174; -449.686
479.686;   25.257; -253.180;  -74.676
479.972;  -25.897; -886.178; -776.680
480.257;   33.054; -258.166;  -65.700
480.542;   -0.882; -614.170; -469.693
480.828;  224.746; 1288.824; 1392.317
481.113;  -25.631; -464.176; -426.683
481.399;   -8.822; -236.161; -202.711
481.684;  -51.447; -620.166; -462.700
481.969;   19.642; -158.159;  -73.713
482.255;    2.679; -439.169; -285.695
482.540;    1.328; -569.178; -441.680
482.825;   10.921; -395.187; -404.663
483.110;   90.132;  -85.169; -105.696
483.396;  174.714; -840.157; -652.718
483.681;  485.787;  543.826;  730.313
483.966;  157.661; -696.160; -700.712
484.251;   -2.364; -404.174; -310.687
484.536;    0.789; -356.165; -378.703
484.822;   12.689; -205.173; -218.687
485.107;  -16.748; -599.152; -502.726
485.392;  136.545;  662.836;  541.296
485.677;   87.292;  354.832;  163.302
485.962;  104.086;  160.843;  270.283
486.247;   99.337;  -14.162;   -8.707
486.532;   36.805; -178.166; -325.701
486.817;  162.723;  381.839;  431.291
487.102;  116.335; -453.154; -514.722
487.387;  662.091; -637.156; -652.718
487.672; 1135.800; -154.164;  -38.705
487.957;  729.330; -394.160; -286.711
488.241;  200.669; -290.150; -314.729
488.526;  724.454; -280.152; -148.726
488.811; 1151.130; -881.177; -818.680
489.096;  885.938; -666.154; -702.723
489.381;  482.875;    3.847;  162.275
489.666;  376.553; -428.161; -510.710
489.950;  174.516;  558.846;  627.277
490.235;  -27.611; -480.151; -458.728
490.520;  -47.323; -756.161; -723.710
490.804;  -59.182; -827.156; -736.719
491.089;   -9.640; -469.149; -299.732
491.374;   37.349; -132.164;  -75.704
491.658;   -9.079; -817.147; -717.735
491.943;  169.333; -657.152; -609.727
492.227;  260.531; -178.155;  -38.721
492.512;   76.861; -294.157; -341.717
492.797;  -72.396; -713.149; -716.731
493.081;  -48.101; -588.147; -598.735
493.366;  -43.821; -751.161; -635.711
493.650;  214.028;  831.859;  917.254
493.935;   23.221; -648.147; -447.734
494.219;  -44.335; -778.142; -687.743
494.503;  -60.776; -585.150; -487.730
494.788;   64.227;   46.842;   74.285
495.072;  102.895;  184.850;  434.271
495.356;  158.863; -463.148; -343.733
495.641;  450.356; -812.146; -736.736
495.925;  447.023; -976.156; -903.719
496.209;   43.734; -599.149; -451.732
496.494;  -38.984; -763.142; -544.744
496.778;    3.085; -364.154; -360.722
497.062;  -53.728; -819.156; -627.719
497.346;  -42.293; -869.160; -640.711
497.631;  153.967;  580.852;  560.266
497.915;   69.066;  -64.145;  175.261
498.199;   51.439; -341.157; -277.718
498.483;   36.227; -562.152; -508.725
498.767;  215.371;  301.850;  300.271
499.051;  176.907; -126.149; -100.732
499.335;   29.955; -693.149; -739.731
499.619;  -40.970; -381.129; -423.767
499.903;   40.654; -272.155;  -65.721
500.187;   30.492; -588.153; -316.724
500.471;   25.057; -796.152; -595.727
500.755;  102.227;   62.839;  -96.710
501.039;   39.305; -270.155; -357.721
501.323;   77.480;  -21.141;  264.254
501.607;   40.155; -447.163; -503.706
501.891;  -11.935; -607.156; -512.718
502.174;  -19.972; -726.144; -585.741
502.458;   66.861;   89.849;  370.273
502.742;   49.729; -180.138; -191.751
503.026;   94.470; -412.147; -254.734
503.310;  176.416; -437.159; -375.713
503.593;  120.722; -464.147; -325.735
503.877;  123.769; -232.133; -156.760
504.161;  166.520;    2.847;  -50.724
504.444;  146.180; -841.158; -710.716
504.728;  428.323; -487.164; -522.704
505.012;  713.893; -257.150;  -76.729
505.295;  521.103; -417.161; -212.711
505.579;  515.047; -256.156; -496.719
505.862;  722.263; -555.145; -333.738
506.146;  729.218; -681.159; -758.714
506.429;  403.794;  568.841;  461.286
506.713;   64.215; -732.151; -667.728
506.996;  320.485;   90.846;  295.278
507.280;  344.343; -633.165; -474.703
507.563;  231.478; -469.155; -261.721
507.847;   99.118; -423.153; -112.724
508.130;   80.279; -665.161; -456.711
508.413;  118.824; -758.167; -577.700
508.697;  241.500; -151.167;   12.300
508.980;  154.620; -422.153; -312.724
509.263;   -9.726; -466.155; -450.720
509.547;   45.068; -124.150;   82.271
509.830;   30.281; -172.160;  140.289
510.113;  100.972;  128.844;  298.281
510.396;   29.325; -530.152; -300.725
510.680;  188.439; -818.145; -812.738
510.963;  667.989;  184.846;  180.277
511.246;  590.501; -493.150; -357.730
511.529;  272.344; -482.145;  -83.739
511.812;  369.741; -250.134;   10.241
512.095;  263.913; -740.151; -396.728
512.378;   64.126; -317.147; -245.736
512.661;   28.286; -703.137; -623.753
512.944;   23.667; -750.142; -637.744
513.227;   66.784; -170.137; -171.752
513.510;   35.353; -479.144; -671.741
513.793;   28.134; -485.140; -435.747
514.076;  141.676;  -43.127;  -39.771
514.359;   99.860; -294.149; -135.732
514.642;   99.920; -442.142; -567.744
514.925;  719.682;  581.860;  561.253
515.208;  990.762; -498.134; -443.758
515.491;  623.301; -276.133; -182.761
515.773;  368.931; -410.143; -337.742
516.056; 2026.043;  249.864;  409.246
516.339; 2759.172; -754.136; -652.755
516.622; 1977.523; -518.150; -488.730
516.904; 1339.988;  882.857;  975.257
517.187;  609.507; -730.138; -523.752
517.470;  438.312; -568.143; -510.743
517.752;  429.675; -624.136; -470.756
518.035;  343.320; -708.139; -725.749
518.318;  350.097; -799.136; -744.755
518.600; 2392.705; -300.132; -325.762
518.883; 3237.694;  310.858;   88.256
519.165; 1597.475; -585.138; -426.751
519.448;  415.579;  -61.132;  -19.762
519.730;  206.733; -573.126; -415.773
520.013;  322.097;  588.867;  664.240
520.295;  899.642;  -94.134;  -15.759
520.578; 2000.717; -335.131; -305.764
520.860; 2238.354; -254.132;   56.238
521.143; 1142.002; -763.135; -584.756
521.425;  469.996; -251.125; -279.775
521.707;  698.251; -622.127; -380.771
521.990; 1750.777; -199.127;  167.229
522.272; 1968.436; -116.140;   -4.748
522.554;  937.407; -237.143; -157.742
522.836;  376.290;  -24.134;   99.241
523.119;  236.969; -496.148; -189.734
523.401;  148.124; -448.130; -314.766
523.683;   89.437; -865.137; -693.753
523.965;  269.530;  408.862;  260.248
524.247;  283.668;   54.878;  170.220
524.529;  185.717; -451.134; -367.759
524.812;  349.826;   -3.130;  191.234
525.094;  822.604; -773.138; -631.751
525.376; 1333.930; -143.124;   78.223
525.658;  796.894; -441.136; -339.754
525.940;   19.764; -805.131; -671.764
526.222;   38.698; -188.136;  -88.755
526.504;  138.187; -190.131;   32.237
526.786;  183.020; -960.133; -647.760
527.068;  325.236; -124.123;  -67.778
527.349;  138.191; -865.137; -774.754
527.631;  144.079; -137.132;   22.238
527.913;  137.000; -664.127; -450.771
528.195;  179.214; -761.125; -639.774
528.477;  248.062;  -93.134;  -30.758
528.759;  127.576; -648.130; -522.766
529.040;   63.910; -569.123; -293.778
529.322;   55.817; -235.125;  -10.774
529.604;  143.678;  -47.130;   93.233
529.886;  137.333; -546.126; -302.773
530.167;  131.095;  232.870;  192.235
530.449;   55.351;    1.853;   63.265
530.731;    4.592; -572.122; -459.779
531.012;   71.038; -513.120; -216.784
531.294;   62.527; -118.116;  -43.792
531.575;  158.296;  290.875;  538.225
531.857;   62.257; -548.135; -266.757
532.138;  103.628; -113.141;   40.254
532.420;  186.753;  294.865;  403.244
532.701;  248.597; -722.133; -751.760
532.983;  347.875;  232.867;  182.239
533.264;  161.531; -243.126;  175.228
533.546;  -36.328; -491.136; -508.755
533.827;   62.594;  173.867;   -1.759
534.109;   38.632; -352.135;  -80.757
534.390;   97.933; -725.132; -582.762
534.671;  250.778; -270.135;  -82.756
534.953;  145.438; -751.123; -611.779
535.234;   16.562; -426.117; -255.789
535.515;  -80.154; -891.119; -735.785
535.796;  -21.854; -431.128; -193.770
536.078; -121.270;-1050.124; -904.777
536.359;   12.063;  -22.123;    3.221
536.640;    6.941; -480.125; -197.774
536.921;  143.559;  225.871;  143.232
537.202;  356.951;  -87.138;  -16.751
537.483;  457.467;  251.869;  377.236
537.764;  181.695;   17.870;   98.235
538.045;  -49.164; -543.134; -371.758
538.326;  -25.140; -596.129; -447.768
538.607;    8.802; -686.127; -476.771
538.888;  168.529;   98.879;    5.218
539.169;  180.173; -704.122; -535.781
539.450;  351.633;  236.871;   16.233
539.731;  220.558; -361.121; -182.783
540.012;  134.438;  199.880;  412.216
540.293;   73.150;   82.876;  158.224
540.574;   24.748; -895.113; -717.796
540.855;  455.756;  435.879;  377.218
541.136;  530.646;   47.878;  139.220
541.416;  264.127; -161.130; -220.766
541.697;  197.287; -274.131; -170.763
541.978;  993.830; -270.135; -315.757
542.259; 1292.677; -211.127; -236.771
542.539;  629.646; -191.116; -186.790
542.820;  194.846;  461.875;  480.225
543.101;  146.366;  -52.145;  -77.738
543.381;   36.777; -638.127; -591.771
543.662;  260.774;  159.873; -254.771
543.942;  563.097; -751.127; -830.770
544.223; 1019.897;  193.878;  161.219
544.504;  672.705; -275.124; -182.777
544.784;  573.183; -592.126; -408.773
545.065; 1620.875;  104.884; -254.791
545.345; 1906.621;  227.881;   14.215
545.626; 1280.522;  -14.113; -108.796
545.906;  847.895;   77.869;   98.235
546.186;  358.563;   92.874;  -95.773
546.467;  193.407;   99.877;  -95.778
546.747;  318.571;  264.884;  327.210
547.027;  369.403;   91.876;  111.223
547.308;  313.072; -376.127; -530.770
547.588;  386.011;  299.871;  371.232
547.868;  203.146;  458.870;  588.235
548.149;  180.907;  609.885;  593.207
548.429;  140.225; -347.127; -299.771
548.709;  188.537; -645.120; -461.784
548.989;  476.106;   84.882;   88.213
549.269; 2067.003;   10.868;  139.239
549.550; 4690.662;  215.877;  117.222
549.830; 4218.890; -758.111; -556.799
550.110;  856.623; -468.110; -320.801
550.390;  799.917; -128.122;  -56.779
550.670; 1126.618; -868.114; -783.795
550.950;  776.281; -509.121; -471.782
551.230;  205.277;  549.879;  460.218
551.510;  -12.570; -381.121; -326.782
551.790;   36.581; -173.109; -127.803
552.070;  256.332;  940.877; 1181.223
552.350;  398.175; -492.119; -377.786
552.630;  567.325;   -2.121;   77.219
552.909;  372.950;  181.884;   73.209
553.189;  218.784;  -49.132;   33.237
553.469;  184.975; -703.119; -514.786
553.749;  178.753; -469.127; -357.772
554.029;  162.791;   33.883;  -24.790
554.308;  134.086; -154.115;  -37.794
554.588;   65.495; -196.128; -204.770
554.868;   55.957; -366.121;  -47.782
555.147;  146.484; -114.115;  -46.793
555.427;  577.678; -260.116; -250.792
555.707; 3742.756; -284.115; -200.793
555.986; 4564.869; -719.111; -538.800
556.266; 2417.869;   23.884;   72.210
556.546;  117.455; -888.121; -675.782
556.825;  263.016; -657.114; -556.794
557.105; 1741.943; -125.128;   17.230
557.384; 2045.899;  122.884;  187.209
557.664;  787.127; -717.116; -508.792
557.943;  114.456; -557.121; -411.782
558.222;  166.009; -345.118; -344.788
558.502;  283.185; -116.115;  -76.793
558.781;  469.255;  194.885;  499.208
559.061;  384.584; -232.118; -227.788
559.340;  274.914;  302.883;  353.211
559.619;  679.669;   93.884;  148.210
559.899;  991.441; -239.117; -266.789
560.178;  937.434; -778.115; -593.793
560.457; 3052.167; -623.117; -562.790
560.736; 4262.695; -472.111; -482.800
561.015; 2856.091; -500.128; -502.769
561.295;  403.226;  180.893;  215.193
561.574;  338.182;  119.885;  116.207
561.853;  495.010;  274.891;  303.197
562.132;  480.812;  -45.114;  182.206
562.411;  429.700;  396.879;  553.219
562.690;  130.155; -592.115; -458.792
562.969;  153.954;  472.888;  630.203
563.248;  496.573; 2966.878; 2487.219
563.527;  263.644; -290.111; -408.800
563.806;  368.875; -650.127; -521.771
564.085;  396.991; -297.105; -206.810
564.364;  234.119; -594.117; -405.790
564.643;  500.601; -276.121; -223.781
564.922; 1854.604;  221.890;  397.198
565.201; 1813.333; -640.109; -700.803
565.479;  795.804; -297.115; -219.792
565.758;  330.568; -810.128; -712.770
566.037;  459.909; -155.109; -100.803
566.316;  231.699; -286.116;  -28.791
566.595;   51.657;  -17.115;  -12.793
566.873;  106.196; -166.111;  -79.801
567.152;  -56.996; -490.113; -590.797
567.431;   21.770; -113.116;    6.210
567.709;    5.251; -344.107; -212.807
567.988;  269.066; -810.114; -769.794
568.266;  513.057; -160.115;  -68.793
568.545;  376.313; -644.100; -514.819
568.824;  562.603;  160.885;  356.208
569.102;  532.040; -351.114; -235.794
569.381;  230.127; -492.116; -407.792
569.659;  -56.175; -553.113; -553.796
569.938;   33.346; -743.122; -465.780
570.216;  107.936; -225.109; -225.804
570.494;  -31.056; -632.114; -572.795
570.773;   40.029;  202.879;  114.218
571.051;   -2.615; -373.123; -357.778
571.330;   60.023; -221.113; -174.796
571.608;   38.256; -181.098; -173.823
571.886;  -60.037; -671.111; -581.799
572.164;  -72.518; -739.121; -621.782
572.443;  -53.805; -562.105; -512.811
572.721;  -44.583; -399.117; -289.790
572.999;  -14.064; -280.117; -168.788
573.277;   72.663;  379.894;  620.191
573.555;  284.915;   94.894;   37.190
573.834; 1302.611;  -86.117; -114.788
574.112; 1522.903;  880.893;  811.193
574.390;  456.920; -143.111;  -96.801
574.668;   18.030;  -91.112;  -61.797
574.946;   -9.159; -165.106; -187.810
575.224;   23.732;   71.891;  -16.803
575.502;  -29.803; -200.116; -204.791
575.780;  -82.069; -767.112; -829.798
576.058;  210.619; 1589.889; 1004.200
576.336;   -4.200; -210.110; -129.801
576.614;  -55.694; -511.112; -340.798
576.891;   54.386; -711.115; -823.794
577.169;  473.694; -158.108; -285.805
577.447;  571.803;  169.893;  202.193
577.725;  266.911;  629.888;  854.201
578.003;   10.709;  -71.112; -371.798
578.280;   81.979; -208.104; -242.812
578.558;   68.610; -450.115; -422.793
578.836;  119.168; -210.114; -145.795
579.114;   41.805; -630.112; -670.797
579.391;   61.062;   -6.117;  -18.789
579.669;  -79.338; -595.114; -704.794
579.947;  154.650; -326.107; -127.806
580.224;  326.124; -692.107; -524.806
580.502;  309.379;  127.893;   76.193
580.779;   30.368;  -42.117;   75.210
581.057;  -69.563; -584.109; -470.804
581.334;  -95.031; -726.102; -695.815
581.612;   30.941;   54.895;  511.190
581.889;  -21.368;  -83.101; -129.818
582.167;  -25.854; -298.099; -190.821
582.444;  -90.023; -845.102; -814.817
582.721;  116.802;  657.899;  715.183
582.999;   64.944; -326.100; -167.821
583.276;  500.715; -812.123; -713.779
583.553;  690.522; -364.102; -294.816
583.831;  212.900; -607.104; -631.812
584.108;   45.567;  349.892;  174.195
584.385;   -2.432; -122.102;  -98.815
584.662;  -59.028; -651.111; -828.801
584.940;   26.621;  204.889;  204.199
585.217;  -20.075;  -73.113; -303.796
585.494;   34.330;   71.890;  118.198
585.771;  204.412; -250.109; -354.804
586.048;  502.175; -196.113;  -76.796
586.325;  316.224; -721.110; -773.801
586.602;  102.304;  230.896;  213.188
586.879;  -28.560; -499.100; -580.820
587.156;   46.317; -156.105; -331.810
587.433;  -19.875; -701.102; -667.817
587.710;   70.657;  152.888;  234.202
587.987;  289.822; -264.105; -236.811
588.264;  783.134;  315.888;  387.202
588.541; 1344.657;  -61.104;   26.187
588.818; 2598.690;   72.892;  171.196
589.095; 2255.402; -163.104; -174.812
589.371;  363.535; -459.109; -414.804
589.648;   16.203; -581.107; -437.807
589.925;   22.269; -517.114; -621.795
590.202;   20.007; -741.112; -607.798
590.478;   90.149; -166.105;  -73.811
590.755;  268.646; -241.108; -132.806
591.032; 2433.376; -741.110; -699.802
591.308; 3313.697; -732.094; -790.831
591.585; 1711.551; -573.110; -560.802
591.862;  149.051;-1056.102; -950.817
592.138;   54.518; -475.108; -474.805
592.415;  148.505; -486.104; -495.813
592.691; 1452.403;  460.896;  518.188
592.968; 1836.358; -208.098; -123.824
593.244;  893.396; -695.116; -595.790
593.521;   64.626; -105.102;  -42.817
593.797;  -30.432; -810.122; -720.780
594.074;  313.371; -611.096; -588.826
594.350;  639.082;  828.905;  729.172
594.626;  305.622; -303.111; -283.801
594.903;  106.027; -643.101; -645.817
595.179;  190.209;  243.896;  418.187
595.455;    7.655; -136.107; -150.807
595.731;    0.010;  -19.103;  -38.814
596.008;  -48.659; -464.111; -434.800
596.284;   34.643; -187.100; -242.820
596.560;   51.578; -501.093; -493.833
596.836;  182.469; -173.105;  -70.810
597.112;  341.669; -582.108; -437.805
597.388;  274.119;  -49.097;  -48.826
597.665;  103.952;  437.887;  530.203
597.941;  -54.367; -572.089; -658.839
598.217;   21.904; -323.110; -293.802
598.493;  260.464;   61.891; -204.804
598.769;  493.162; -175.100;  -50.819
599.045;  308.372; -490.108; -562.806
599.321;   34.442; -193.100; -261.820
599.597;  125.363; -355.109; -476.804
599.872;  470.732;  409.896;  429.187
600.148;  364.770;  -61.097; -172.826
600.424;  280.477;   91.893;  202.193
600.700;  243.929; -170.107; -280.807
600.976;  106.865; -442.097; -464.825
601.252;  250.610; -226.109; -272.803
601.527;  196.508; -833.104; -840.813
601.803;  146.800; -453.105; -404.812
602.079;  173.537; -124.100; -118.819
602.354;  572.688; -620.092; -531.835
602.630;  797.050; -140.113; -482.796
602.906; 2284.507; -910.101; -863.818
603.181; 6482.175; -627.119; -534.786
603.457; 5523.843;   98.903; -278.826
603.733;  816.259; -605.120; -626.783
604.008;  945.091; -245.106; -164.810
604.284; 2958.178; -636.101; -580.817
604.559; 2580.011;   -3.112;  -42.799
604.835;  471.569; -163.105; -225.810
605.110;  398.847; -732.099; -892.821
605.385;  642.506;  224.907;  267.167
605.661;  631.560; -625.095; -729.829
605.936; 1097.597; -664.108; -737.806
606.211;  963.467;  -17.103; -170.815
606.487;  176.914; -329.114; -376.794
606.762;   13.700; -791.119; -745.786
607.037;  -30.356; -501.105; -433.810
607.313;  -33.872; -589.096; -574.828
607.588;   -0.609; -375.106; -137.810
607.863;   38.532;  -28.101; -143.818
608.138;  172.003;  513.890;  516.198
608.413;   22.426; -576.099; -592.822
608.688;   26.094; -203.108; -267.805
608.964;  191.710; -509.106; -218.809
609.239;  235.166; -107.105; -212.810
609.514;  247.699;  281.895;  240.188
609.789;  610.679; -187.104; -716.812
610.064;  865.127; -435.096; -609.827
610.339;  842.035; -855.109; -799.804
610.614; 1148.467; -131.100; -315.820
610.889;  640.525;  215.895;  107.188
611.163;   39.800; -407.104; -591.812
611.438;   70.440;   81.886; -167.794
611.713;    3.228; -467.101; -499.817
611.988;   45.506; -144.101; -328.818
612.263;  -33.431; -771.102; -717.815
612.538;  204.949;  385.887;  251.204
612.812;  161.043; -832.100; -911.820
613.087;  131.206; -358.098; -338.823
613.362;  -61.621; -497.107; -557.807
613.637;   37.038;  261.897;  138.186
613.911;  -15.586; -256.092; -345.835
614.186;  123.378; -249.107; -292.807
614.460;  671.233; -842.081; -758.854
614.735;  777.981;  -55.087;  -17.843
615.010;  161.021;   43.912;  -82.841
615.284;  245.918;  360.892;  246.195
615.559;  378.487; -792.092; -955.835
615.833;  272.349;  -76.099;  -87.822
616.108;    0.749; -225.090; -390.837
616.382;  128.233;  274.913;  402.156
616.656;  161.525; -241.090; -232.837
616.931;  474.624; -785.099; -700.822
617.205; 1032.133; -973.104; -979.813
617.480;  954.119;  -91.125;    6.225
617.754;  165.192; -396.125; -128.774
618.028;    7.262; -369.129; -382.768
618.302;   54.342;   73.892;  -25.805
618.577;  -49.261; -371.103; -518.815
618.851;  -68.118; -399.109; -600.803
619.125;  -55.958; -335.134; -378.759
619.399;  -30.167; -244.104; -374.813
619.673;  -59.872; -330.115; -515.792
619.947;  -35.082; -333.114; -448.795
620.222;  -33.102; -198.110; -204.801
620.496;    3.106;  -47.121;  -96.782
620.770;   16.073; -187.122;  -93.781
621.044;  215.767;  323.895;  346.190
621.318;  718.284; -653.120; -614.783
621.592;  650.557; -430.121; -409.783
621.866;  341.212; -476.112; -572.799
622.140;   27.622; -207.116; -356.791
622.413;   36.041;  138.889;  112.200
622.687;  -30.871; -746.101; -492.817
622.961;   10.067; -130.108; -143.805
623.235;  -66.908; -633.111; -661.800
623.509; -107.501; -816.105; -848.811
623.783;    8.425;  -12.107;   48.193
624.056;  -20.340; -254.120; -280.783
624.330;   57.805;   63.888;   -3.797
624.604;   51.544; -271.116; -355.790
624.877;   61.702;  180.890;   26.198
625.151;   25.088; -249.114; -238.794
625.425;  -33.240; -150.103; -283.814
625.698;  -58.430; -367.119; -374.785
625.972;  -89.395; -799.110; -765.802
626.245;   64.721;  685.884;  484.210
626.519;  -43.061; -426.120; -340.784
626.792;  -47.096; -192.107; -380.807
627.066;  -90.134; -485.122; -662.779
627.339; -106.275; -736.110; -663.802
627.613;   43.538;  351.880;  148.216
627.886;   51.906;  187.891; -612.803
628.160;  -10.241;  312.880; -161.783
628.433;  -88.878; -695.125; -703.775
628.706;  -75.911; -517.120; -615.784
628.979;   27.853;  296.876;  117.223
629.253;  -94.126; -785.119; -833.786
629.526;  346.206; -334.126; -253.772
629.799;  328.036; -641.123; -479.778
630.072;  140.988; -497.128; -516.769
630.346;  -58.779;-1115.116;-1080.790
630.619;  424.780; -467.107; -545.808
630.892;  606.692;  709.889;  593.200
631.165;  313.508;  790.896;  679.187
631.438;  -88.116;-1092.112;-1055.798
631.711;   45.739;  453.877;  257.221
631.984;  -55.184; -523.117; -624.789
632.257;  -74.688; -636.117; -681.789
632.530;  -46.955; -412.119; -433.785
632.803;   20.586; -109.115;    7.207
633.076;  -69.968; -360.123; -422.777
633.349;   13.143;  173.872;  121.231
633.622;  -32.231; -187.119; -240.785
633.895; -134.565; -903.120; -823.783
634.167;  -59.367; -496.126; -525.773
634.440;  -12.923;  -19.116; -137.792
634.713;  -10.052;  -22.119; -120.786
634.986;   62.507;  593.871;  453.233
635.258;  -78.891; -507.115; -597.793
635.531;   99.008;  742.882; -343.788
635.804;  -19.835; -303.117; -318.789
636.077;  -88.402; -830.116; -852.791
636.349;   -7.268; -586.115; -474.793
636.622;  380.206; 1695.874; 1392.228
636.894;  242.965; -474.120; -909.784
637.167;  120.575; -836.127; -789.771
637.439;   47.496; -278.128; -213.770
637.712;  -39.993; -312.126; -293.772
637.984;  -79.126; -635.116; -707.791
638.257;  385.908;  515.877;  488.222
638.529;  543.248; -881.125; -924.776
638.802;  237.988; -508.128; -449.769
639.074; -109.428; -927.122; -952.781
639.346; -126.741; -942.135; -930.757
639.619;   12.893;  -79.142; -319.744
639.891;  -17.934;  -83.122; -168.779
640.163;  -70.832; -689.122; -756.780
640.435;   32.470;  273.878;  103.220
640.708;    7.996;  -72.122; -132.780
640.980;  -42.302; -366.122; -362.781
641.252;  199.025;  -25.121;  -71.781
641.524; 1762.702;  580.879;  573.219
641.796; 1774.004;-1094.121; -907.782
642.068;  302.356; -191.121; -300.782
642.340;  -52.443; -486.121; -566.783
642.613;   43.834;  294.880;  323.217
642.885;  -87.939; -787.120; -878.783
643.157;  -56.437; -810.120; -658.784
643.428;   58.665;  170.880;  218.216
643.700;  -80.033; -498.120; -425.784
643.972;  -31.382;  -16.119; -133.785
644.244;  -98.155; -474.119; -559.785
644.516;  -43.503; -250.119; -114.786
644.788;   64.349;  662.881;  548.214
645.060;  -15.624;  -12.119; -124.786
645.332; -101.422; -525.118; -535.787
645.603;   33.004;  479.882;  342.213
645.875;  -91.169; -334.118; -369.787
646.147;  158.583; 1487.882; 1242.212
646.418;  -72.315; -931.117; -918.788
646.690;  132.012; -714.117; -715.789
646.962;   40.714; -413.117; -451.789
647.233;  -12.759;   15.883;   11.211
647.505; -110.058; -595.117; -475.790
647.776;   37.594;  328.884;  229.210
648.048;  -14.879; -248.116; -418.790
648.320;  -75.102; -752.116; -679.791
648.591; -167.475;-1055.116; -958.791
648.862;  -77.348; -505.116; -577.792
649.134;   12.253;  115.885;  198.208
649.405;  -44.820; -661.115; -618.792
649.677;  -72.493; -475.115; -598.793
649.948;  -17.941; -181.115; -296.793
650.219;  -10.564;  -37.115; -147.793
650.491;  -66.312; -431.114; -520.794
650.762; -119.011; -705.114; -731.794
651.033;  -81.809; -437.114; -424.795
651.304;  -93.807; -743.114; -728.795
651.576;  -62.330; -680.114; -645.795
651.847;  -34.578; -250.113; -140.796
652.118;  -26.826;  -32.113; -189.796
652.389; -109.350; -639.113; -722.796
652.660;  -30.348; -147.113;  -89.797
652.931; -144.146; -897.112; -871.797
653.202;  -84.319; -382.112; -541.798
653.473;  -60.392; -633.112; -533.798
653.744;  137.760; -595.112; -590.798
654.015;  124.862; -356.112; -303.799
654.286;  -80.712; -642.111; -663.799
654.557;  -63.885; -586.111; -521.799
654.828; -157.733;-1114.111;-1088.800
655.099;  -89.706; -404.111; -291.800
655.370;  -82.404; -427.111; -543.801
655.641; -132.952; -656.110; -714.801
655.911; -116.851; -618.110; -638.801
656.182;   31.251;  437.890;  387.198
656.453;   99.478;  830.890;  746.198
656.724;  -70.620; -466.110; -426.802
656.994;  -82.843; -553.109; -568.803
657.265; -100.691; -862.109; -873.803
657.536;  -74.315; -500.109; -377.804
657.806; -116.063; -561.109; -593.804
658.077; -132.861; -866.109; -950.804
658.347;  -78.459; -523.108; -598.805
658.618; -110.907; -646.108; -694.805
658.888;  -25.355;  -41.108;  112.195
659.159;  -79.403; -432.108; -548.806
659.429;  -33.527; -292.108; -349.806
659.700;   11.475; -435.107; -390.807
659.970;  -19.248; -370.107; -359.807
660.241;   18.704; -754.107; -921.807
660.511;  467.931; -147.107; -174.808
660.781;   78.683; -793.106; -748.808
661.052;  -41.266; -222.106; -381.808
661.322;  -17.789;   21.894;   -9.809
661.592;    9.713;  257.894;  148.191
661.862;  -64.160; -369.106; -382.810
662.133; -104.258; -551.105; -502.810
662.403; -118.031; -770.105; -676.810
662.673;  -72.780; -256.105; -213.811
662.943;  -89.803; -612.105; -551.811
663.213;  -17.726;  -85.105;  -81.811
663.483;  -66.349; -593.104; -568.812
663.753;  -53.522; -194.104; -152.812
664.023;   -1.820;   68.896;  -32.813
664.293;  -70.194; -319.104; -126.813
664.563; -113.342; -694.104; -648.813
664.833; -128.990; -743.103; -608.814
665.103; -141.188; -730.103; -793.814
665.373; -117.961; -766.103; -806.814
665.643;  -88.359; -863.103; -918.815
665.913;   28.618; -534.103; -714.815
666.182;  143.144; -685.102; -719.816
666.452;  247.371;  -22.102;  -89.816
666.722;  -24.702; -724.102; -784.816
666.992; -147.350; -948.102; -921.817
667.261;  -94.248; -824.102; -808.817
667.531;  201.154;  134.899;   45.183
667.801;  544.330; -440.101; -412.818
668.070;  243.957;  714.899;  697.182
668.340;  -99.816; -883.101; -840.819
668.609;   84.261;  588.900;  301.181
668.879;  -81.862; -490.100; -558.819
669.149;  -85.260; -539.100; -516.820
669.418;  -84.834; -698.100; -726.820
669.688;  -43.732; -482.100; -666.820
669.957;   77.745; -423.099; -546.821
670.226;  -37.503; -268.099; -331.821
670.496;  -93.826; -431.099; -635.822
670.765;  -84.924; -418.099; -501.822
671.034; -132.397; -872.099; -828.822
671.304;  -20.621;   55.902; -111.823
671.573; -148.119;-1085.098; -957.823
671.842;   49.158; -380.098; -294.823
672.112;   27.510; -692.098; -586.824
672.381;   -8.463; -239.098; -214.824
672.650; -137.261;-1005.097;-1021.825
672.919;  -96.535; -631.097; -507.825
673.188; -102.808; -681.097; -878.825
673.457; -147.381;-1101.097;-1143.826
673.726;  -79.604; -579.096; -646.826
673.995;  -53.177; -533.096; -479.826
674.265;  -26.400; -263.096; -333.827
674.534;    3.351; -183.096; -235.827
674.802;   11.653; -618.096; -703.828
675.071;  995.880; -886.095; -801.828
675.340; 3773.232; -464.095; -339.828
675.609; 1261.109;  103.905;   82.171
675.878;   78.436; -949.095; -893.829
676.147;   19.112;  -26.095;   -8.829
676.416;   98.089; -210.094; -294.830
676.685;  714.516; 1000.906; -622.830
676.953;   98.393; -603.094; -452.831
677.222;  -39.455; -193.094; -273.831
677.491;  -12.353;  -24.094; -127.831
677.759;  -16.251;   11.907;  172.168
678.028;  -27.325; -279.093; -222.832
678.297;    0.802;   71.907;  197.168
678.565; -146.321; -898.093; -944.833
678.834;  -55.294; -311.093; -268.833
679.102;  -67.342; -411.092; -391.834
679.371; -149.065; -898.092; -727.834
679.639; -133.514; -797.092; -786.834
679.908; -110.312; -794.092; -724.835
680.176; -156.210; -895.091; -941.835
680.445;  -79.383; -346.091; -352.835
680.713;  -10.756;  -58.091;  -23.836
680.982; -104.754; -523.091; -525.836
681.250; -104.003; -578.091; -507.837
681.518; -113.126; -534.090; -751.837
681.787;    4.426; -204.090; -167.837
682.055;  -66.947; -490.090; -422.838
682.323; -153.995; -993.090; -992.838
682.591;   31.057; -216.090; -538.838
682.859;   87.708;    9.911;  -35.839
683.128;    2.235;  232.911;  497.161
683.396; -161.038;-1102.089;-1122.840
683.664;  -34.961; -241.089;   21.160
683.932;   15.366;  144.911;  -76.840
684.200;  -90.407; -576.088; -320.841
684.468;  -27.530;  -73.088; -124.841
684.736;  -33.779; -214.088; -175.841
685.004; -121.402;-1024.088; -982.842
685.272;  -53.150; -880.088; -774.842
685.540;  -56.673; -499.087; -557.843
685.808;  -96.721; -651.087; -682.843
686.076;  -93.694; -894.087; -969.843
686.343;  -68.618; -601.087; -815.844
686.611;   41.759; -195.087; -224.844
686.879;  457.561; -530.086; -553.844
687.147; 3205.838; -483.086; -480.845
687.414;  912.790;  -12.086; -169.845
687.682;    9.892; -658.086; -757.846
687.950;  299.768;  259.915;  263.154
688.217;   10.145; -792.085; -760.846
688.485;  -13.903; -632.085; -636.847
688.753;  519.724;  -11.085; -102.847
689.020;  151.451; -820.085; -851.847
689.288;  -94.972; -853.084; -787.848
689.555;  -27.595; -195.084; -148.848
689.823;  -45.494; -241.084; -345.849
690.090;  -91.442; -546.084; -651.849
690.358; -152.390; -877.084; -897.849
690.625;   -9.613;  120.917;   45.150
690.892;  -84.261; -403.083; -369.850
691.160;  -23.434;   72.917;  -35.850
691.427;   18.542;  141.917;  130.149
691.694; -155.931; -855.083; -929.851
691.962; -151.754;-1177.082;-1060.852
692.229;   14.348;  127.918;   56.148
692.496;   82.725;  130.918;  -49.852
692.763;    1.952; -164.082; -201.853
693.031;  -75.647; -739.082; -716.853
693.298;  -50.070; -509.081; -368.853
693.565;  319.782; -155.081; -163.854
693.832; 1205.884;   -5.081;   -9.854
694.099;  142.161; -643.081; -642.855
694.366;  -56.037; -882.081; -896.855
694.633;  -54.686; -920.080; -633.855
694.900;  754.166; 4367.920; -114.856
695.167;  424.443; -214.080; -380.856
695.434;   92.445; -646.080; -623.856
695.701;  193.922;  121.921;  -61.857
695.968;  462.749; -365.079; -361.857
696.234; 1047.076; -415.079; -646.858
696.501;10455.752; -776.079; -614.858
696.768; 5260.454; -554.079; -617.858
697.035;  311.231; -632.078; -667.859
697.302;   24.383; -448.078; -552.859
697.568;   20.960; -458.078; -497.859
697.835;  -34.588; -683.078; -624.860
698.102;  -40.812; -498.078; -407.860
698.368;   84.540;  384.923;  396.139
698.635;  -49.858;  -47.077; -424.861
698.901;  -11.006; -240.077; -348.861
699.168;   55.946; -534.077; -456.862
699.435;   82.123;  -72.077;  -13.862
699.701; -105.626; -868.076; -764.862
699.968;   17.526;  144.924; -441.863
700.234; -107.872; -783.076; -822.863
700.500;  -49.520; -448.076; -539.864
700.767;   -8.993;   -1.075;   26.136
701.033; -136.366;-1015.075; -963.864
701.299;  -67.414; -450.075; -483.865
701.566;  122.012;  950.925;  763.135
701.832;   21.614;  -31.075;  -76.865
702.098; -101.959;-1054.074;-1034.866
702.365;  -90.407;-1098.074;-1030.866
702.631;  -22.130;-1038.074;-1063.867
702.897; 1379.622; -765.074; -676.867
703.163; 2216.748;  348.926;  254.133
703.429;  133.625; -256.073; -273.868
703.695;  -16.198; -796.073; -792.868
703.961;   22.579; -214.073; -210.868
704.227;  -47.794; -630.073; -725.869
704.493;  125.508;  613.927;  510.131
704.759;  -20.216; -565.072; -540.870
705.025;   23.186; -203.072; -194.870
705.291;    5.513; -666.072; -562.870
705.557;  196.965;  719.928;   34.129
705.823;   48.317; -742.072; -694.871
706.089;  140.744; -307.071; -326.871
706.355;  384.345; -315.071; -244.872
706.620; 5752.522; -776.071; -729.872
706.886; 7883.199; -309.071; -362.873
707.152;  732.801; -818.070; -973.873
707.418;  -19.497;-1153.070;-1186.873
707.683;    2.180; -550.070; -530.874
707.949;  -37.993; -547.070; -578.874
708.215;  -14.167; -129.070; -207.874
708.480;  -19.690; -520.069; -420.875
708.746;   91.287;   68.931;   28.125
709.011;  -59.336; -578.069; -612.876
709.277;  -71.734; -538.069; -543.876
709.542;  -39.857; -428.069; -387.876
709.808;  -13.156;  -59.068;   89.123
710.073;  -91.004; -577.068; -695.877
710.339;  -34.477; -242.068; -228.877
710.604;   86.775; -780.068; -845.878
710.869;  303.202; -277.068; -366.878
711.135;  -64.071; -715.067; -628.879
711.400;  -89.145; -507.067; -608.879
711.665;  -53.243; -404.067; -479.879
711.931; -102.841; -661.067; -677.880
712.196; -101.089; -876.067; -954.880
712.461;   82.538; -402.066; -490.880
712.726;  145.140; -727.066; -771.881
712.991;  -84.609; -647.066; -664.881
713.256;  -38.732; -350.066; -332.882
713.521;  -60.380; -417.065; -381.882
713.787;  -61.003; -454.065; -472.882
714.052;  -36.776; -214.065; -400.883
714.317;  -81.574;-1045.065; -981.883
714.581; 1073.628; -374.065; -268.883
714.846; 1427.929; -822.064; -888.884
715.111;  132.306;  261.936;  257.116
715.376;  -29.292;  -86.064; -223.885
715.641;  -12.815; -365.064; -367.885
715.906;  285.687;   15.936; -551.885
716.171;  124.139;  221.937;  209.114
716.436;   51.090;  -78.063; -104.886
716.700; -112.283; -818.063; -692.886
716.965; -122.131; -794.063; -807.887
717.230;  -67.004; -339.063; -392.887
717.494;  -15.677;  -40.062; -134.888
717.759; -118.350; -784.062; -640.888
718.024;    6.376;  269.938;  250.112
718.288;   55.353;  685.938;  395.111
718.553; -144.395; -803.062; -977.889
718.817; -149.693; -883.061; -899.889
719.082;  -30.041; -115.061; -125.890
719.346; -138.439;-1000.061; -947.890
719.611;  -36.812; -300.061; -255.891
719.875; -110.011; -568.060; -537.891
720.140;  -56.459; -453.060; -603.891
720.404;   16.418; -136.060; -249.892
720.668;  851.545; -475.060; -411.892
720.933;  313.622;  146.940;  137.108
721.197;  -89.276; -667.059; -600.893
721.461; -137.950; -851.059; -826.893
721.725;   -4.873;  -21.059; -250.894
721.990;  -58.671; -284.059; -204.894
722.254;  -29.044;  -26.059; -108.894
722.518;  -81.467; -286.058; -442.895
722.782;  -78.865; -743.058; -594.895
723.046;  116.761;  614.942;  570.105
723.310;   31.613;  374.942;  210.104
723.574; -109.660; -654.058; -614.896
723.838; -101.858; -576.057; -642.897
724.102;  -41.656; -226.057; -239.897
724.366; -147.479;-1032.057; -978.897
724.630; -110.003; -749.057; -571.898
724.894;  -81.776; -722.057; -514.898
725.158;   -6.774;   38.944; -295.898
725.422;  -52.997; -394.056; -327.899
725.685;  -68.245; -441.056; -349.899
725.949;  -70.143; -566.056; -519.900
726.213;  -88.591; -732.056; -811.900
726.477;  161.335;-1020.055; -933.900
726.740;  130.512; -274.055; -104.901
727.004;  367.939; -384.055; -510.901
727.268; 3379.941; -442.055; -400.901
727.531;  924.693; -961.055; -775.902
727.795;  -53.755; -713.054; -673.902
728.059;  -59.154; -552.054; -557.903
728.322;  -93.802; -841.054; -669.903
728.586;   33.650; -692.054; -701.903
728.849;  -82.948; -695.053; -756.904
729.112; -131.921; -812.053; -912.904
729.376; -140.144; -959.053; -905.904
729.639;  -78.318; -536.053; -536.905
729.903; -108.966; -733.053; -699.905
730.166;  -41.864; -437.052; -399.906
730.429;  -38.437; -317.052; -468.906
730.693;  -78.610; -355.052; -894.906
730.956;  198.517;  810.948;  651.093
731.219;  702.869; -310.052; -103.907
731.482;  101.645;-1003.051; -894.907
731.745;   93.897; -794.051; -935.908
732.009;   12.024;  -30.051;   50.092
732.272; -105.799; -904.051; -771.909
732.535;  -44.422; -300.051; -310.909
732.798; -151.795;-1083.050;-1166.909
733.061;  -59.119; -430.050; -456.910
733.324;   11.908;   31.950; -180.910
733.587;   68.585;  290.950;  365.090
733.850;  -63.013; -973.049;-1050.911
734.113;   25.839;   33.951;   32.089
734.376;    7.041; -328.049; -447.912
734.639;  211.992; 1188.951; 1011.088
734.901;   86.019; -180.049; -402.912
735.164;  502.396; -883.048; -837.913
735.427; 1271.223; -166.048; -355.913
735.690;  117.050; -205.048; -234.913
735.952;  -32.573; -923.048; -925.914
736.215;  -25.322;-1113.048;-1009.914
736.478;   41.155; -771.047; -774.915
736.740;  205.282;   33.953;  129.085
737.003;  707.859; -658.047; -672.915
737.266; 3958.561;  -94.047;   46.084
737.528;  437.988; -682.047; -660.916
737.791;  333.015; -316.046; -327.916
738.053;  846.466;  465.954;  649.083
738.316;11145.143; -162.046; -136.917
738.578; 7563.245; -770.046; -736.918
738.841;  435.097; -382.046; -446.918
739.103;  191.399; -875.045; -777.918
739.365;  510.901;   79.955;  -69.919
739.628;    1.077; -884.045; -805.919
739.890;  -34.946; -758.045; -710.919
740.152;  -36.119; -692.044; -754.920
740.414;  -17.717; -408.044; -359.920
740.677;  -34.290; -785.044; -634.921
740.939;  -54.363; -587.044; -487.921
741.201;  275.913; -432.044; -572.921
741.463;   32.065; -689.043; -745.922
741.725;   19.767;  -21.043; -199.922
741.987;   55.744;  220.957;  116.078
742.249;   10.896; -751.043; -859.923
742.511;  203.648; -703.043; -794.923
742.773;   29.674; -546.042; -546.924
743.035;  128.901;  796.958;  533.076
743.297;  -26.547; -963.042;-1013.924
743.559;  727.305; -278.042; -262.925
743.821;   56.707; -735.042; -744.925
744.083;   -6.391;  -44.041; -149.925
744.345;  -87.064; -869.041; -892.926
744.607;   40.187;   75.959;  122.074
744.868;  -45.536; -490.041; -554.927
745.130; -111.434; -994.041;-1008.927
745.392;   52.443;   -1.040;  -44.927
745.653;  -14.130; -411.040; -378.928
745.915;  157.247;  896.960;  631.072
746.177;   50.923;   35.960;  -43.928
746.438;  -11.425; -428.040; -543.929
746.700;  -57.723; -947.039; -988.929
746.961;    9.554; -659.039; -740.930
747.223;  132.081; -190.039;  -74.930
747.484;   76.658; -391.039; -471.930
747.746;  152.109;  -23.038; -106.931
748.007;  116.361; -647.038; -689.931
748.269;  290.813; -468.038; -440.931
748.530;  469.665; -852.038; -638.932
748.791;  259.942; -354.038; -420.932
749.053;  449.344;  286.963;  163.067
749.314;  444.621; -236.037; -169.933
749.575;  520.697; -945.037; -905.933
749.836;  856.549; -217.037;   86.066
750.098; 2515.726;  -60.037;  -21.934
750.359;36610.378;  414.964;  555.066
750.620; 9000.005; -121.036; -220.935
750.881; 1021.832; -585.036; -513.935
751.142; 1364.208; -950.036; -938.936
751.403;17058.610; -789.036; -705.936
751.664; 7236.187;-1034.035; -999.936
751.925;  500.789; -175.035; -262.937
752.186;  284.566; -298.035; -278.937
752.447;  137.493; -590.035; -445.937
752.708;   55.044; -532.035; -648.938
752.969;    0.921; -566.034; -576.938
753.230;   -4.752; -777.034; -672.939
753.491;  -11.525; -650.034; -631.939
753.751;   56.552;  109.966;   19.061
754.012;   88.879;  258.967;  181.060
754.273;   50.430; -174.033;  -71.940
754.534;    0.207; -487.033; -580.940
754.794;  -81.841; -926.033; -911.941
755.055;  144.586; 1051.967;  881.059
755.316;  -39.462; -700.032; -566.942
755.576;  -38.660; -606.032; -576.942
755.837;  -43.758; -527.032; -695.942
756.097;  -38.632; -530.032; -564.943
756.358;  -74.505; -725.032; -770.943
756.618;  -50.703; -705.031; -641.943
756.879;   14.974; -254.031; -349.944
757.139; -130.699;-1098.031;-1116.944
757.400;  -46.897; -538.031; -553.945
757.660;  -13.171; -365.031; -401.945
757.920;   11.556; -266.030; -228.945
758.181;  -26.992; -468.030; -351.946
758.441;  -90.840; -870.030; -809.946
758.701;  -42.638; -308.030; -215.946
758.961;   -6.386; -220.030; -278.947
759.222;  -51.460; -574.029; -502.947
759.482;  -68.708; -683.029; -723.948
759.742;  -85.906; -706.029; -547.948
760.002;   12.971;  -83.029; -143.948
760.262;   29.123;   50.972;  182.051
760.522;  -38.000; -498.028; -574.949
760.782;  -47.723; -738.028; -612.949
761.042;  -34.247; -618.028; -573.950
761.302;   56.705;   55.972;  -18.950
761.562;   54.032; -164.027; -154.951
761.822;   86.559; -710.027; -551.951
762.082;  -44.914;-1104.027;-1093.951
762.342;   63.938; -328.027; -403.952
762.601;   77.439; -567.027; -506.952
762.861;  361.491; -281.026; -207.952
763.121;  419.493; -406.026; -411.953
763.381; 7615.945; -499.026; -485.953
763.640; 8025.697; -139.026; -307.954
763.900;  364.049; -242.026; -203.954
764.160;   93.325; -458.025; -491.954
764.419;  -24.348; -726.025; -782.955
764.679;  -65.396; -795.025; -726.955
764.939;  -13.969; -124.025; -210.955
765.198;  -60.817; -608.025; -563.956
765.458;  -86.215; -710.024; -612.956
765.717;  -83.364; -454.024; -590.957
765.976;  -72.862; -428.024; -411.957
766.236;  -78.885; -475.024; -610.957
766.495;   15.717;  260.977;   73.042
766.755;  -99.356;-1090.023; -987.958
767.014;   -4.829; -594.023; -665.958
767.273;  -52.577; -373.023; -397.959
767.533;  -47.026; -228.023; -307.959
767.792;  -22.749; -151.022; -188.960
768.051;  -59.372; -228.022; -276.960
768.310;  -76.995; -546.022; -650.960
768.569;  -12.468; -161.022;    4.039
768.828;  -26.566; -285.022; -363.961
769.088; -126.715;-1050.021; -942.961
769.347;  -75.863; -755.021; -599.962
769.606; -106.311; -876.021; -857.962
769.865; -113.534;-1016.021;-1033.963
770.124;  -15.657; -411.021; -336.963
770.383;  -49.755; -778.020; -910.963
770.641;  -14.304; -398.020; -400.964
770.900;  -53.627; -953.020; -846.964
771.159;  -55.625; -851.020; -951.964
771.418;  -17.398; -917.020; -779.965
771.677;  124.054; -224.019; -293.965
771.936;  145.731; -794.019; -865.966
772.194; 2351.932; -465.019; -437.966
772.453;11106.259; -213.019; -391.966
772.712;  754.811;  416.982;  329.033
772.970;  112.713;   32.982;   63.033
773.229;   81.540;  -22.018;  102.033
773.488;  -76.158; -814.018; -770.968
773.746;   52.169;  296.982;  335.032
774.005;   24.095;  190.983;  -22.969
774.263;   10.147;  243.983;  177.031
774.522;  -91.426; -422.017; -548.969
774.780;  -87.249; -484.017; -417.970
775.039;  -75.472; -551.017; -531.970
775.297;  -29.820; -135.016; -351.970
775.555; -101.494; -489.016; -612.971
775.814; -126.017; -618.016; -570.971
776.072; -112.865; -749.016; -740.971
776.330; -109.788; -630.016; -520.972
776.589; -112.236; -703.015; -721.972
776.847; -135.584; -645.015; -624.973
777.105; -160.358;-1016.015;-1032.973
777.363;  -90.931; -459.015; -454.973
777.621; -143.504; -660.015; -717.974
777.879;  -33.827;  -42.014;   32.026
778.138;  -97.400; -554.014; -717.974
778.396; -107.473; -585.014; -526.975
778.654; -151.571;-1015.014; -970.975
778.912;  -76.920; -269.014; -371.976
779.170; -126.268; -880.013; -803.976
779.427; -150.191; -922.013; -897.976
779.685; -129.539; -880.013; -832.977
779.943;  -90.437; -654.013; -593.977
780.201; -152.635; -964.012; -883.978
780.459; -123.684; -651.012; -610.978
780.717;  -75.007; -440.012; -390.978
780.974; -101.430; -449.012; -490.979
781.232;  -73.878; -358.012; -338.979
781.490;  -76.926; -551.011; -472.979
781.747;  -85.424; -555.011; -476.980
782.005;   18.077;  462.989;  254.020
782.263; -165.746; -542.011;-1004.981
782.520;  -80.744; -326.011; -501.981
782.778; -160.292;-1013.010;-1051.981
783.035; -171.615; -962.010; -938.982
783.293;  -62.888; -248.010; -206.982
783.550;  -50.437; -134.010; -198.982
783.808; -118.835; -764.010; -776.983
784.065; -169.583; -745.009; -874.983
784.322;  -38.306;   25.991;  -86.984
784.580; -145.879; -915.009; -771.984
784.837;  -98.602; -392.009; -466.984
785.094; -141.375; -783.009; -762.985
785.352;  -55.824; -304.008; -404.985
785.609; -113.172; -934.008; -839.985
785.866;  -93.645; -345.008; -401.986
786.123;  -90.643; -639.008; -583.986
786.380; -105.066; -665.008; -604.987
786.637;  -58.089; -225.007; -380.987
786.895;  -17.988; -456.007; -543.987
787.152;  -67.261; -135.007; -267.988
787.409;  -30.934; -123.007; -225.988
787.666;  -91.832; -299.006; -378.988
787.923; -105.255; -616.006; -695.989
788.179; -110.153; -551.006; -584.989
788.436; -111.402; -585.006; -585.990
788.693;  -42.300;  -92.006;  -87.990
788.950;  152.077; -125.005; -112.990
789.207;  187.479; -381.005; -372.991
789.464;  -54.644; -161.005; -301.991
789.720;  -12.467;  150.995;  110.009
789.977; -171.040;-1003.005; -671.992
790.234;  -37.564;   44.996;  -66.992
790.490; -157.187; -884.004;-1031.993
790.747;  -34.085;  -85.004;   22.007
791.004;  -23.958; -426.004; -348.993
791.260;  -87.781; -430.004; -560.994
791.517;  -98.679; -843.003; -788.994
791.773;  -54.778; -379.003; -342.994
792.030; -108.201; -596.003; -660.995
792.286;  -98.899; -686.003; -636.995
792.543;   -9.347;  -74.002; -159.995
792.799;  -58.995; -584.002; -382.996
793.055; -150.543;-1179.002;-1210.996
793.312;  -94.792; -827.002; -816.997
793.568;  -57.240; -746.002; -599.997
793.824;   13.437; -226.001; -284.997
794.081;   23.389; -447.001; -508.998
794.337;   62.416; -664.001; -561.998
794.593; 1431.043; -319.001; -271.999
794.849; 6568.894; -746.001; -772.999
795.105;  327.121; -270.000; -261.999
795.361;    8.923; -490.000; -457.000
795.617;  -57.850; -875.000; -945.000
795.873;  -60.350; -360.000; -407.000
796.129;  -30.450; -368.000; -306.000
796.385;  -31.375; -124.000; -156.000
796.641;   74.575;  412.000;  550.000
796.897;  -82.525; -666.000; -635.000
797.153;   86.775;  453.000;  357.000
797.409; -112.550; -785.000; -868.000
797.665;  -68.600; -625.000; -732.000
797.921;  -82.800; -775.000; -762.000
798.176;  -53.600; -744.000; -747.000
798.432;  -40.675; -824.000; -596.000
798.688;  -73.675;-1174.000;-1078.000
798.943;   70.225; -165.000; -147.000
799.199;   11.475;-1005.000; -959.000
799.455;  237.200;  369.000;  316.000
799.710;  135.400; -813.000; -380.000
799.966;  306.625; -162.000; -160.000
800.221;  499.575; -638.000; -721.000
800.477;10890.975; -743.000; -710.000
800.732; 9166.175; -773.000; -800.000
800.988;  628.550;  205.000;  -19.000
801.243; 1926.975; -454.000; -344.000
801.498; 7882.150; -814.000; -739.000
801.754;  449.950; -289.000; -163.000
802.009;   92.300; -257.000; -335.000
802.264;  -38.550; -967.000;-1033.000
802.520;   31.500;  222.000;   -3.000
802.775;  -34.825; -524.000; -359.000
803.030;   55.300;  395.000;  356.000
803.285; -114.250; -840.000; -903.000
803.540;  -63.450; -686.000; -699.000
803.795;  -57.075; -648.000; -583.000
804.051;  -42.700; -279.000; -346.000
804.306;   19.850;  168.000;  128.000
804.561;  150.850;  451.000;  362.000
804.816;  132.775;  714.000;  861.000
805.071;   -4.000; -185.000; -280.000
805.325;  215.100; -257.000; -427.000
805.580; -106.875; -841.000; -877.000
805.835;  -21.850; -204.000; -297.000
806.090;  -87.900; -760.000; -676.000
806.345;  -13.525; -344.000; -264.000
806.600;  -28.500; -549.000; -632.000
806.854;  -13.475; -408.000; -538.000
807.109;   -6.550; -493.000; -577.000
807.364;    0.675; -407.000; -328.000
807.618;  -12.100; -415.000; -381.000
807.873;   57.475; -470.000; -494.000
808.128;   94.575; -257.000; -518.000
808.382;  111.600; -224.000; -332.000
808.637;   68.125; -440.000; -511.000
808.891;  182.825; -257.000; -180.000
809.146;  103.800; -902.000; -794.000
809.400;  251.550; -848.000; -923.000
809.654;  329.975; -779.000; -551.000
809.909;  498.625; -841.000; -927.000
810.163; 6844.950; -813.000; -651.000
810.418;16786.100; -940.000; -861.000
810.672; 1026.075; -685.000; -690.000
810.926;  731.075; -993.000; -973.000
811.180; 1466.175; -439.000; -372.000
811.434;32836.375;  240.000;  135.000
811.689;12448.325; -231.000; -365.000
811.943;  635.775; -936.000; -953.000
812.197;  323.275; -893.000; -671.000
812.451;  136.700; -379.000; -514.000
812.705;  -27.050; -809.000; -619.000
812.959;   17.450; -263.000; -388.000
813.213;  -17.550; -283.000; -209.000
813.467;   76.400;  470.000;  253.000
813.721; -111.325; -764.000; -792.000
813.975; -117.225; -826.000; -877.000
814.229;   38.325;  430.000;  353.000
814.482;  -74.925; -517.000; -566.000
814.736; -129.725; -766.000; -744.000
814.990; -133.250; -779.000; -872.000
815.244;  -40.425; -228.000; -285.000
815.497;  -94.250; -636.000; -601.000
815.751;  -18.375; -141.000;   82.000
816.005;  -84.200; -470.000; -586.000
816.258;  -60.825; -510.000; -363.000
816.512; -108.150; -693.000; -610.000
816.766;   -0.950;  121.000;  157.000
817.019;   27.875;  148.000;  149.000
817.273; -123.325;-1000.000; -802.000
817.526;  -35.125; -206.000; -173.000
817.779;  -41.925;-1049.000; -960.000
818.033;  -80.300; -693.000; -807.000
818.286; -125.500; -725.000; -792.000
818.540;  -75.550; -403.000; -403.000
818.793;  -82.175; -402.000; -489.000
819.046;  -86.925; -582.000; -520.000
819.299;  -38.550; -157.000; -166.000
819.553; -116.750; -552.000; -592.000
819.806; -166.250;-1016.000; -838.000
820.059;  -60.625; -334.000; -354.000
820.312;    6.275;  152.000;  185.000
820.565;   -2.950;  110.000;  -27.000
820.818;  -51.475;  -59.000; -173.000
821.071; -173.600;-1041.000; -957.000
821.324; -103.200; -536.000; -540.000
821.577;  -99.800; -457.000; -483.000
821.830;  -66.100; -270.000; -172.000
822.083; -113.150; -733.000; -288.000
822.336;  -51.225; -261.000; -167.000
822.589; -124.525; -805.000; -688.000
822.842; -145.300; -875.000; -770.000
823.094; -174.950;-1076.000;-1114.000
823.347; -139.975; -925.000; -729.000
823.600;   35.250;  402.000;  187.000
823.853;  -55.400; -311.000; -267.000
824.105;  -65.650; -331.000; -575.000
824.358; -115.950; -617.000; -716.000
824.611;   28.950;  234.000;   40.000
824.863;  -52.975; -612.000; -591.000
825.116;   48.950;  -33.000;   27.000
825.368;   80.900; -366.000; -372.000
825.621;  160.900; -186.000; -240.000
825.873;   76.650; -704.000; -737.000
826.126;  626.925; -669.000; -641.000
826.378;11831.925; -389.000; -505.000
826.630; 2673.200; -890.000; -898.000
826.883;   35.425; -754.000; -693.000
827.135;   41.400; -279.000; -270.000
827.387; -122.025; -893.000; -839.000
827.639;  -27.075;  -86.000;   32.000
827.892; -136.150; -742.000; -582.000
828.144; -140.200; -848.000; -804.000
828.396;  -53.075;  104.000;  -80.000
828.648;  -94.400; -440.000; -333.000
828.900; -161.875; -702.000; -795.000
829.152; -110.825; -684.000; -683.000
829.404;  -72.025; -215.000; -267.000
829.656;   -3.200;  321.000;  214.000
829.908;  -24.925;  393.000;  229.000
830.160; -163.275;-1064.000;-1047.000
830.412;  -94.500; -481.000; -430.000
830.664; -117.425; -557.000; -665.000
830.916;  -84.675; -268.000; -206.000
831.167; -176.350;-1073.000; -951.000
831.419; -125.875; -623.000; -566.000
831.671; -130.450; -764.000; -809.000
831.923;  -84.650; -311.000; -447.000
832.174;  -71.075; -273.000; -331.000
832.426; -126.125; -493.000; -582.000
832.678; -182.350;-1043.000;-1091.000
832.929; -162.400; -947.000; -935.000
833.181;  -73.875; -575.000; -677.000
833.432;  -59.525;  -59.000; -186.000
833.684;  -21.500;  112.000;  -27.000
833.935; -125.575; -610.000; -566.000
834.187; -120.425; -829.000; -823.000
834.438;  -53.400;  -58.000;  -25.000
834.689;  -57.625; -255.000; -123.000
834.941;  -68.700; -343.000; -244.000
835.192;  -88.100; -590.000; -533.000
835.443; -121.575; -419.000; -506.000
835.695;  -12.175;  138.000;  -16.000
835.946;  -97.075; -608.000; -378.000
836.197; -102.525; -599.000; -622.000
836.448;  -88.475; -528.000; -395.000
836.699;  -62.175; -253.000; -341.000
836.950;  -12.025;   72.000;    7.000
837.201; -149.800;-1003.000; -987.000
837.452;  -63.025; -356.000; -170.000
837.703; -107.325; -791.000; -737.000
837.954;  -49.550; -205.000; -365.000
838.205;  -82.775;-1029.000;-1008.000
838.456;  162.650; -196.000; -282.000
838.707;    5.775; -423.000; -519.000
838.958;   -1.350; -634.000; -647.000
839.209;  283.225;   18.000;   40.000
839.460;   96.475; -439.000; -201.000
839.710;  167.475; -135.000; -297.000
839.961;  419.175;  730.000;  612.000
840.212;  340.125; -382.000; -497.000
840.462; 1165.350; -328.000; -277.000
840.713;18378.925; -571.000; -536.000
840.964; 6972.525;  -62.000; -143.000
841.214;  498.750; -384.000; -624.000
841.465;  555.750; -214.000; -141.000
841.715;  487.125; -417.000; -380.000
841.966;  651.575; -746.000; -685.000
842.216; 9454.325; -330.000; -431.000
842.466;33751.025; -169.000; -313.000
842.717; 1739.650; -964.000; -952.000
842.967;  297.275; -635.000; -641.000
843.217;  263.175;   20.000;   28.000
843.468;   66.125; -104.000; -132.000
843.718;  -35.275; -718.000; -726.000
843.968;  -93.400; -837.000; -765.000
844.218;    8.850; -315.000; -262.000
844.469;  -44.700; -577.000; -561.000
844.719; -110.850; -537.000; -682.000
844.969; -115.275; -550.000; -580.000
845.219; -144.650; -814.000; -862.000
845.469;  -86.925; -392.000; -342.000
845.719; -131.375; -792.000; -884.000
845.969;   -9.500;  119.000;  174.000
846.219; -113.225; -738.000; -720.000
846.469;   21.175;  464.000;  432.000
846.718;  -45.275; -115.000;   31.000
846.968; -140.350; -827.000; -827.000
847.218;  -34.325; -224.000; -371.000
847.468;   -7.000; -586.000; -555.000
847.718; -144.400; -827.000; -798.000
847.967; -143.525; -826.000; -915.000
848.217;  -76.950; -449.000; -569.000
848.467;  -66.325; -405.000; -376.000
848.716;  -98.075; -708.000; -725.000
848.966;   -8.700; -372.000; -358.000
849.215;  -64.325; -428.000; -419.000
849.465;  -98.300; -785.000; -615.000
849.714; -143.650;-1132.000;-1150.000
849.964;  -65.200; -551.000; -613.000
850.213;  -21.375; -393.000; -355.000
850.463;   84.550;  137.000;  340.000
850.712;   -2.525; -542.000; -567.000
850.961;    6.800; -739.000; -678.000
851.211;   99.575; -513.000; -504.000
851.460;  153.325; -635.000; -650.000
851.709;  593.325;  -25.000;   18.000
851.958;10774.175; -912.000; -750.000
852.208;12536.200; -859.000; -879.000
852.457;  471.400; -181.000;  -13.000
852.706;   57.125; -791.000; -823.000
852.955;   -2.000; -507.000; -528.000
853.204;  -66.075; -521.000; -461.000
853.453;  -82.675; -418.000; -458.000
853.702; -133.975; -660.000; -750.000
853.951; -111.200; -532.000; -520.000
854.200; -118.475; -613.000; -562.000
854.449; -141.075; -695.000; -661.000
854.698;  -96.575; -340.000; -279.000
854.946;  -88.400; -181.000; -284.000
855.195; -139.525; -843.000; -868.000
855.444;  -95.950; -395.000; -420.000
855.693; -110.900; -345.000; -432.000
855.941; -118.925; -387.000; -516.000
856.190;  -58.700; -256.000; -382.000
856.439; -140.950; -652.000; -703.000
856.687;  -53.650;  -99.000;  -72.000
856.936; -122.925; -621.000; -323.000
857.184; -193.250;-1067.000;-1020.000
857.433; -101.075; -423.000; -512.000
857.681; -141.900; -989.000; -953.000
857.930;  -73.150; -282.000; -433.000
858.178; -161.125; -856.000; -929.000
858.427; -138.725; -802.000; -781.000
858.675; -110.650; -377.000; -544.000
858.923; -114.675; -527.000; -819.000
859.172; -182.950;-1094.000;-1070.000
859.420;  -85.950; -339.000; -239.000
859.668; -133.825; -624.000; -628.000
859.916;  -21.125;  109.000;  115.000
860.164; -111.350; -699.000; -603.000
860.413;  265.500; -878.000; -696.000
860.661;  194.825; -709.000; -577.000
860.909;  -74.000; -339.000; -325.000
861.157;  -92.425; -277.000; -444.000
861.405; -121.875; -534.000; -670.000
861.653;   26.375;  310.000;  310.000
861.901;  171.975; -543.000; -613.000
862.149;   -0.750; -801.000; -824.000
862.396;  -79.550; -297.000; -187.000
862.644; -100.925; -368.000; -347.000
862.892;  -48.900;   98.000;  138.000
863.140; -120.600; -549.000; -530.000
863.388; -166.975; -815.000; -759.000
863.635; -130.725; -642.000; -601.000
863.883;  -28.350;  231.000;  190.000
864.131;  -98.125; -288.000; -357.000
864.378; -142.625; -675.000; -540.000
864.626;  -94.150; -347.000; -415.000
864.873; -137.325; -556.000; -505.000
865.121; -142.175; -714.000; -799.000
865.368;  -54.000; -173.000;   75.000
865.616;  -41.125;  -33.000;  -40.000
865.863;  -81.350; -462.000; -506.000
866.111;  -93.025; -795.000; -824.000
866.358;   23.675; -426.000; -420.000
866.605; 2415.350;  -64.000; -804.000
866.853; 2303.125; -621.000; -537.000
867.100;  -41.800; -728.000; -775.000
867.347; -105.525; -672.000; -611.000
867.594;  -84.150; -740.000; -714.000
867.841;   72.550;   97.000;   17.000
868.089; -142.975; -746.000; -698.000
868.336; -127.475; -477.000; -420.000
868.583; -147.725; -637.000; -741.000
868.830;  -49.375; -131.000; -170.000
869.077; -169.700; -859.000; -787.000
869.324; -135.425; -502.000; -458.000
869.571; -128.275; -398.000; -430.000
869.818; -136.975; -485.000; -439.000
870.065; -106.475; -439.000; -513.000
870.311; -112.525; -456.000; -542.000
870.558;  -97.225; -332.000; -311.000
870.805;  -79.075; -320.000; -384.000
871.052; -110.925; -494.000; -369.000
871.298;  -78.100; -204.000; -131.000
871.545;  -67.300; -151.000; -185.000
871.792;  -95.225; -173.000; -222.000
872.038;  -66.525;   43.000; -126.000
872.285; -121.725; -496.000; -387.000
872.532; -113.250; -357.000; -387.000
872.778;   14.750;  556.000;  403.000
873.025;  -90.100; -384.000; -359.000
873.271;   25.875;  501.000;  578.000
873.517;  -35.525; -133.000; -209.000
873.764;  -38.400; -193.000;  -80.000
874.010;  -70.150; -143.000; -230.000
874.257;  -40.525;  123.000;   90.000
874.503; -131.700; -579.000; -479.000
874.749;  -78.425;   31.000;  275.000
874.995;  -68.325;  -80.000;  -20.000
875.242; -140.600; -540.000; -478.000
875.488; -108.575; -414.000; -439.000
875.734;  -67.825; -106.000; -234.000
875.980;  193.175; -872.000;-1032.000
876.226;  334.475; -157.000; -255.000
876.472;    0.525;  343.000;  237.000
876.718;  -49.700;  184.000;  158.000
876.964;  -42.750;   56.000;   55.000
877.210; -161.525; -547.000; -677.000
877.456; -120.350; -630.000; -557.000
877.702; -183.150; -821.000; -832.000
877.948; -109.750; -377.000; -497.000
878.193;    4.650;  361.000;  255.000
878.439;  -89.700; -487.000; -472.000
878.685; -100.250; -272.000; -343.000
878.931; -139.350; -618.000; -676.000
879.176;  -85.825; -201.000; -201.000
879.422; -180.000; -933.000; -820.000
879.668;   22.775;   10.000;   79.000
879.913;  130.025;   53.000;  137.000
880.159;  -57.050; -112.000;  -17.000
880.404;  -56.175; -152.000; -162.000
880.650;  -44.425;   91.000;  141.000
880.895; -156.275; -670.000; -710.000
881.141; -133.625; -454.000; -428.000
881.386; -151.400; -503.000; -658.000
881.631;  -93.075; -311.000; -166.000
881.877;  -34.875;  112.000;  -13.000
882.122; -143.050; -684.000; -600.000
882.367;  -88.050; -136.000; -186.000
882.612;  -93.875;  -80.000; -176.000
882.858; -159.025; -877.000; -823.000
883.103; -110.425; -297.000; -267.000
883.348; -153.950; -759.000; -852.000
883.593; -147.025; -677.000; -602.000
883.838;  -58.375; -311.000;  -24.000
884.083;    6.375;  353.000;  288.000
884.328;  -86.175; -564.000; -545.000
884.573;  -69.400; -196.000; -143.000
884.818;  195.375; -694.000; -531.000
885.063;  156.350; -348.000; -315.000
885.308;  -91.575; -475.000; -398.000
885.553;  -24.175;  245.000;  325.000
885.797; -130.825; -545.000; -615.000
886.042;  -56.875;    8.000;   58.000
886.287;  -79.750; -253.000; -211.000
886.532;  -56.875;   26.000;  204.000
886.776; -110.550; -407.000; -525.000
887.021; -148.275; -621.000; -574.000
887.265; -148.825; -685.000; -689.000
887.510; -135.575; -557.000; -496.000
887.755;  -91.850; -194.000; -164.000
887.999; -144.575; -552.000; -575.000
888.244;  -55.800;  -58.000;  161.000
888.488;  -15.650;  371.000;  393.000
888.732; -125.150; -368.000; -520.000
888.977; -138.825; -622.000; -567.000
889.221; -162.775; -683.000; -659.000
889.465; -129.050; -422.000; -566.000
889.710;  -71.575;  -56.000; -299.000
889.954;   -7.550;  579.000;  467.000
890.198; -148.925; -584.000; -707.000
890.442; -174.150; -716.000; -712.000
890.687; -177.650; -800.000; -753.000
890.931;  -97.525; -273.000; -210.000
891.175; -134.100; -502.000; -500.000
891.419;  -86.875; -105.000; -110.000
891.663;  -88.550; -239.000; -112.000
891.907; -177.525; -801.000; -545.000
892.151; -176.050; -920.000; -815.000
892.395; -119.050; -274.000; -387.000
892.638;  -19.025;  408.000;  291.000
892.882; -195.800; -780.000; -867.000
893.126;   18.600;  758.000;  558.000
893.370;  -90.425; -167.000; -168.000
893.614; -137.000; -714.000; -715.000
893.857; -109.075; -183.000; -197.000
894.101; -151.800; -527.000; -631.000
894.345;  -66.300;  300.000;  150.000
894.588;   24.250;  569.000;  380.000
894.832;  -90.075; -178.000;  -84.000
895.075;  -79.275;   15.000;  -92.000
895.319; -135.650; -552.000; -420.000
895.563; -122.600; -413.000; -353.000
895.806; -164.750; -628.000; -741.000
896.049;  -74.275; -576.000; -368.000
896.293;   85.625;  527.000;  405.000
896.536;  -83.775; -465.000; -468.000
896.779;  -77.300; -149.000;   -1.000
897.023; -137.000; -751.000; -714.000
897.266;  -30.400;  325.000;  269.000
897.509; -174.200; -900.000; -901.000
897.752;  -45.325;  149.000;  171.000
897.996; -182.325; -972.000; -864.000
898.239;  -66.325;  168.000;  102.000
898.482; -125.225; -431.000; -453.000
898.725;  -46.375;  101.000;   53.000
898.968; -148.475; -609.000; -744.000
899.211; -115.450; -513.000; -361.000
899.454; -131.450; -633.000; -539.000
899.697;  -85.425;   90.000;  -43.000
899.940; -157.750; -761.000; -757.000
900.182; -113.200; -335.000; -405.000
900.425;  -92.100; -150.000; -298.000
900.668;  -25.725;  491.000;  350.000
900.911; -101.450; -292.000; -345.000
901.154;  -51.100;  141.000;   -3.000
901.396; -125.050; -407.000; -412.000
901.639; -154.200; -430.000; -496.000
901.882; -181.150; -790.000; -809.000
902.124;  -84.300;  -29.000; -143.000
902.367; -123.750; -315.000; -361.000
902.609; -138.450; -476.000; -453.000
902.852;  -81.375; -108.000; -260.000
903.094; -133.350; -458.000; -337.000
903.337;  -65.850;  -26.000;   53.000
903.579; -126.350; -228.000; -441.000
903.821; -160.525; -597.000; -744.000
904.064;  -56.225;   85.000;  127.000
904.306;  -81.325; -126.000; -166.000
904.548; -121.450; -152.000; -366.000
904.790;  -96.900; -195.000; -340.000
905.033; -149.325; -625.000; -577.000
905.275; -130.275; -513.000; -524.000
905.517;   43.975;  468.000;  256.000
905.759;  -58.850; -667.000; -761.000
906.001; -113.500; -322.000; -369.000
906.243;  -66.475; -162.000; -224.000
906.485;  110.475; -265.000; -207.000
906.727;  115.100; -499.000; -542.000
906.969;  -40.325;  -30.000; -135.000
907.211;  114.375; -316.000; -382.000
907.453;  266.425; -188.000; -237.000
907.695;   -4.825; -158.000; -385.000
907.936;   32.275;  818.000;  706.000
908.178;  -55.550;   92.000; -135.000
908.420;  -78.925; -111.000; -162.000
908.662; -144.175; -633.000; -682.000
908.903;  -90.450; -208.000; -123.000
909.145;  -53.150; -240.000; -305.000
909.386;   -1.950;  315.000;  280.000
909.628;   37.300;  363.000;  397.000
909.870;   -6.700;   29.000;  264.000
910.111;  -96.400; -809.000; -949.000
910.353;    1.925; -123.000; -161.000
910.594;   -3.450; -574.000; -606.000
910.835;   81.400; -265.000; -326.000
911.077;  153.250; -503.000; -604.000
911.318;  282.350; -505.000; -471.000
911.559;  447.825; -577.000; -880.000
911.801; 1360.350; -284.000; -280.000
912.042;10827.275;  -50.000; -159.000
912.283;26793.025;  404.000;  371.000
912.524; 3921.575; -396.000; -457.000
912.765;  443.150; -193.000;   79.000
913.006;  237.475; -307.000; -338.000
913.247;   31.375; -270.000; -290.000
913.488;  -13.950;  -43.000;   30.000
913.729;  -90.525; -373.000; -373.000
913.970;  -65.375;  -96.000; -292.000
914.211;  -86.925; -160.000; -198.000
914.452;  -71.300; -118.000;  -11.000
914.693;    5.600;  510.000;  592.000
914.934;   -2.325;  510.000;  440.000
915.175;  -73.425;   53.000;  -95.000
915.415;  -77.825; -137.000;   27.000
915.656;  -63.250;  -28.000;  192.000
915.897; -102.325; -252.000;  -82.000
916.137;  -73.475;   74.000;   -9.000
916.378; -127.450; -573.000; -517.000
916.619; -107.625; -159.000;  -63.000
916.859;  -29.400;  303.000;  330.000
917.100;  137.175; 1655.000; 1070.000
917.340;   67.700;  930.000;  728.000
917.581;   42.625;  965.000;  789.000
917.821;  -23.550; -171.000;  143.000
918.061;    3.750; -199.000;  -72.000
918.302;  -62.025; -152.000; -211.000
918.542;  -31.125;  -22.000;    3.000
918.782;   37.125;  369.000;  377.000
919.023;  130.825;  360.000;  427.000
919.263; 1820.625; 8131.000;  202.000
919.503; 1100.750; -137.000;  -54.000
919.743;  610.400;  390.000;  266.000
919.983;  238.500; -134.000;  -26.000
920.223;   94.075;  135.000;   14.000
920.463;  134.500;  631.000;  554.000
920.703;  136.050;   84.000;   39.000
920.943;  160.800; -110.000;   90.000
921.183;  246.475; -414.000; -405.000
921.423;  510.925;  307.000;  546.000
921.663;  742.025; -174.000; -257.000
921.903; 1628.975;  237.000;  173.000
922.143; 9135.150;  372.000;  389.000
922.383;34373.850;  158.000;  115.000
922.622;10960.350; -120.000;  -15.000
922.862; 1181.900;  796.000;  785.000
923.102;  458.400;  -51.000;   33.000
923.341;  178.425;   59.000;   74.000
923.581;   82.875;  450.000;  360.000
923.821;   18.800;  301.000;  398.000
924.060;   -4.000;  351.000;  193.000
924.300;  -66.925;  -16.000; -128.000
924.539;  -10.525;  584.000;  473.000
924.779;   12.150;  812.000;  597.000
925.018;  -46.250;  247.000;  353.000
925.257;   -6.250;  595.000;  666.000
925.497;  -35.700;  447.000;  412.000
925.736;  -71.275;  -35.000;  102.000
925.975;    7.975;  687.000;  669.000
926.214;   20.100;  907.000;  850.000
926.454;   37.500;  706.000;  757.000
926.693;  -44.050;  419.000;  543.000
926.932;   43.100; 1021.000;  825.000
927.171;   79.525; 1107.000; 1044.000
927.410;   74.400; 1144.000;  967.000
927.649;   15.750;  924.000;  742.000
927.888;   -4.800;  590.000;  564.000
928.127;   -7.925;  680.000;  678.000
928.366;   26.675;  842.000;  826.000
928.605;   36.800;  831.000;  737.000
928.844;  246.050; 1451.000; 1393.000
929.083;  609.475;  770.000;  613.000
929.321;  322.850; 1335.000; 1359.000
929.560;   81.275; 1158.000; 1122.000
929.799;  -25.100;  574.000;  475.000
930.038;   71.275; 1025.000; 1394.000
930.276;  -31.600;  334.000;  397.000
930.515;  -13.750;  827.000;  681.000
930.753;  -14.075;  614.000;  589.000
930.992;  -27.950;  664.000;  717.000
931.230;    9.000;  847.000;  847.000
931.469;  161.575; 2162.000;  892.000
931.707;   77.800;  840.000;  751.000
931.946;   49.500; 1278.000; 1344.000
932.184;   74.475; 1437.000; 1175.000
932.423;   46.050; 1265.000;  963.000
932.661;   97.875; 1296.000; 1428.000
932.899;    9.425;  987.000;  821.000
933.137;   13.600;  754.000;  564.000
933.376;  137.800; 1664.000; 1335.000
933.614;  163.050; 1759.000; 1196.000
933.852;   46.675; 1357.000; 1171.000
934.090;  148.050; 1722.000; 1747.000
934.328;  110.825; 1252.000; 1457.000
934.566;  102.425; 1431.000; 1110.000
934.804;  126.900; 1263.000; 1309.000
935.042;  483.200; 1861.000; 1850.000
935.280; 1922.500; 2088.000; 2063.000
935.518; 1728.350; 2113.000; 2007.000
935.756;  342.225; 2481.000; 2316.000
935.994;  158.575; 1808.000; 1751.000
936.231;  337.875; 2890.000; 2950.000
936.469;  190.675; 2367.000; 2378.000
936.707;  181.025; 2220.000; 2167.000
936.945;  236.775; 2825.000; 2882.000
937.182;  208.325; 2679.000; 2741.000
937.420;  298.825; 3602.000; 3031.000
937.657;  420.275; 3365.000; 3478.000
937.895;  367.250; 3331.000; 3488.000
938.133;  327.225; 3540.000; 3528.000
938.370;  354.375; 3896.000; 4191.000
938.607;  401.000; 4488.000; 4205.000
938.845;  544.900; 5587.000; 5549.000
939.082;  480.550; 5387.000; 5177.000
939.320;  561.125; 5799.000; 5728.000
939.557;  636.650; 6549.000; 6491.000
939.794;  736.725; 7285.000; 7097.000
940.031;  912.625; 8421.000; 8368.000
940.269; 1105.900; 9552.000; 9107.000
940.506; 1106.150;10901.000;10507.000

