
Integration time [ms]: 100.000
Averaging Nr. [scans]: 40
Smoothing Nr. [pixels]: 0
Data measured with spectrometer [name]: 2101013U2
Wave   ;Sample   ;Dark     ;Reference
[nm]   ;[counts] ;[counts] ;[counts] 

394.013;   72.921; -450.257; -315.536
394.305;  280.094; -461.258; -419.536
394.596; 1108.815; -676.269; -527.514
394.887; 2598.382; -796.268; -654.518
395.178;  981.563;  145.736;   11.476
395.470;   78.374; -210.263; -356.526
395.761;  233.697;  305.734;  394.479
396.052;  424.813; -545.284; -306.489
396.343;  436.034; -557.276; -454.503
396.634;  162.352; -200.279; -290.497
396.926;  173.179; -618.268; -565.517
397.217;  131.239;   11.725;  -17.504
397.508;   69.555; -366.273; -154.507
397.799;   75.827; -555.279; -571.497
398.090;   28.147; -973.280; -902.495
398.381;  148.163;   11.708;  -11.473
398.672;   17.839; -585.292; -742.473
398.963;   76.284; -348.279; -373.498
399.254;  142.773;   54.709; -209.475
399.545;   -8.632;-1017.266; -883.520
399.836;   89.923; -407.277; -343.501
400.127;   66.839; -205.295; -209.468
400.418;   67.799; -423.274; -392.506
400.709;   77.609; -359.281; -333.493
401.000;   85.877; -268.291; -309.476
401.290;  112.774;  225.698;  115.545
401.581;   84.596; -166.286; -228.485
401.872;   24.310; -542.298; -486.462
402.163;   72.231; -313.296; -252.467
402.454;  107.749; -123.291; -163.475
402.744;  111.297; -844.297; -813.465
403.035;  535.429; -226.293;  -86.471
403.326;  695.642; -366.292; -384.474
403.617;  433.755;  204.701;  165.539
403.907;  247.144; -593.283; -679.490
404.198; 2346.728; -545.307; -599.446
404.489; 6132.849; -618.283; -588.491
404.779; 2109.203; -618.302; -660.456
405.070;  264.731;  -67.304; -174.451
405.360;  340.231; -259.293; -238.472
405.651;  372.889;  125.699;   98.542
405.942;  213.066;  209.714;  127.516
406.232;  357.856; -432.285; -413.487
406.523;  562.798;  641.706;  758.530
406.813;  140.968; -579.286; -644.484
407.104;  417.886;  261.708;  144.527
407.394;  253.056; -604.299; -591.462
407.685;  186.305;  336.715;  222.513
407.975;   86.473; -400.283; -382.490
408.265;  140.138; -134.289; -190.478
408.556;   77.070; -472.291; -459.475
408.846;  172.399;  474.706;  429.530
409.137;   86.222;   -1.288; -216.480
409.427;   61.106; -193.285; -271.487
409.717;   46.433; -776.273; -692.508
410.007;  161.949;    4.715; -170.486
410.298;  120.116; -360.295; -342.469
410.588;   81.953; -495.285; -510.486
410.878;   48.408; -792.287; -873.482
411.168;  135.538; -481.298; -478.463
411.459;  131.067; -295.283; -242.489
411.749;   62.694; -609.292; -507.474
412.039;   71.720; -755.289; -386.480
412.329;  226.466;   40.722;  132.501
412.619;  224.669;  -62.286; -148.485
412.909;  383.591;  639.711;  594.521
413.199;  374.972; -130.280; -251.495
413.490;  456.581;  521.710;  352.523
413.780;  143.476;-1013.279; -913.496
414.070;  326.885;  -46.276;  235.497
414.360;  415.087; -729.278; -666.498
414.650;  448.504; -726.288; -688.482
414.940;  553.450; -538.280; -441.496
415.230;  922.076;   50.712;   74.519
415.520; 5964.239;  155.730;   66.486
415.809;23662.683; -305.281; -125.493
416.099;17926.500; -388.277; -229.501
416.389; 4909.322;  435.726;  236.494
416.679; 2870.678;   91.738;   85.473
416.969;  524.787; -527.287; -503.483
417.259;  490.003;  341.721;  171.503
417.549;  692.857;  522.718;  318.508
417.838; 1629.131; -205.268; -147.518
418.128; 5240.512;  650.710;  492.522
418.418; 4348.639; -491.272; -579.509
418.708; 2937.122;    9.726;  -48.506
418.997;11116.393; -474.275; -480.505
419.287;11421.104; -733.273; -790.507
419.577;10635.467; -160.283; -123.489
419.866;35688.148; -588.277; -498.501
420.156;36912.010; -242.270;  -55.513
420.446; 6524.495; -112.263;  -26.526
420.735;  955.104; -376.271; -446.512
421.025;  852.436; 1830.722;  315.502
421.314;  814.252; -203.271; -226.512
421.604; 1784.299;   89.732;  233.484
421.893; 1035.723; -705.271; -602.511
422.183;  243.070; -487.263; -461.526
422.472;  412.075;  -36.271; -107.511
422.762;  498.974; -416.266; -379.521
423.051;  267.635; -916.276; -916.503
423.341;  354.806; -491.273; -439.507
423.630;  450.780; -121.265;   15.477
423.919;  406.067;   58.725;   49.495
424.209;  371.601;  -31.263;   56.473
424.498;  481.079;   68.732;  161.483
424.787; 1086.485; -535.267; -601.518
425.077; 3337.204;   34.735;   29.478
425.366; 4993.431; -734.262; -744.528
425.655; 9471.806;  639.727;  259.493
425.945;19610.537; -313.247; -268.554
426.234;10695.529;  117.741;  300.467
426.523; 5017.335;  -86.259; -350.534
426.812; 6748.045;  107.734;  159.480
427.101; 9831.970; -127.269; -323.515
427.390;12591.214;  -55.270;  -86.514
427.680; 3120.804; -624.257; -411.538
427.969;  510.815; -330.255; -301.540
428.258;  353.296; -385.257; -477.536
428.547;  582.743;  449.728;  397.490
428.836; 1451.857; -421.253; -398.543
429.125; 2106.811; -199.259;  -72.534
429.414;  877.905; -330.251; -294.548
429.703; 3049.280; -231.251; -213.548
429.992; 9025.333; -938.250; -828.549
430.281; 5821.388; -397.264; -331.524
430.570;  616.470;  -21.252;   32.454
430.859;  680.884;  279.741;  352.466
431.148;  502.758;  636.752;  631.446
431.437;  321.444;  391.748;  367.454
431.725;  183.272; -544.257; -481.536
432.014;  138.889; -845.253; -756.545
432.303;  431.959; -149.239; -105.569
432.592;  714.945; -460.263; -178.525
432.881; 1063.959; -601.248; -437.554
433.169; 5847.616; -343.255;  -61.540
433.458;11927.093;  445.765;  540.424
433.747; 5051.112; -397.261; -289.529
434.036;  974.085; -275.242; -280.564
434.324; 2070.371; -395.249; -379.551
434.613; 3527.728;   40.757;  159.437
434.902; 1228.949;  333.760;  439.433
435.190;  751.608;   75.761;  295.431
435.479;  420.010;  -52.245;   83.441
435.767;  142.668; -411.244; -427.561
436.056;  272.805; -340.242; -294.563
436.345;  388.526; -372.240; -223.568
436.633;  408.941;   60.750;  383.450
436.922;  332.329;  208.760;  414.432
437.210;  806.933; -194.236;    1.426
437.499; 2632.441; -583.235; -432.576
437.787; 2835.533; -339.236;  -10.574
438.075;  667.063;   56.761;  162.430
438.364;  961.816;  -44.238;  250.429
438.652;  595.897; -286.226; -138.592
438.941;  166.835;    3.770;  269.415
439.229;   39.792; -665.252; -466.545
439.517;   44.575; -160.234;  -85.577
439.806;   21.363; -501.225; -290.595
440.094;  212.557;  377.766;  650.421
440.382;  254.336; -653.233; -302.580
440.670;  269.016; -361.235; -285.576
440.959;   55.980; -347.223; -170.599
441.247;  101.722; -151.229; -109.587
441.535;  137.673; -266.235;   31.423
441.823;   72.930; -497.234; -305.578
442.111;  211.426;  173.771;  327.412
442.400;  631.509; -628.245; -335.559
442.688; 1833.057; -111.234; -620.579
442.976; 1365.694; -786.213; -450.617
443.264;  146.219; -324.224; -364.597
443.552;  130.173; -258.226;   51.408
443.840;  198.547;  602.765;  876.423
444.128;  118.810;  265.767;  269.420
444.416;    0.879; -694.228; -312.588
444.704;   29.560; -465.219;  -92.605
444.992;   96.826;   -0.226;  240.407
445.280;   63.611; -517.230;  -94.585
445.568;   79.422; -694.212; -396.618
445.856;  412.544; -174.221;  357.398
446.143; 1021.981;  -54.220;   -7.604
446.431;  795.132;  -25.228;  625.411
446.719;  284.679;  489.783;  675.391
447.007;  206.705;  481.769;  705.416
447.295;  186.602;  597.777;  871.402
447.583;  112.420; -464.229;  -34.587
447.870;  191.391; -434.221; -202.601
448.158;  495.860; -104.230;  129.415
448.446;  408.507; -800.219; -338.604
448.733;  186.146;   13.776;  269.403
449.021;  297.097;   60.788;  341.382
449.309;  195.712; -296.210;  208.379
449.596;  236.951;  128.783;   59.392
449.884;  176.634; -571.222; -325.600
450.172;  157.838; -756.227; -406.590
450.459;  418.977;  645.786;  780.387
450.747; 2212.749; -411.218; -147.608
451.034; 7083.359;  493.772;  889.411
451.322; 5689.505; -413.214; -170.614
451.609;  480.222;  292.777;  508.403
451.897;  578.701; -550.203; -183.634
452.184; 1707.302; -622.223; -400.598
452.472; 1603.384;   97.792;  269.375
452.759;  344.908;  512.781;  864.395
453.047;  155.019; -407.212; -125.617
453.334;  119.641; -732.219; -216.606
453.621;  124.932; -438.214; -161.615
453.909;  131.942;   13.796;  384.368
454.196;  137.038; -299.199; -123.641
454.483;  247.289;  317.798;  540.364
454.771;  162.362; -215.208;  196.374
455.058;   49.640; -316.207;  102.374
455.345;  114.519;   71.807;  344.347
455.632;   95.993; -128.207;  235.373
455.919;   45.111;  -82.196;  182.354
456.207;  -52.482; -774.198; -450.642
456.494;   16.701; -475.200;  -66.639
456.781;   14.709; -399.202; -198.635
457.068;   70.200; -253.206;  -29.628
457.355;    2.301; -698.206; -401.629
457.642;   -3.593; -552.205; -290.630
457.929;   22.510; -778.194; -417.651
458.216;   80.245; -575.212; -354.617
458.503;  217.765; -173.193;  -19.652
458.790;  212.434; -864.208; -630.625
459.077;  276.164;  -77.202;  110.364
459.364;  753.403; -350.195; -210.649
459.651; 1613.173;  -46.206;  220.372
459.938;  727.625; -864.209; -665.623
460.225;  177.568;  132.799;  276.363
460.512;  -30.617; -836.197; -688.645
460.799;  121.973;  -32.218;  320.392
461.086;  109.630; -370.200; -251.640
461.372;   62.618; -509.198; -279.642
461.659;  156.662; -165.196;  108.354
461.946;   96.113; -445.193;  -54.651
462.233;  260.203;  842.800;  888.361
462.519;  353.275; -814.201; -464.639
462.806; 1004.759; -768.197; -497.645
463.093;  834.959; -445.191;  -66.656
463.380;   -2.799; -920.186; -824.664
463.666;   57.160; -259.197;  -18.646
463.953;  101.298; -406.195; -243.648
464.239;  203.773; -173.195;  -77.648
464.526;  414.283;  413.806;  743.350
464.813;  371.021; -565.190; -304.658
465.099;  390.139;  606.807;  607.348
465.386;  352.618;  903.807;  921.348
465.672;   65.509; -694.197; -522.645
465.959;   43.114; -598.188; -520.662
466.245;   27.768; -468.193; -359.652
466.532;  114.645; -109.195;   63.352
466.818;   97.325; -357.186; -216.664
467.104;   19.766; -488.182; -415.672
467.391;    4.523; -628.189; -459.658
467.677;   37.004; -289.186;    9.335
467.964;   27.029; -682.189; -471.660
468.250;   82.682; -331.186; -160.665
468.536;   90.224;   90.811;  180.341
468.822;  -19.681; -821.184; -574.668
469.109;  147.597;  351.827;  471.311
469.395;  194.578;  729.808;  787.346
469.681;  199.827;   46.811;  156.341
469.967; 1205.582; -699.188; -382.660
470.254; 2622.415; -494.188; -306.662
470.540; 1610.811; -601.196; -476.646
470.826;  239.552; -488.181; -397.675
471.112;  284.647;  288.816;  113.331
471.398;  103.927; -253.183;  -58.670
471.684;   51.406; -626.177; -447.680
471.970;   14.606; -918.180; -981.675
472.256;   28.427; -521.192; -441.654
472.542;   25.033; -499.171; -434.691
472.828;   15.662; -743.182; -607.672
473.114;   40.527; -380.166; -283.700
473.400;   16.597; -504.175; -293.684
473.686;   58.309; -452.166; -400.701
473.972;   64.287; -230.174; -131.687
474.258;  -40.803; -925.173; -843.689
474.544;  170.597; -183.178;   -2.679
474.830;  292.549;  -65.175;   45.316
475.116;  431.722; -123.190; -196.658
475.401;  630.858; -558.180; -467.676
475.687;  194.532; -725.180; -718.676
475.973;   20.195; -673.181; -770.673
476.259;  258.226;  736.825;  764.315
476.544;  365.139; -539.176; -437.682
476.830;  741.079; -398.172; -322.690
477.116;  623.437; -430.177; -336.682
477.401;  131.508;  346.820;  358.324
477.687;  -14.202; -289.175; -405.684
477.973;   32.923;   21.819;   28.326
478.258;   -1.321; -448.163; -348.706
478.544;   54.887;   21.815;   61.334
478.829;  -45.786; -818.171; -738.692
479.115;  -28.046; -749.172; -651.690
479.401;   -6.467; -444.174; -449.686
479.686;   44.407; -253.180;  -74.676
479.972;  -22.122; -886.178; -776.680
480.257;   45.154; -258.166;  -65.700
480.542;   -4.532; -614.170; -469.693
480.828;  237.996; 1288.824; 1392.317
481.113;  -26.131; -464.176; -426.683
481.399;    3.953; -236.161; -202.711
481.684;  -35.997; -620.166; -462.700
481.969;   21.867; -158.159;  -73.713
482.255;   15.004; -439.169; -285.695
482.540;   -0.497; -569.178; -441.680
482.825;    8.921; -395.187; -404.663
483.110;   74.157;  -85.169; -105.696
483.396;  168.239; -840.157; -652.718
483.681;  441.762;  543.826;  730.313
483.966;  117.236; -696.160; -700.712
484.251;    7.436; -404.174; -310.687
484.536;   -1.136; -356.165; -378.703
484.822;   20.739; -205.173; -218.687
485.107;  -28.898; -599.152; -502.726
485.392;  114.995;  662.836;  541.296
485.677;   85.917;  354.832;  163.302
485.962;  100.386;  160.843;  270.283
486.247;   87.437;  -14.162;   -8.707
486.532;   43.980; -178.166; -325.701
486.817;  162.448;  381.839;  431.291
487.102;  119.735; -453.154; -514.722
487.387;  598.216; -637.156; -652.718
487.672; 1048.600; -154.164;  -38.705
487.957;  633.755; -394.160; -286.711
488.241;  190.769; -290.150; -314.729
488.526;  662.229; -280.152; -148.726
488.811; 1084.480; -881.177; -818.680
489.096;  804.238; -666.154; -702.723
489.381;  469.400;    3.847;  162.275
489.666;  342.078; -428.161; -510.710
489.950;  163.366;  558.846;  627.277
490.235;  -23.086; -480.151; -458.728
490.520;  -39.723; -756.161; -723.710
490.804;  -41.607; -827.156; -736.719
491.089;   -5.990; -469.149; -299.732
491.374;   24.624; -132.164;  -75.704
491.658;    2.321; -817.147; -717.735
491.943;  192.383; -657.152; -609.727
492.227;  275.906; -178.155;  -38.721
492.512;   74.736; -294.157; -341.717
492.797;  -79.971; -713.149; -716.731
493.081;  -36.001; -588.147; -598.735
493.366;  -29.146; -751.161; -635.711
493.650;  195.953;  831.859;  917.254
493.935;   21.171; -648.147; -447.734
494.219;  -23.935; -778.142; -687.743
494.503;  -45.076; -585.150; -487.730
494.788;   36.677;   46.842;   74.285
495.072;   89.345;  184.850;  434.271
495.356;  166.988; -463.148; -343.733
495.641;  472.131; -812.146; -736.736
495.925;  466.523; -976.156; -903.719
496.209;   43.659; -599.149; -451.732
496.494;  -30.109; -763.142; -544.744
496.778;    3.985; -364.154; -360.722
497.062;  -52.578; -819.156; -627.719
497.346;  -48.193; -869.160; -640.711
497.631;  133.267;  580.852;  560.266
497.915;   69.116;  -64.145;  175.261
498.199;   63.564; -341.157; -277.718
498.483;   47.102; -562.152; -508.725
498.767;  173.021;  301.850;  300.271
499.051;  163.507; -126.149; -100.732
499.335;   24.755; -693.149; -739.731
499.619;  -48.195; -381.129; -423.767
499.903;   39.629; -272.155;  -65.721
500.187;   43.667; -588.153; -316.724
500.471;   40.707; -796.152; -595.727
500.755;  112.477;   62.839;  -96.710
501.039;   30.330; -270.155; -357.721
501.323;   95.705;  -21.141;  264.254
501.607;   55.455; -447.163; -503.706
501.891;   16.415; -607.156; -512.718
502.174;  -17.397; -726.144; -585.741
502.458;   71.786;   89.849;  370.273
502.742;   44.804; -180.138; -191.751
503.026;   92.145; -412.147; -254.734
503.310;  144.666; -437.159; -375.713
503.593;  105.572; -464.147; -325.735
503.877;  120.694; -232.133; -156.760
504.161;  194.395;    2.847;  -50.724
504.444;  153.580; -841.158; -710.716
504.728;  403.273; -487.164; -522.704
505.012;  656.718; -257.150;  -76.729
505.295;  491.003; -417.161; -212.711
505.579;  483.747; -256.156; -496.719
505.862;  673.563; -555.145; -333.738
506.146;  672.118; -681.159; -758.714
506.429;  373.194;  568.841;  461.286
506.713;   75.065; -732.151; -667.728
506.996;  286.735;   90.846;  295.278
507.280;  310.318; -633.165; -474.703
507.563;  214.628; -469.155; -261.721
507.847;   89.343; -423.153; -112.724
508.130;   78.879; -665.161; -456.711
508.413;  104.499; -758.167; -577.700
508.697;  218.150; -151.167;   12.300
508.980;  139.270; -422.153; -312.724
509.263;   -6.601; -466.155; -450.720
509.547;   39.318; -124.150;   82.271
509.830;   52.031; -172.160;  140.289
510.113;   88.147;  128.844;  298.281
510.396;   43.625; -530.152; -300.725
510.680;  237.214; -818.145; -812.738
510.963;  829.589;  184.846;  180.277
511.246;  729.426; -493.150; -357.730
511.529;  279.769; -482.145;  -83.739
511.812;  346.266; -250.134;   10.241
512.095;  224.913; -740.151; -396.728
512.378;   74.201; -317.147; -245.736
512.661;   20.911; -703.137; -623.753
512.944;   24.842; -750.142; -637.744
513.227;   51.609; -170.137; -171.752
513.510;   32.403; -479.144; -671.741
513.793;   53.009; -485.140; -435.747
514.076;  145.676;  -43.127;  -39.771
514.359;  114.210; -294.149; -135.732
514.642;   84.620; -442.142; -567.744
514.925;  668.732;  581.860;  561.253
515.208;  885.837; -498.134; -443.758
515.491;  574.876; -276.133; -182.761
515.773;  337.206; -410.143; -337.742
516.056; 1868.168;  249.864;  409.246
516.339; 2604.597; -754.136; -652.755
516.622; 2013.998; -518.150; -488.730
516.904; 1541.988;  882.857;  975.257
517.187;  737.107; -730.138; -523.752
517.470;  416.462; -568.143; -510.743
517.752;  398.600; -624.136; -470.756
518.035;  321.720; -708.139; -725.749
518.318;  324.097; -799.136; -744.755
518.600; 2123.580; -300.132; -325.762
518.883; 3007.219;  310.858;   88.256
519.165; 1424.025; -585.138; -426.751
519.448;  417.404;  -61.132;  -19.762
519.730;  238.083; -573.126; -415.773
520.013;  342.422;  588.867;  664.240
520.295; 1082.792;  -94.134;  -15.759
520.578; 2412.492; -335.131; -305.764
520.860; 2624.604; -254.132;   56.238
521.143; 1324.127; -763.135; -584.756
521.425;  493.846; -251.125; -279.775
521.707;  634.751; -622.127; -380.771
521.990; 1603.427; -199.127;  167.229
522.272; 1824.061; -116.140;   -4.748
522.554;  874.982; -237.143; -157.742
522.836;  439.065;  -24.134;   99.241
523.119;  261.669; -496.148; -189.734
523.401;  152.924; -448.130; -314.766
523.683;  105.987; -865.137; -693.753
523.965;  250.480;  408.862;  260.248
524.247;  251.993;   54.878;  170.220
524.529;  190.742; -451.134; -367.759
524.812;  332.651;   -3.130;  191.234
525.094;  766.804; -773.138; -631.751
525.376; 1230.155; -143.124;   78.223
525.658;  745.369; -441.136; -339.754
525.940;   28.064; -805.131; -671.764
526.222;   63.898; -188.136;  -88.755
526.504;  152.787; -190.131;   32.237
526.786;  262.920; -960.133; -647.760
527.068;  398.486; -124.123;  -67.778
527.349;  191.591; -865.137; -774.754
527.631;  146.279; -137.132;   22.238
527.913;  126.475; -664.127; -450.771
528.195;  147.164; -761.125; -639.774
528.477;  228.062;  -93.134;  -30.758
528.759;  116.626; -648.130; -522.766
529.040;   51.210; -569.123; -293.778
529.322;   61.217; -235.125;  -10.774
529.604;  167.378;  -47.130;   93.233
529.886;  163.633; -546.126; -302.773
530.167;  128.270;  232.870;  192.235
530.449;   42.951;    1.853;   63.265
530.731;   19.792; -572.122; -459.779
531.012;   43.888; -513.120; -216.784
531.294;   63.277; -118.116;  -43.792
531.575;  149.771;  290.875;  538.225
531.857;   44.132; -548.135; -266.757
532.138;  104.703; -113.141;   40.254
532.420;  170.953;  294.865;  403.244
532.701;  282.947; -722.133; -751.760
532.983;  406.300;  232.867;  182.239
533.264;  153.006; -243.126;  175.228
533.546;  -40.053; -491.136; -508.755
533.827;   71.169;  173.867;   -1.759
534.109;   60.682; -352.135;  -80.757
534.390;  116.108; -725.132; -582.762
534.671;  259.003; -270.135;  -82.756
534.953;  138.538; -751.123; -611.779
535.234;   20.337; -426.117; -255.789
535.515;  -70.029; -891.119; -735.785
535.796;  -28.479; -431.128; -193.770
536.078;  -93.895;-1050.124; -904.777
536.359;   11.713;  -22.123;    3.221
536.640;   -6.884; -480.125; -197.774
536.921;  156.234;  225.871;  143.232
537.202;  349.651;  -87.138;  -16.751
537.483;  411.592;  251.869;  377.236
537.764;  155.845;   17.870;   98.235
538.045;  -34.664; -543.134; -371.758
538.326;  -25.140; -596.129; -447.768
538.607;   12.602; -686.127; -476.771
538.888;  164.329;   98.879;    5.218
539.169;  163.648; -704.122; -535.781
539.450;  339.633;  236.871;   16.233
539.731;  216.958; -361.121; -182.783
540.012;  140.463;  199.880;  412.216
540.293;   89.950;   82.876;  158.224
540.574;   26.223; -895.113; -717.796
540.855;  473.381;  435.879;  377.218
541.136;  535.421;   47.878;  139.220
541.416;  262.402; -161.130; -220.766
541.697;  185.312; -274.131; -170.763
541.978;  952.530; -270.135; -315.757
542.259; 1202.802; -211.127; -236.771
542.539;  555.996; -191.116; -186.790
542.820;  180.921;  461.875;  480.225
543.101;  139.441;  -52.145;  -77.738
543.381;   66.002; -638.127; -591.771
543.662;  233.899;  159.873; -254.771
543.942;  525.597; -751.127; -830.770
544.223;  962.022;  193.878;  161.219
544.504;  624.055; -275.124; -182.777
544.784;  520.208; -592.126; -408.773
545.065; 1548.250;  104.884; -254.791
545.345; 1817.671;  227.881;   14.215
545.626; 1152.047;  -14.113; -108.796
545.906;  802.770;   77.869;   98.235
546.186;  326.388;   92.874;  -95.773
546.467;  157.782;   99.877;  -95.778
546.747;  306.921;  264.884;  327.210
547.027;  334.178;   91.876;  111.223
547.308;  310.772; -376.127; -530.770
547.588;  361.836;  299.871;  371.232
547.868;  184.871;  458.870;  588.235
548.149;  183.257;  609.885;  593.207
548.429;  121.650; -347.127; -299.771
548.709;  166.487; -645.120; -461.784
548.989;  430.256;   84.882;   88.213
549.269; 1840.928;   10.868;  139.239
549.550; 4333.212;  215.877;  117.222
549.830; 3854.265; -758.111; -556.799
550.110;  747.723; -468.110; -320.801
550.390;  735.442; -128.122;  -56.779
550.670; 1029.618; -868.114; -783.795
550.950;  718.481; -509.121; -471.782
551.230;  171.552;  549.879;  460.218
551.510;   -0.995; -381.121; -326.782
551.790;   37.606; -173.109; -127.803
552.070;  228.807;  940.877; 1181.223
552.350;  352.475; -492.119; -377.786
552.630;  514.250;   -2.121;   77.219
552.909;  280.250;  181.884;   73.209
553.189;  201.959;  -49.132;   33.237
553.469;  163.875; -703.119; -514.786
553.749;  170.003; -469.127; -357.772
554.029;  130.916;   33.883;  -24.790
554.308;  118.711; -154.115;  -37.794
554.588;   65.920; -196.128; -204.770
554.868;   31.807; -366.121;  -47.782
555.147;  127.109; -114.115;  -46.793
555.427;  508.153; -260.116; -250.792
555.707; 3434.881; -284.115; -200.793
555.986; 4216.919; -719.111; -538.800
556.266; 2187.619;   23.884;   72.210
556.546;   92.605; -888.121; -675.782
556.825;  212.366; -657.114; -556.794
557.105; 1579.568; -125.128;   17.230
557.384; 1893.674;  122.884;  187.209
557.664;  672.077; -717.116; -508.792
557.943;  114.306; -557.121; -411.782
558.222;  149.984; -345.118; -344.788
558.502;  265.885; -116.115;  -76.793
558.781;  438.880;  194.885;  499.208
559.061;  358.884; -232.118; -227.788
559.340;  251.214;  302.883;  353.211
559.619;  623.919;   93.884;  148.210
559.899;  905.816; -239.117; -266.789
560.178;  816.009; -778.115; -593.793
560.457; 2732.467; -623.117; -562.790
560.736; 3937.195; -472.111; -482.800
561.015; 2568.741; -500.128; -502.769
561.295;  359.851;  180.893;  215.193
561.574;  315.207;  119.885;  116.207
561.853;  474.710;  274.891;  303.197
562.132;  427.962;  -45.114;  182.206
562.411;  386.750;  396.879;  553.219
562.690;  109.755; -592.115; -458.792
562.969;  138.329;  472.888;  630.203
563.248;  454.773; 2966.878; 2487.219
563.527;  244.144; -290.111; -408.800
563.806;  321.200; -650.127; -521.771
564.085;  352.691; -297.105; -206.810
564.364;  213.594; -594.117; -405.790
564.643;  439.076; -276.121; -223.781
564.922; 1669.454;  221.890;  397.198
565.201; 1678.883; -640.109; -700.803
565.479;  692.679; -297.115; -219.792
565.758;  288.168; -810.128; -712.770
566.037;  447.209; -155.109; -100.803
566.316;  217.199; -286.116;  -28.791
566.595;   36.232;  -17.115;  -12.793
566.873;   89.746; -166.111;  -79.801
567.152;  -67.146; -490.113; -590.797
567.431;   -1.430; -113.116;    6.210
567.709;    5.201; -344.107; -212.807
567.988;  235.441; -810.114; -769.794
568.266;  475.957; -160.115;  -68.793
568.545;  349.863; -644.100; -514.819
568.824;  501.678;  160.885;  356.208
569.102;  477.990; -351.114; -235.794
569.381;  180.052; -492.116; -407.792
569.659;  -38.400; -553.113; -553.796
569.938;   16.221; -743.122; -465.780
570.216;   89.261; -225.109; -225.804
570.494;  -33.206; -632.114; -572.795
570.773;   36.454;  202.879;  114.218
571.051;  -17.340; -373.123; -357.778
571.330;   50.623; -221.113; -174.796
571.608;   27.731; -181.098; -173.823
571.886;  -55.362; -671.111; -581.799
572.164;  -88.543; -739.121; -621.782
572.443;  -38.905; -562.105; -512.811
572.721;  -39.433; -399.117; -289.790
572.999;  -17.389; -280.117; -168.788
573.277;   81.888;  379.894;  620.191
573.555;  240.515;   94.894;   37.190
573.834; 1168.386;  -86.117; -114.788
574.112; 1380.403;  880.893;  811.193
574.390;  393.145; -143.111;  -96.801
574.668;    2.655;  -91.112;  -61.797
574.946;  -17.484; -165.106; -187.810
575.224;    3.407;   71.891;  -16.803
575.502;  -19.503; -200.116; -204.791
575.780;  -84.444; -767.112; -829.798
576.058;  208.619; 1589.889; 1004.200
576.336;  -16.175; -210.110; -129.801
576.614;  -48.744; -511.112; -340.798
576.891;   28.661; -711.115; -823.794
577.169;  413.169; -158.108; -285.805
577.447;  510.878;  169.893;  202.193
577.725;  243.386;  629.888;  854.201
578.003;   12.734;  -71.112; -371.798
578.280;   80.929; -208.104; -242.812
578.558;   74.760; -450.115; -422.793
578.836;  117.918; -210.114; -145.795
579.114;   74.480; -630.112; -670.797
579.391;   84.712;   -6.117;  -18.789
579.669;  -59.763; -595.114; -704.794
579.947;  147.275; -326.107; -127.806
580.224;  279.974; -692.107; -524.806
580.502;  275.379;  127.893;   76.193
580.779;   33.493;  -42.117;   75.210
581.057;  -77.113; -584.109; -470.804
581.334;  -90.906; -726.102; -695.815
581.612;   28.691;   54.895;  511.190
581.889;  -23.493;  -83.101; -129.818
582.167;  -32.854; -298.099; -190.821
582.444;  -97.623; -845.102; -814.817
582.721;   90.552;  657.899;  715.183
582.999;   43.144; -326.100; -167.821
583.276;  438.440; -812.123; -713.779
583.553;  615.372; -364.102; -294.816
583.831;  180.625; -607.104; -631.812
584.108;   36.042;  349.892;  174.195
584.385;   -3.532; -122.102;  -98.815
584.662;  -61.628; -651.111; -828.801
584.940;   33.021;  204.889;  204.199
585.217;   -9.075;  -73.113; -303.796
585.494;   23.305;   71.890;  118.198
585.771;  173.912; -250.109; -354.804
586.048;  438.050; -196.113;  -76.796
586.325;  279.399; -721.110; -773.801
586.602;   72.754;  230.896;  213.188
586.879;  -13.285; -499.100; -580.820
587.156;   46.042; -156.105; -331.810
587.433;  -32.825; -701.102; -667.817
587.710;   42.207;  152.888;  234.202
587.987;  257.022; -264.105; -236.811
588.264;  736.934;  315.888;  387.202
588.541; 1228.482;  -61.104;   26.187
588.818; 2474.190;   72.892;  171.196
589.095; 2118.177; -163.104; -174.812
589.371;  330.385; -459.109; -414.804
589.648;    4.078; -581.107; -437.807
589.925;   13.219; -517.114; -621.795
590.202;   -0.468; -741.112; -607.798
590.478;   79.924; -166.105;  -73.811
590.755;  224.746; -241.108; -132.806
591.032; 2159.376; -741.110; -699.802
591.308; 3052.622; -732.094; -790.831
591.585; 1555.051; -573.110; -560.802
591.862;  114.976;-1056.102; -950.817
592.138;   52.918; -475.108; -474.805
592.415;  109.230; -486.104; -495.813
592.691; 1309.028;  460.896;  518.188
592.968; 1731.533; -208.098; -123.824
593.244;  812.821; -695.116; -595.790
593.521;   54.851; -105.102;  -42.817
593.797;  -34.632; -810.122; -720.780
594.074;  284.671; -611.096; -588.826
594.350;  595.107;  828.905;  729.172
594.626;  268.172; -303.111; -283.801
594.903;   92.802; -643.101; -645.817
595.179;  157.059;  243.896;  418.187
595.455;   -1.945; -136.107; -150.807
595.731;    4.560;  -19.103;  -38.814
596.008;  -28.959; -464.111; -434.800
596.284;   29.543; -187.100; -242.820
596.560;   45.603; -501.093; -493.833
596.836;  180.894; -173.105;  -70.810
597.112;  286.169; -582.108; -437.805
597.388;  250.394;  -49.097;  -48.826
597.665;  108.727;  437.887;  530.203
597.941;  -59.367; -572.089; -658.839
598.217;    4.704; -323.110; -293.802
598.493;  231.614;   61.891; -204.804
598.769;  471.987; -175.100;  -50.819
599.045;  269.222; -490.108; -562.806
599.321;   43.117; -193.100; -261.820
599.597;  117.488; -355.109; -476.804
599.872;  430.032;  409.896;  429.187
600.148;  332.020;  -61.097; -172.826
600.424;  265.102;   91.893;  202.193
600.700;  213.754; -170.107; -280.807
600.976;   94.065; -442.097; -464.825
601.252;  207.210; -226.109; -272.803
601.527;  188.933; -833.104; -840.813
601.803;  139.250; -453.105; -404.812
602.079;  153.812; -124.100; -118.819
602.354;  492.313; -620.092; -531.835
602.630;  741.350; -140.113; -482.796
602.906; 1976.257; -910.101; -863.818
603.181; 6003.450; -627.119; -534.786
603.457; 5070.018;   98.903; -278.826
603.733;  711.784; -605.120; -626.783
604.008;  833.016; -245.106; -164.810
604.284; 2771.828; -636.101; -580.817
604.559; 2412.461;   -3.112;  -42.799
604.835;  427.419; -163.105; -225.810
605.110;  378.322; -732.099; -892.821
605.385;  618.806;  224.907;  267.167
605.661;  557.985; -625.095; -729.829
605.936; 1033.822; -664.108; -737.806
606.211;  840.967;  -17.103; -170.815
606.487;  156.239; -329.114; -376.794
606.762;    9.800; -791.119; -745.786
607.037;  -21.981; -501.105; -433.810
607.313;  -52.572; -589.096; -574.828
607.588;   -3.784; -375.106; -137.810
607.863;   32.957;  -28.101; -143.818
608.138;  146.053;  513.890;  516.198
608.413;   13.951; -576.099; -592.822
608.688;   17.219; -203.108; -267.805
608.964;  183.910; -509.106; -218.809
609.239;  203.591; -107.105; -212.810
609.514;  230.899;  281.895;  240.188
609.789;  575.729; -187.104; -716.812
610.064;  784.052; -435.096; -609.827
610.339;  745.685; -855.109; -799.804
610.614; 1032.767; -131.100; -315.820
610.889;  558.575;  215.895;  107.188
611.163;   23.850; -407.104; -591.812
611.438;   53.615;   81.886; -167.794
611.713;    2.928; -467.101; -499.817
611.988;   34.831; -144.101; -328.818
612.263;  -24.406; -771.102; -717.815
612.538;  185.124;  385.887;  251.204
612.812;  139.293; -832.100; -911.820
613.087;  104.856; -358.098; -338.823
613.362;  -60.071; -497.107; -557.807
613.637;   47.488;  261.897;  138.186
613.911;  -12.661; -256.092; -345.835
614.186;   95.253; -249.107; -292.807
614.460;  565.658; -842.081; -758.854
614.735;  668.356;  -55.087;  -17.843
615.010;  123.196;   43.912;  -82.841
615.284;  214.093;  360.892;  246.195
615.559;  351.837; -792.092; -955.835
615.833;  259.374;  -76.099;  -87.822
616.108;   -2.176; -225.090; -390.837
616.382;  123.058;  274.913;  402.156
616.656;  137.550; -241.090; -232.837
616.931;  430.524; -785.099; -700.822
617.205;  952.858; -973.104; -979.813
617.480;  852.019;  -91.125;    6.225
617.754;  139.617; -396.125; -128.774
618.028;   -9.188; -369.129; -382.768
618.302;   54.067;   73.892;  -25.805
618.577;  -50.761; -371.103; -518.815
618.851;  -69.218; -399.109; -600.803
619.125;  -67.608; -335.134; -378.759
619.399;  -32.167; -244.104; -374.813
619.673;  -47.897; -330.115; -515.792
619.947;  -50.582; -333.114; -448.795
620.222;  -24.602; -198.110; -204.801
620.496;   -6.394;  -47.121;  -96.782
620.770;   10.498; -187.122;  -93.781
621.044;  192.592;  323.895;  346.190
621.318;  654.659; -653.120; -614.783
621.592;  584.107; -430.121; -409.783
621.866;  293.037; -476.112; -572.799
622.140;   20.797; -207.116; -356.791
622.413;   38.141;  138.889;  112.200
622.687;  -37.196; -746.101; -492.817
622.961;    3.267; -130.108; -143.805
623.235;  -62.633; -633.111; -661.800
623.509; -110.951; -816.105; -848.811
623.783;    2.925;  -12.107;   48.193
624.056;  -27.140; -254.120; -280.783
624.330;   48.355;   63.888;   -3.797
624.604;   17.294; -271.116; -355.790
624.877;   56.577;  180.890;   26.198
625.151;   18.038; -249.114; -238.794
625.425;  -41.065; -150.103; -283.814
625.698;  -63.980; -367.119; -374.785
625.972;  -91.420; -799.110; -765.802
626.245;   63.846;  685.884;  484.210
626.519;  -55.161; -426.120; -340.784
626.792;  -42.746; -192.107; -380.807
627.066;  -80.834; -485.122; -662.779
627.339; -103.325; -736.110; -663.802
627.613;   37.838;  351.880;  148.216
627.886;   40.431;  187.891; -612.803
628.160;  -10.716;  312.880; -161.783
628.433;  -97.203; -695.125; -703.775
628.706;  -79.336; -517.120; -615.784
628.979;    6.303;  296.876;  117.223
629.253;  -86.676; -785.119; -833.786
629.526;  284.256; -334.126; -253.772
629.799;  290.211; -641.123; -479.778
630.072;  131.988; -497.128; -516.769
630.346;  -77.854;-1115.116;-1080.790
630.619;  387.505; -467.107; -545.808
630.892;  529.292;  709.889;  593.200
631.165;  307.833;  790.896;  679.187
631.438;  -73.916;-1092.112;-1055.798
631.711;   44.439;  453.877;  257.221
631.984;  -74.134; -523.117; -624.789
632.257;  -62.163; -636.117; -681.789
632.530;  -72.180; -412.119; -433.785
632.803;   15.486; -109.115;    7.207
633.076;  -63.168; -360.123; -422.777
633.349;   -3.082;  173.872;  121.231
633.622;  -41.106; -187.119; -240.785
633.895; -140.965; -903.120; -823.783
634.167;  -75.917; -496.126; -525.773
634.440;  -16.723;  -19.116; -137.792
634.713;  -17.877;  -22.119; -120.786
634.986;   82.257;  593.871;  453.233
635.258;  -63.391; -507.115; -597.793
635.531;   82.258;  742.882; -343.788
635.804;  -26.435; -303.117; -318.789
636.077; -104.527; -830.116; -852.791
636.349;    1.282; -586.115; -474.793
636.622;  361.531; 1695.874; 1392.228
636.894;  197.340; -474.120; -909.784
637.167;  120.500; -836.127; -789.771
637.439;   27.596; -278.128; -213.770
637.712;  -45.918; -312.126; -293.772
637.984;  -86.626; -635.116; -707.791
638.257;  340.658;  515.877;  488.222
638.529;  526.048; -881.125; -924.776
638.802;  217.863; -508.128; -449.769
639.074; -107.628; -927.122; -952.781
639.346; -106.216; -942.135; -930.757
639.619;    3.793;  -79.142; -319.744
639.891;    4.391;  -83.122; -168.779
640.163;  -82.432; -689.122; -756.780
640.435;   18.070;  273.878;  103.220
640.708;   -0.004;  -72.122; -132.780
640.980;  -31.827; -366.122; -362.781
641.252;  161.450;  -25.121;  -71.781
641.524; 1693.802;  580.879;  573.219
641.796; 1754.079;-1094.121; -907.782
642.068;  309.106; -191.121; -300.782
642.340;  -56.818; -486.121; -566.783
642.613;   28.984;  294.880;  323.217
642.885;  -95.914; -787.120; -878.783
643.157;  -65.437; -810.120; -658.784
643.428;   55.415;  170.880;  218.216
643.700;  -78.358; -498.120; -425.784
643.972;  -40.082;  -16.119; -133.785
644.244;  -98.580; -474.119; -559.785
644.516;  -48.553; -250.119; -114.786
644.788;   65.649;  662.881;  548.214
645.060;  -22.549;  -12.119; -124.786
645.332; -106.172; -525.118; -535.787
645.603;   39.854;  479.882;  342.213
645.875;  -74.369; -334.118; -369.787
646.147;  156.983; 1487.882; 1242.212
646.418;  -85.640; -931.117; -918.788
646.690;   97.362; -714.117; -715.789
646.962;   14.064; -413.117; -451.789
647.233;  -14.809;   15.883;   11.211
647.505;  -94.933; -595.117; -475.790
647.776;   24.619;  328.884;  229.210
648.048;  -12.429; -248.116; -418.790
648.320;  -76.602; -752.116; -679.791
648.591; -164.775;-1055.116; -958.791
648.862;  -89.998; -505.116; -577.792
649.134;    0.053;  115.885;  198.208
649.405;  -47.995; -661.115; -618.792
649.677;  -67.418; -475.115; -598.793
649.948;  -18.966; -181.115; -296.793
650.219;  -16.814;  -37.115; -147.793
650.491;  -84.912; -431.114; -520.794
650.762; -123.836; -705.114; -731.794
651.033;  -74.884; -437.114; -424.795
651.304;  -96.182; -743.114; -728.795
651.576;  -64.105; -680.114; -645.795
651.847;  -39.478; -250.113; -140.796
652.118;  -27.551;  -32.113; -189.796
652.389; -110.450; -639.113; -722.796
652.660;  -45.023; -147.113;  -89.797
652.931; -145.871; -897.112; -871.797
653.202;  -78.719; -382.112; -541.798
653.473;  -70.792; -633.112; -533.798
653.744;  137.610; -595.112; -590.798
654.015;  107.337; -356.112; -303.799
654.286;  -50.012; -642.111; -663.799
654.557;  -75.385; -586.111; -521.799
654.828; -150.608;-1114.111;-1088.800
655.099;  -89.481; -404.111; -291.800
655.370;  -96.654; -427.111; -543.801
655.641; -123.902; -656.110; -714.801
655.911; -102.351; -618.110; -638.801
656.182;   35.601;  437.890;  387.198
656.453;   86.828;  830.890;  746.198
656.724;  -67.795; -466.110; -426.802
656.994;  -75.643; -553.109; -568.803
657.265; -106.191; -862.109; -873.803
657.536;  -84.240; -500.109; -377.804
657.806; -110.413; -561.109; -593.804
658.077; -138.186; -866.109; -950.804
658.347;  -99.409; -523.108; -598.805
658.618; -132.107; -646.108; -694.805
658.888;  -27.780;  -41.108;  112.195
659.159;  -68.428; -432.108; -548.806
659.429;  -24.977; -292.108; -349.806
659.700;   16.475; -435.107; -390.807
659.970;  -27.798; -370.107; -359.807
660.241;   11.479; -754.107; -921.807
660.511;  453.456; -147.107; -174.808
660.781;   85.108; -793.106; -748.808
661.052;  -63.916; -222.106; -381.808
661.322;  -18.164;   21.894;   -9.809
661.592;   10.213;  257.894;  148.191
661.862;  -73.860; -369.106; -382.810
662.133;  -96.383; -551.105; -502.810
662.403; -123.306; -770.105; -676.810
662.673;  -59.430; -256.105; -213.811
662.943; -106.978; -612.105; -551.811
663.213;  -16.951;  -85.105;  -81.811
663.483;  -88.524; -593.104; -568.812
663.753;  -55.647; -194.104; -152.812
664.023;  -17.670;   68.896;  -32.813
664.293;  -64.394; -319.104; -126.813
664.563; -115.817; -694.104; -648.813
664.833; -123.015; -743.103; -608.814
665.103; -127.888; -730.103; -793.814
665.373; -117.186; -766.103; -806.814
665.643;  -90.209; -863.103; -918.815
665.913;   23.518; -534.103; -714.815
666.182;  117.844; -685.102; -719.816
666.452;  225.521;  -22.102;  -89.816
666.722;  -29.602; -724.102; -784.816
666.992; -141.100; -948.102; -921.817
667.261; -101.923; -824.102; -808.817
667.531;  188.454;  134.899;   45.183
667.801;  551.155; -440.101; -412.818
668.070;  240.982;  714.899;  697.182
668.340;  -95.566; -883.101; -840.819
668.609;   80.986;  588.900;  301.181
668.879;  -68.237; -490.100; -558.819
669.149;  -82.885; -539.100; -516.820
669.418;  -95.334; -698.100; -726.820
669.688;  -29.807; -482.100; -666.820
669.957;   60.795; -423.099; -546.821
670.226;  -30.303; -268.099; -331.821
670.496;  -92.251; -431.099; -635.822
670.765;  -87.174; -418.099; -501.822
671.034; -130.622; -872.099; -828.822
671.304;  -12.496;   55.902; -111.823
671.573; -157.069;-1085.098; -957.823
671.842;   63.483; -380.098; -294.823
672.112;   16.910; -692.098; -586.824
672.381;  -13.238; -239.098; -214.824
672.650; -130.186;-1005.097;-1021.825
672.919; -101.060; -631.097; -507.825
673.188;  -89.608; -681.097; -878.825
673.457; -152.706;-1101.097;-1143.826
673.726;  -82.404; -579.096; -646.826
673.995;  -56.352; -533.096; -479.826
674.265;  -15.475; -263.096; -333.827
674.534;   -5.074; -183.096; -235.827
674.802;    6.878; -618.096; -703.828
675.071;  835.780; -886.095; -801.828
675.340; 3500.182; -464.095; -339.828
675.609; 1172.334;  103.905;   82.171
675.878;   62.086; -949.095; -893.829
676.147;    4.037;  -26.095;   -8.829
676.416;   63.764; -210.094; -294.830
676.685;  647.941; 1000.906; -622.830
676.953;   95.943; -603.094; -452.831
677.222;  -50.880; -193.094; -273.831
677.491;  -31.678;  -24.094; -127.831
677.759;  -14.276;   11.907;  172.168
678.028;  -22.475; -279.093; -222.832
678.297;   -2.148;   71.907;  197.168
678.565; -137.896; -898.093; -944.833
678.834;  -63.344; -311.093; -268.833
679.102;  -75.592; -411.092; -391.834
679.371; -146.790; -898.092; -727.834
679.639; -134.264; -797.092; -786.834
679.908; -134.812; -794.092; -724.835
680.176; -148.485; -895.091; -941.835
680.445;  -73.933; -346.091; -352.835
680.713;  -24.531;  -58.091;  -23.836
680.982;  -94.604; -523.091; -525.836
681.250;  -96.303; -578.091; -507.837
681.518;  -98.101; -534.090; -751.837
681.787;  -25.299; -204.090; -167.837
682.055;  -61.597; -490.090; -422.838
682.323; -149.720; -993.090; -992.838
682.591;   10.307; -216.090; -538.838
682.859;   75.408;    9.911;  -35.839
683.128;    6.210;  232.911;  497.161
683.396; -164.713;-1102.089;-1122.840
683.664;  -43.811; -241.089;   21.160
683.932;   -1.884;  144.911;  -76.840
684.200;  -78.707; -576.088; -320.841
684.468;  -32.955;  -73.088; -124.841
684.736;  -44.804; -214.088; -175.841
685.004; -116.777;-1024.088; -982.842
685.272;  -57.525; -880.088; -774.842
685.540;  -72.448; -499.087; -557.843
685.808;  -88.296; -651.087; -682.843
686.076; -104.419; -894.087; -969.843
686.343;  -67.393; -601.087; -815.844
686.611;   27.459; -195.087; -224.844
686.879;  360.311; -530.086; -553.844
687.147; 2950.863; -483.086; -480.845
687.414;  835.565;  -12.086; -169.845
687.682;   -6.708; -658.086; -757.846
687.950;  263.143;  259.915;  263.154
688.217;   -8.030; -792.085; -760.846
688.485;  -33.153; -632.085; -636.847
688.753;  461.949;  -11.085; -102.847
689.020;  131.476; -820.085; -851.847
689.288;  -93.822; -853.084; -787.848
689.555;  -36.220; -195.084; -148.848
689.823;  -49.094; -241.084; -345.849
690.090;  -97.592; -546.084; -651.849
690.358; -153.490; -877.084; -897.849
690.625;    0.687;  120.917;   45.150
690.892;  -83.011; -403.083; -369.850
691.160;  -40.009;   72.917;  -35.850
691.427;    3.867;  141.917;  130.149
691.694; -132.856; -855.083; -929.851
691.962; -148.979;-1177.082;-1060.852
692.229;    6.523;  127.918;   56.148
692.496;   69.075;  130.918;  -49.852
692.763;   17.152; -164.082; -201.853
693.031;  -74.772; -739.082; -716.853
693.298;  -46.620; -509.081; -368.853
693.565;  251.807; -155.081; -163.854
693.832; 1139.909;   -5.081;   -9.854
694.099;  126.986; -643.081; -642.855
694.366;  -60.012; -882.081; -896.855
694.633;  -45.711; -920.080; -633.855
694.900;  695.041; 4367.920; -114.856
695.167;  396.668; -214.080; -380.856
695.434;   90.170; -646.080; -623.856
695.701;  191.422;  121.921;  -61.857
695.968;  430.624; -365.079; -361.857
696.234;  930.776; -415.079; -646.858
696.501;10409.277; -776.079; -614.858
696.768; 5584.679; -554.079; -617.858
697.035;  319.681; -632.078; -667.859
697.302;   48.783; -448.078; -552.859
697.568;    4.010; -458.078; -497.859
697.835;  -32.313; -683.078; -624.860
698.102;   -9.837; -498.078; -407.860
698.368;   79.890;  384.923;  396.139
698.635;  -26.008;  -47.077; -424.861
698.901;  -23.531; -240.077; -348.861
699.168;   40.721; -534.077; -456.862
699.435;   57.023;  -72.077;  -13.862
699.701; -109.401; -868.076; -764.862
699.968;   -4.374;  144.924; -441.863
700.234;  -84.847; -783.076; -822.863
700.500;  -42.595; -448.076; -539.864
700.767;   -4.568;   -1.075;   26.136
701.033; -134.341;-1015.075; -963.864
701.299;  -64.689; -450.075; -483.865
701.566;  104.712;  950.925;  763.135
701.832;    7.989;  -31.075;  -76.865
702.098;  -98.409;-1054.074;-1034.866
702.365;  -93.357;-1098.074;-1030.866
702.631;  -35.755;-1038.074;-1063.867
702.897; 1222.397; -765.074; -676.867
703.163; 2196.148;  348.926;  254.133
703.429;  150.675; -256.073; -273.868
703.695;  -27.048; -796.073; -792.868
703.961;   22.929; -214.073; -210.868
704.227;  -57.369; -630.073; -725.869
704.493;  122.108;  613.927;  510.131
704.759;   -5.791; -565.072; -540.870
705.025;   18.186; -203.072; -194.870
705.291;   -4.762; -666.072; -562.870
705.557;  184.490;  719.928;   34.129
705.823;   45.917; -742.072; -694.871
706.089;  157.194; -307.071; -326.871
706.355;  375.320; -315.071; -244.872
706.620; 5792.322; -776.071; -729.872
706.886; 8425.874; -309.071; -362.873
707.152;  752.026; -818.070; -973.873
707.418;    2.053;-1153.070;-1186.873
707.683;    2.855; -550.070; -530.874
707.949;  -20.243; -547.070; -578.874
708.215;   -8.542; -129.070; -207.874
708.480;  -29.215; -520.069; -420.875
708.746;   89.737;   68.931;   28.125
709.011;  -53.911; -578.069; -612.876
709.277;  -75.934; -538.069; -543.876
709.542;  -52.157; -428.069; -387.876
709.808;   -1.181;  -59.068;   89.123
710.073;  -76.454; -577.068; -695.877
710.339;  -31.052; -242.068; -228.877
710.604;   59.475; -780.068; -845.878
710.869;  323.302; -277.068; -366.878
711.135;  -56.121; -715.067; -628.879
711.400;  -93.170; -507.067; -608.879
711.665;  -53.668; -404.067; -479.879
711.931; -101.691; -661.067; -677.880
712.196; -113.714; -876.067; -954.880
712.461;   71.863; -402.066; -490.880
712.726;  125.690; -727.066; -771.881
712.991;  -97.234; -647.066; -664.881
713.256;  -46.457; -350.066; -332.882
713.521;  -69.755; -417.065; -381.882
713.787;  -60.503; -454.065; -472.882
714.052;  -29.426; -214.065; -400.883
714.317;  -87.349;-1045.065; -981.883
714.581; 1057.403; -374.065; -268.883
714.846; 1570.304; -822.064; -888.884
715.111;  132.156;  261.936;  257.116
715.376;  -22.817;  -86.064; -223.885
715.641;  -33.040; -365.064; -367.885
715.906;  272.912;   15.936; -551.885
716.171;  115.189;  221.937;  209.114
716.436;   21.840;  -78.063; -104.886
716.700;  -98.958; -818.063; -692.886
716.965; -113.631; -794.063; -807.887
717.230;  -63.404; -339.063; -392.887
717.494;  -26.827;  -40.062; -134.888
717.759;  -94.225; -784.062; -640.888
718.024;   10.801;  269.938;  250.112
718.288;   62.178;  685.938;  395.111
718.553; -140.770; -803.062; -977.889
718.817; -147.918; -883.061; -899.889
719.082;  -41.766; -115.061; -125.890
719.346; -139.789;-1000.061; -947.890
719.611;  -50.962; -300.061; -255.891
719.875;  -99.111; -568.060; -537.891
720.140;  -71.584; -453.060; -603.891
720.404;   -2.082; -136.060; -249.892
720.668;  759.945; -475.060; -411.892
720.933;  310.272;  146.940;  137.108
721.197;  -83.751; -667.059; -600.893
721.461; -147.325; -851.059; -826.893
721.725;  -14.073;  -21.059; -250.894
721.990;  -74.671; -284.059; -204.894
722.254;  -35.644;  -26.059; -108.894
722.518;  -76.942; -286.058; -442.895
722.782;  -95.190; -743.058; -594.895
723.046;  104.636;  614.942;  570.105
723.310;   19.413;  374.942;  210.104
723.574; -110.810; -654.058; -614.896
723.838;  -90.708; -576.057; -642.897
724.102;  -32.906; -226.057; -239.897
724.366; -133.804;-1032.057; -978.897
724.630;  -92.328; -749.057; -571.898
724.894;  -78.851; -722.057; -514.898
725.158;  -30.374;   38.944; -295.898
725.422;  -59.297; -394.056; -327.899
725.685;  -77.595; -441.056; -349.899
725.949;  -71.043; -566.056; -519.900
726.213;  -85.016; -732.056; -811.900
726.477;  136.810;-1020.055; -933.900
726.740;  127.262; -274.055; -104.901
727.004;  307.589; -384.055; -510.901
727.268; 3421.041; -442.055; -400.901
727.531; 1040.468; -961.055; -775.902
727.795;  -42.105; -713.054; -673.902
728.059;  -55.354; -552.054; -557.903
728.322;  -83.652; -841.054; -669.903
728.586;   16.050; -692.054; -701.903
728.849;  -86.398; -695.053; -756.904
729.112; -108.371; -812.053; -912.904
729.376; -130.144; -959.053; -905.904
729.639;  -71.318; -536.053; -536.905
729.903; -129.591; -733.053; -699.905
730.166;  -43.764; -437.052; -399.906
730.429;  -44.137; -317.052; -468.906
730.693;  -52.210; -355.052; -894.906
730.956;  172.617;  810.948;  651.093
731.219;  673.969; -310.052; -103.907
731.482;   83.945;-1003.051; -894.907
731.745;   84.622; -794.051; -935.908
732.009;   13.674;  -30.051;   50.092
732.272; -100.949; -904.051; -771.909
732.535;  -48.697; -300.051; -310.909
732.798; -151.695;-1083.050;-1166.909
733.061;  -60.419; -430.050; -456.910
733.324;    1.808;   31.950; -180.910
733.587;   69.510;  290.950;  365.090
733.850;  -78.638; -973.049;-1050.911
734.113;   13.439;   33.951;   32.089
734.376;    9.016; -328.049; -447.912
734.639;  211.217; 1188.951; 1011.088
734.901;   60.644; -180.049; -402.912
735.164;  418.921; -883.048; -837.913
735.427; 1260.798; -166.048; -355.913
735.690;  106.900; -205.048; -234.913
735.952;  -27.198; -923.048; -925.914
736.215;  -24.597;-1113.048;-1009.914
736.478;   34.555; -771.047; -774.915
736.740;  203.357;   33.953;  129.085
737.003;  551.384; -658.047; -672.915
737.266; 3743.436;  -94.047;   46.084
737.528;  419.538; -682.047; -660.916
737.791;  304.840; -316.046; -327.916
738.053;  765.941;  465.954;  649.083
738.316;10430.268; -162.046; -136.917
738.578; 8283.520; -770.046; -736.918
738.841;  467.722; -382.046; -446.918
739.103;  179.699; -875.045; -777.918
739.365;  494.051;   79.955;  -69.919
739.628;   11.077; -884.045; -805.919
739.890;  -30.071; -758.045; -710.919
740.152;  -43.094; -692.044; -754.920
740.414;  -22.192; -408.044; -359.920
740.677;  -39.590; -785.044; -634.921
740.939;  -60.338; -587.044; -487.921
741.201;  223.988; -432.044; -572.921
741.463;   31.765; -689.043; -745.922
741.725;   15.142;  -21.043; -199.922
741.987;   49.219;  220.957;  116.078
742.249;    6.171; -751.043; -859.923
742.511;  179.973; -703.043; -794.923
742.773;   16.249; -546.042; -546.924
743.035;  109.201;  796.958;  533.076
743.297;  -48.097; -963.042;-1013.924
743.559;  671.730; -278.042; -262.925
743.821;   73.982; -735.042; -744.925
744.083;   -2.891;  -44.041; -149.925
744.345;  -86.739; -869.041; -892.926
744.607;   35.862;   75.959;  122.074
744.868;  -50.636; -490.041; -554.927
745.130; -104.784; -994.041;-1008.927
745.392;   31.643;   -1.040;  -44.927
745.653;  -26.780; -411.040; -378.928
745.915;  162.897;  896.960;  631.072
746.177;   45.123;   35.960;  -43.928
746.438;   -2.925; -428.040; -543.929
746.700;  -52.398; -947.039; -988.929
746.961;    9.829; -659.039; -740.930
747.223;  138.706; -190.039;  -74.930
747.484;   70.133; -391.039; -471.930
747.746;  126.684;  -23.038; -106.931
748.007;   92.561; -647.038; -689.931
748.269;  246.938; -468.038; -440.931
748.530;  448.740; -852.038; -638.932
748.791;  251.542; -354.038; -420.932
749.053;  427.694;  286.963;  163.067
749.314;  431.796; -236.037; -169.933
749.575;  501.247; -945.037; -905.933
749.836;  796.624; -217.037;   86.066
750.098; 2165.701;  -60.037;  -21.934
750.359;34170.153;  414.964;  555.066
750.620; 9785.030; -121.036; -220.935
750.881; 1004.782; -585.036; -513.935
751.142; 1273.708; -950.036; -938.936
751.403;15831.385; -789.036; -705.936
751.664; 7977.112;-1034.035; -999.936
751.925;  510.814; -175.035; -262.937
752.186;  274.241; -298.035; -278.937
752.447;  120.143; -590.035; -445.937
752.708;   50.694; -532.035; -648.938
752.969;   10.771; -566.034; -576.938
753.230;    4.973; -777.034; -672.939
753.491;   -5.150; -650.034; -631.939
753.751;   63.952;  109.966;   19.061
754.012;   74.604;  258.967;  181.060
754.273;   48.855; -174.033;  -71.940
754.534;   -4.818; -487.033; -580.940
754.794;  -84.741; -926.033; -911.941
755.055;  132.411; 1051.967;  881.059
755.316;  -44.437; -700.032; -566.942
755.576;  -29.110; -606.032; -576.942
755.837;  -47.333; -527.032; -695.942
756.097;  -48.582; -530.032; -564.943
756.358;  -84.680; -725.032; -770.943
756.618;  -51.403; -705.031; -641.943
756.879;   11.274; -254.031; -349.944
757.139; -111.674;-1098.031;-1116.944
757.400;  -55.747; -538.031; -553.945
757.660;  -27.821; -365.031; -401.945
757.920;   15.031; -266.030; -228.945
758.181;  -29.792; -468.030; -351.946
758.441;  -86.240; -870.030; -809.946
758.701;  -31.638; -308.030; -215.946
758.961;  -24.236; -220.030; -278.947
759.222;  -48.410; -574.029; -502.947
759.482;  -78.083; -683.029; -723.948
759.742;  -84.131; -706.029; -547.948
760.002;   15.346;  -83.029; -143.948
760.262;   14.873;   50.972;  182.051
760.522;  -32.500; -498.028; -574.949
760.782;  -55.098; -738.028; -612.949
761.042;  -31.972; -618.028; -573.950
761.302;   39.580;   55.972;  -18.950
761.562;   53.307; -164.027; -154.951
761.822;   65.159; -710.027; -551.951
762.082;  -33.914;-1104.027;-1093.951
762.342;   72.788; -328.027; -403.952
762.601;   82.664; -567.027; -506.952
762.861;  327.716; -281.026; -207.952
763.121;  400.318; -406.026; -411.953
763.381; 6987.020; -499.026; -485.953
763.640; 8807.372; -139.026; -307.954
763.900;  378.024; -242.026; -203.954
764.160;   94.300; -458.025; -491.954
764.419;    2.852; -726.025; -782.955
764.679;  -66.521; -795.025; -726.955
764.939;   -4.494; -124.025; -210.955
765.198;  -77.017; -608.025; -563.956
765.458;  -96.615; -710.024; -612.956
765.717;  -86.464; -454.024; -590.957
765.976;  -61.712; -428.024; -411.957
766.236;  -69.735; -475.024; -610.957
766.495;    1.342;  260.977;   73.042
766.755; -100.406;-1090.023; -987.958
767.014;   -9.179; -594.023; -665.958
767.273;  -54.302; -373.023; -397.959
767.533;  -50.976; -228.023; -307.959
767.792;  -26.999; -151.022; -188.960
768.051;  -50.672; -228.022; -276.960
768.310;  -95.095; -546.022; -650.960
768.569;  -13.218; -161.022;    4.039
768.828;  -34.816; -285.022; -363.961
769.088; -131.440;-1050.021; -942.961
769.347;  -75.388; -755.021; -599.962
769.606;  -92.836; -876.021; -857.962
769.865; -112.209;-1016.021;-1033.963
770.124;    5.093; -411.021; -336.963
770.383;  -47.630; -778.020; -910.963
770.641;    0.471; -398.020; -400.964
770.900;  -63.752; -953.020; -846.964
771.159;  -32.425; -851.020; -951.964
771.418;    0.902; -917.020; -779.965
771.677;  127.379; -224.019; -293.965
771.936;  160.706; -794.019; -865.966
772.194; 2066.032; -465.019; -437.966
772.453;11988.284; -213.019; -391.966
772.712;  891.536;  416.982;  329.033
772.970;  130.638;   32.982;   63.033
773.229;   91.865;  -22.018;  102.033
773.488;  -73.333; -814.018; -770.968
773.746;   42.619;  296.982;  335.032
774.005;    9.520;  190.983;  -22.969
774.263;   -3.928;  243.983;  177.031
774.522;  -47.151; -422.017; -548.969
774.780;  -82.799; -484.017; -417.970
775.039;  -94.822; -551.017; -531.970
775.297;  -32.920; -135.016; -351.970
775.555; -106.019; -489.016; -612.971
775.814; -120.617; -618.016; -570.971
776.072; -128.940; -749.016; -740.971
776.330; -102.713; -630.016; -520.972
776.589; -115.386; -703.015; -721.972
776.847; -130.784; -645.015; -624.973
777.105; -158.458;-1016.015;-1032.973
777.363;  -68.706; -459.015; -454.973
777.621; -148.954; -660.015; -717.974
777.879;  -35.252;  -42.014;   32.026
778.138;  -94.225; -554.014; -717.974
778.396; -112.298; -585.014; -526.975
778.654; -155.171;-1015.014; -970.975
778.912;  -79.495; -269.014; -371.976
779.170; -144.743; -880.013; -803.976
779.427; -148.591; -922.013; -897.976
779.685; -140.914; -880.013; -832.977
779.943;  -87.562; -654.013; -593.977
780.201; -153.835; -964.012; -883.978
780.459; -112.334; -651.012; -610.978
780.717;  -73.607; -440.012; -390.978
780.974; -108.330; -449.012; -490.979
781.232;  -79.778; -358.012; -338.979
781.490;  -87.151; -551.011; -472.979
781.747;  -95.924; -555.011; -476.980
782.005;    8.702;  462.989;  254.020
782.263; -162.221; -542.011;-1004.981
782.520; -104.844; -326.011; -501.981
782.778; -162.342;-1013.010;-1051.981
783.035; -163.665; -962.010; -938.982
783.293;  -59.163; -248.010; -206.982
783.550;  -76.637; -134.010; -198.982
783.808; -135.110; -764.010; -776.983
784.065; -166.933; -745.009; -874.983
784.322;  -47.206;   25.991;  -86.984
784.580; -142.854; -915.009; -771.984
784.837;  -99.827; -392.009; -466.984
785.094; -134.050; -783.009; -762.985
785.352;  -69.149; -304.008; -404.985
785.609; -116.047; -934.008; -839.985
785.866;  -72.770; -345.008; -401.986
786.123;  -89.043; -639.008; -583.986
786.380; -104.216; -665.008; -604.987
786.637;  -55.614; -225.007; -380.987
786.895;  -26.013; -456.007; -543.987
787.152;  -55.411; -135.007; -267.988
787.409;  -53.059; -123.007; -225.988
787.666; -103.082; -299.006; -378.988
787.923; -108.830; -616.006; -695.989
788.179; -113.578; -551.006; -584.989
788.436; -118.802; -585.006; -585.990
788.693;  -37.150;  -92.006;  -87.990
788.950;   84.977; -125.005; -112.990
789.207;  188.004; -381.005; -372.991
789.464;  -44.744; -161.005; -301.991
789.720;  -11.067;  150.995;  110.009
789.977; -170.615;-1003.005; -671.992
790.234;  -48.539;   44.996;  -66.992
790.490; -152.937; -884.004;-1031.993
790.747;  -27.085;  -85.004;   22.007
791.004;  -29.483; -426.004; -348.993
791.260;  -92.406; -430.004; -560.994
791.517; -106.604; -843.003; -788.994
791.773;  -46.728; -379.003; -342.994
792.030; -114.401; -596.003; -660.995
792.286; -104.424; -686.003; -636.995
792.543;  -14.047;  -74.002; -159.995
792.799;  -64.270; -584.002; -382.996
793.055; -169.668;-1179.002;-1210.996
793.312; -105.642; -827.002; -816.997
793.568;  -75.090; -746.002; -599.997
793.824;   -2.838; -226.001; -284.997
794.081;    5.114; -447.001; -508.998
794.337;   55.416; -664.001; -561.998
794.593; 1101.293; -319.001; -271.999
794.849; 6759.944; -746.001; -772.999
795.105;  386.346; -270.000; -261.999
795.361;    7.398; -490.000; -457.000
795.617;  -53.325; -875.000; -945.000
795.873;  -62.400; -360.000; -407.000
796.129;  -36.625; -368.000; -306.000
796.385;  -21.875; -124.000; -156.000
796.641;   58.300;  412.000;  550.000
796.897;  -81.925; -666.000; -635.000
797.153;   60.225;  453.000;  357.000
797.409;  -98.900; -785.000; -868.000
797.665;  -59.750; -625.000; -732.000
797.921;  -81.475; -775.000; -762.000
798.176;  -48.575; -744.000; -747.000
798.432;  -45.475; -824.000; -596.000
798.688;  -56.250;-1174.000;-1078.000
798.943;   69.900; -165.000; -147.000
799.199;   10.425;-1005.000; -959.000
799.455;  223.175;  369.000;  316.000
799.710;  140.900; -813.000; -380.000
799.966;  301.850; -162.000; -160.000
800.221;  487.925; -638.000; -721.000
800.477; 9718.775; -743.000; -710.000
800.732;10435.975; -773.000; -800.000
800.988;  673.800;  205.000;  -19.000
801.243; 1738.125; -454.000; -344.000
801.498; 9115.250; -814.000; -739.000
801.754;  589.825; -289.000; -163.000
802.009;  104.800; -257.000; -335.000
802.264;  -23.600; -967.000;-1033.000
802.520;   20.600;  222.000;   -3.000
802.775;  -31.450; -524.000; -359.000
803.030;   60.350;  395.000;  356.000
803.285; -105.575; -840.000; -903.000
803.540;  -80.250; -686.000; -699.000
803.795;  -41.225; -648.000; -583.000
804.051;  -38.225; -279.000; -346.000
804.306;   15.225;  168.000;  128.000
804.561;  114.075;  451.000;  362.000
804.816;  134.150;  714.000;  861.000
805.071;  -14.975; -185.000; -280.000
805.325;  198.900; -257.000; -427.000
805.580; -106.225; -841.000; -877.000
805.835;  -10.600; -204.000; -297.000
806.090;  -67.375; -760.000; -676.000
806.345;  -26.575; -344.000; -264.000
806.600;  -20.275; -549.000; -632.000
806.854;  -27.200; -408.000; -538.000
807.109;  -21.775; -493.000; -577.000
807.364;    0.625; -407.000; -328.000
807.618;   -8.225; -415.000; -381.000
807.873;   55.700; -470.000; -494.000
808.128;  101.775; -257.000; -518.000
808.382;  101.550; -224.000; -332.000
808.637;   63.550; -440.000; -511.000
808.891;  170.875; -257.000; -180.000
809.146;  111.150; -902.000; -794.000
809.400;  267.925; -848.000; -923.000
809.654;  308.200; -779.000; -551.000
809.909;  467.125; -841.000; -927.000
810.163; 5486.800; -813.000; -651.000
810.418;17200.775; -940.000; -861.000
810.672; 1112.200; -685.000; -690.000
810.926;  760.925; -993.000; -973.000
811.180; 1380.325; -439.000; -372.000
811.434;31608.275;  240.000;  135.000
811.689;15482.675; -231.000; -365.000
811.943;  734.400; -936.000; -953.000
812.197;  378.725; -893.000; -671.000
812.451;  152.525; -379.000; -514.000
812.705;  -12.600; -809.000; -619.000
812.959;   12.600; -263.000; -388.000
813.213;   -4.025; -283.000; -209.000
813.467;   75.075;  470.000;  253.000
813.721;  -97.200; -764.000; -792.000
813.975; -120.375; -826.000; -877.000
814.229;   34.450;  430.000;  353.000
814.482;  -63.400; -517.000; -566.000
814.736; -126.800; -766.000; -744.000
814.990; -126.725; -779.000; -872.000
815.244;  -65.725; -228.000; -285.000
815.497;  -94.525; -636.000; -601.000
815.751;  -21.875; -141.000;   82.000
816.005;  -82.375; -470.000; -586.000
816.258;  -71.375; -510.000; -363.000
816.512; -103.675; -693.000; -610.000
816.766;   -6.000;  121.000;  157.000
817.019;   18.625;  148.000;  149.000
817.273; -118.600;-1000.000; -802.000
817.526;  -22.675; -206.000; -173.000
817.779;  -55.250;-1049.000; -960.000
818.033;  -71.150; -693.000; -807.000
818.286; -121.750; -725.000; -792.000
818.540;  -89.725; -403.000; -403.000
818.793;  -79.650; -402.000; -489.000
819.046; -102.475; -582.000; -520.000
819.299;  -39.350; -157.000; -166.000
819.553; -105.600; -552.000; -592.000
819.806; -157.725;-1016.000; -838.000
820.059;  -61.050; -334.000; -354.000
820.312;   12.375;  152.000;  185.000
820.565;  -14.025;  110.000;  -27.000
820.818;  -51.875;  -59.000; -173.000
821.071; -163.175;-1041.000; -957.000
821.324; -113.450; -536.000; -540.000
821.577; -103.550; -457.000; -483.000
821.830;  -67.050; -270.000; -172.000
822.083; -122.200; -733.000; -288.000
822.336;  -52.375; -261.000; -167.000
822.589; -129.600; -805.000; -688.000
822.842; -149.325; -875.000; -770.000
823.094; -163.125;-1076.000;-1114.000
823.347; -130.375; -925.000; -729.000
823.600;   13.350;  402.000;  187.000
823.853;  -59.575; -311.000; -267.000
824.105;  -68.325; -331.000; -575.000
824.358; -111.900; -617.000; -716.000
824.611;   35.875;  234.000;   40.000
824.863;  -58.225; -612.000; -591.000
825.116;   39.450;  -33.000;   27.000
825.368;   45.650; -366.000; -372.000
825.621;  157.150; -186.000; -240.000
825.873;   78.425; -704.000; -737.000
826.126;  506.750; -669.000; -641.000
826.378;11037.575; -389.000; -505.000
826.630; 3462.250; -890.000; -898.000
826.883;   50.275; -754.000; -693.000
827.135;   39.325; -279.000; -270.000
827.387; -111.325; -893.000; -839.000
827.639;  -25.400;  -86.000;   32.000
827.892; -122.775; -742.000; -582.000
828.144; -140.650; -848.000; -804.000
828.396;  -29.225;  104.000;  -80.000
828.648;  -98.350; -440.000; -333.000
828.900; -152.325; -702.000; -795.000
829.152; -114.575; -684.000; -683.000
829.404;  -74.250; -215.000; -267.000
829.656;  -21.100;  321.000;  214.000
829.908;  -21.600;  393.000;  229.000
830.160; -169.650;-1064.000;-1047.000
830.412;  -93.500; -481.000; -430.000
830.664; -125.900; -557.000; -665.000
830.916;  -84.975; -268.000; -206.000
831.167; -179.575;-1073.000; -951.000
831.419; -117.775; -623.000; -566.000
831.671; -154.850; -764.000; -809.000
831.923;  -89.775; -311.000; -447.000
832.174;  -78.575; -273.000; -331.000
832.426; -117.625; -493.000; -582.000
832.678; -174.850;-1043.000;-1091.000
832.929; -174.325; -947.000; -935.000
833.181;  -73.825; -575.000; -677.000
833.432;  -65.600;  -59.000; -186.000
833.684;  -25.825;  112.000;  -27.000
833.935; -128.275; -610.000; -566.000
834.187; -104.275; -829.000; -823.000
834.438;  -65.125;  -58.000;  -25.000
834.689;  -61.900; -255.000; -123.000
834.941;  -76.500; -343.000; -244.000
835.192;  -98.375; -590.000; -533.000
835.443;  -98.625; -419.000; -506.000
835.695;  -17.550;  138.000;  -16.000
835.946; -106.200; -608.000; -378.000
836.197; -101.700; -599.000; -622.000
836.448;  -87.825; -528.000; -395.000
836.699;  -52.375; -253.000; -341.000
836.950;   -8.275;   72.000;    7.000
837.201; -139.125;-1003.000; -987.000
837.452;  -63.400; -356.000; -170.000
837.703; -107.350; -791.000; -737.000
837.954;  -46.025; -205.000; -365.000
838.205;  -73.575;-1029.000;-1008.000
838.456;  132.000; -196.000; -282.000
838.707;   -0.200; -423.000; -519.000
838.958;   -7.050; -634.000; -647.000
839.209;  267.700;   18.000;   40.000
839.460;  109.750; -439.000; -201.000
839.710;  162.275; -135.000; -297.000
839.961;  397.800;  730.000;  612.000
840.212;  307.875; -382.000; -497.000
840.462; 1032.675; -328.000; -277.000
840.713;16894.050; -571.000; -536.000
840.964; 8385.425;  -62.000; -143.000
841.214;  501.600; -384.000; -624.000
841.465;  554.925; -214.000; -141.000
841.715;  472.425; -417.000; -380.000
841.966;  592.975; -746.000; -685.000
842.216; 7175.575; -330.000; -431.000
842.466;33254.875; -169.000; -313.000
842.717; 2342.150; -964.000; -952.000
842.967;  289.275; -635.000; -641.000
843.217;  270.325;   20.000;   28.000
843.468;   60.500; -104.000; -132.000
843.718;  -43.625; -718.000; -726.000
843.968; -106.900; -837.000; -765.000
844.218;   10.225; -315.000; -262.000
844.469;  -54.725; -577.000; -561.000
844.719;  -93.400; -537.000; -682.000
844.969;  -96.500; -550.000; -580.000
845.219; -130.375; -814.000; -862.000
845.469;  -94.600; -392.000; -342.000
845.719; -137.225; -792.000; -884.000
845.969;   -4.150;  119.000;  174.000
846.219; -118.900; -738.000; -720.000
846.469;    6.100;  464.000;  432.000
846.718;  -40.975; -115.000;   31.000
846.968; -133.425; -827.000; -827.000
847.218;  -62.750; -224.000; -371.000
847.468; -111.125; -586.000; -555.000
847.718; -139.400; -827.000; -798.000
847.967; -149.150; -826.000; -915.000
848.217;  -89.675; -449.000; -569.000
848.467;  -68.300; -405.000; -376.000
848.716; -121.300; -708.000; -725.000
848.966;  -21.000; -372.000; -358.000
849.215;  -51.900; -428.000; -419.000
849.465;  -87.775; -785.000; -615.000
849.714; -149.425;-1132.000;-1150.000
849.964;  -64.700; -551.000; -613.000
850.213;  -27.950; -393.000; -355.000
850.463;   67.225;  137.000;  340.000
850.712;   13.650; -542.000; -567.000
850.961;   15.200; -739.000; -678.000
851.211;   98.475; -513.000; -504.000
851.460;  160.875; -635.000; -650.000
851.709;  539.300;  -25.000;   18.000
851.958; 9391.975; -912.000; -750.000
852.208;14187.025; -859.000; -879.000
852.457;  551.975; -181.000;  -13.000
852.706;   72.650; -791.000; -823.000
852.955;   32.800; -507.000; -528.000
853.204;  -59.775; -521.000; -461.000
853.453;  -88.450; -418.000; -458.000
853.702; -117.650; -660.000; -750.000
853.951; -122.800; -532.000; -520.000
854.200; -111.750; -613.000; -562.000
854.449; -140.925; -695.000; -661.000
854.698; -103.000; -340.000; -279.000
854.946;  -77.425; -181.000; -284.000
855.195; -159.075; -843.000; -868.000
855.444;  -98.350; -395.000; -420.000
855.693; -123.825; -345.000; -432.000
855.941; -122.000; -387.000; -516.000
856.190;  -66.950; -256.000; -382.000
856.439; -131.250; -652.000; -703.000
856.687;  -61.550;  -99.000;  -72.000
856.936; -122.825; -621.000; -323.000
857.184; -174.400;-1067.000;-1020.000
857.433;  -99.600; -423.000; -512.000
857.681; -158.800; -989.000; -953.000
857.930;  -86.575; -282.000; -433.000
858.178; -166.025; -856.000; -929.000
858.427; -148.325; -802.000; -781.000
858.675; -126.900; -377.000; -544.000
858.923; -128.100; -527.000; -819.000
859.172; -189.300;-1094.000;-1070.000
859.420;  -97.875; -339.000; -239.000
859.668; -135.300; -624.000; -628.000
859.916;  -34.875;  109.000;  115.000
860.164; -112.900; -699.000; -603.000
860.413;  188.475; -878.000; -696.000
860.661;  213.100; -709.000; -577.000
860.909;  -95.300; -339.000; -325.000
861.157;  -82.700; -277.000; -444.000
861.405; -129.325; -534.000; -670.000
861.653;    6.600;  310.000;  310.000
861.901;  121.375; -543.000; -613.000
862.149;   -4.300; -801.000; -824.000
862.396;  -81.125; -297.000; -187.000
862.644;  -91.000; -368.000; -347.000
862.892;  -41.450;   98.000;  138.000
863.140; -129.225; -549.000; -530.000
863.388; -166.925; -815.000; -759.000
863.635; -126.025; -642.000; -601.000
863.883;  -15.175;  231.000;  190.000
864.131;  -98.625; -288.000; -357.000
864.378; -131.125; -675.000; -540.000
864.626; -104.875; -347.000; -415.000
864.873; -120.225; -556.000; -505.000
865.121; -139.550; -714.000; -799.000
865.368;  -55.175; -173.000;   75.000
865.616;  -42.275;  -33.000;  -40.000
865.863;  -78.075; -462.000; -506.000
866.111; -102.525; -795.000; -824.000
866.358;   42.950; -426.000; -420.000
866.605; 2282.075;  -64.000; -804.000
866.853; 2914.725; -621.000; -537.000
867.100;    3.400; -728.000; -775.000
867.347;  -85.625; -672.000; -611.000
867.594;  -86.075; -740.000; -714.000
867.841;   71.025;   97.000;   17.000
868.089; -145.875; -746.000; -698.000
868.336; -110.300; -477.000; -420.000
868.583; -132.750; -637.000; -741.000
868.830;  -57.125; -131.000; -170.000
869.077; -155.125; -859.000; -787.000
869.324; -130.800; -502.000; -458.000
869.571; -130.450; -398.000; -430.000
869.818; -115.350; -485.000; -439.000
870.065; -119.250; -439.000; -513.000
870.311; -109.850; -456.000; -542.000
870.558; -114.475; -332.000; -311.000
870.805;  -73.800; -320.000; -384.000
871.052; -112.100; -494.000; -369.000
871.298;  -64.175; -204.000; -131.000
871.545;  -69.800; -151.000; -185.000
871.792; -113.975; -173.000; -222.000
872.038;  -72.450;   43.000; -126.000
872.285; -127.400; -496.000; -387.000
872.532; -106.300; -357.000; -387.000
872.778;   -3.700;  556.000;  403.000
873.025;  -99.500; -384.000; -359.000
873.271;   12.175;  501.000;  578.000
873.517;  -29.100; -133.000; -209.000
873.764;  -46.225; -193.000;  -80.000
874.010;  -81.575; -143.000; -230.000
874.257;  -50.200;  123.000;   90.000
874.503; -135.725; -579.000; -479.000
874.749;  -78.750;   31.000;  275.000
874.995;  -88.275;  -80.000;  -20.000
875.242; -124.125; -540.000; -478.000
875.488; -113.650; -414.000; -439.000
875.734;  -68.850; -106.000; -234.000
875.980;  103.075; -872.000;-1032.000
876.226;  327.100; -157.000; -255.000
876.472;  -12.150;  343.000;  237.000
876.718;  -62.050;  184.000;  158.000
876.964;  -51.050;   56.000;   55.000
877.210; -147.725; -547.000; -677.000
877.456; -140.175; -630.000; -557.000
877.702; -181.300; -821.000; -832.000
877.948; -118.175; -377.000; -497.000
878.193;  -24.300;  361.000;  255.000
878.439;  -98.650; -487.000; -472.000
878.685; -100.375; -272.000; -343.000
878.931; -143.900; -618.000; -676.000
879.176;  -87.175; -201.000; -201.000
879.422; -171.400; -933.000; -820.000
879.668;   30.650;   10.000;   79.000
879.913;  114.500;   53.000;  137.000
880.159;  -61.925; -112.000;  -17.000
880.404;  -61.275; -152.000; -162.000
880.650;  -56.400;   91.000;  141.000
880.895; -166.700; -670.000; -710.000
881.141; -121.225; -454.000; -428.000
881.386; -149.850; -503.000; -658.000
881.631;  -98.900; -311.000; -166.000
881.877;  -40.050;  112.000;  -13.000
882.122; -139.575; -684.000; -600.000
882.367;  -86.050; -136.000; -186.000
882.612;  -64.425;  -80.000; -176.000
882.858; -165.275; -877.000; -823.000
883.103; -113.800; -297.000; -267.000
883.348; -162.800; -759.000; -852.000
883.593; -156.425; -677.000; -602.000
883.838;  -66.550; -311.000;  -24.000
884.083;   28.700;  353.000;  288.000
884.328;  -80.600; -564.000; -545.000
884.573;  -68.525; -196.000; -143.000
884.818;  138.375; -694.000; -531.000
885.063;  173.300; -348.000; -315.000
885.308;  -98.575; -475.000; -398.000
885.553;  -17.075;  245.000;  325.000
885.797; -123.725; -545.000; -615.000
886.042;  -64.100;    8.000;   58.000
886.287; -104.125; -253.000; -211.000
886.532;  -72.650;   26.000;  204.000
886.776; -103.400; -407.000; -525.000
887.021; -152.900; -621.000; -574.000
887.265; -153.225; -685.000; -689.000
887.510; -135.175; -557.000; -496.000
887.755;  -91.050; -194.000; -164.000
887.999; -143.225; -552.000; -575.000
888.244;  -63.900;  -58.000;  161.000
888.488;  -25.900;  371.000;  393.000
888.732; -124.525; -368.000; -520.000
888.977; -137.000; -622.000; -567.000
889.221; -144.600; -683.000; -659.000
889.465; -130.200; -422.000; -566.000
889.710;  -86.075;  -56.000; -299.000
889.954;  -10.175;  579.000;  467.000
890.198; -148.325; -584.000; -707.000
890.442; -160.850; -716.000; -712.000
890.687; -148.000; -800.000; -753.000
890.931; -108.150; -273.000; -210.000
891.175; -136.625; -502.000; -500.000
891.419;  -91.775; -105.000; -110.000
891.663;  -98.500; -239.000; -112.000
891.907; -161.625; -801.000; -545.000
892.151; -177.950; -920.000; -815.000
892.395; -114.775; -274.000; -387.000
892.638;  -20.325;  408.000;  291.000
892.882; -177.675; -780.000; -867.000
893.126;   22.300;  758.000;  558.000
893.370; -114.950; -167.000; -168.000
893.614; -132.625; -714.000; -715.000
893.857; -118.800; -183.000; -197.000
894.101; -137.600; -527.000; -631.000
894.345;  -71.650;  300.000;  150.000
894.588;    8.400;  569.000;  380.000
894.832;  -90.175; -178.000;  -84.000
895.075;  -92.675;   15.000;  -92.000
895.319; -131.175; -552.000; -420.000
895.563; -119.375; -413.000; -353.000
895.806; -150.925; -628.000; -741.000
896.049;  -71.225; -576.000; -368.000
896.293;   47.075;  527.000;  405.000
896.536;  -77.725; -465.000; -468.000
896.779;  -62.925; -149.000;   -1.000
897.023; -141.500; -751.000; -714.000
897.266;  -47.450;  325.000;  269.000
897.509; -180.475; -900.000; -901.000
897.752;  -66.475;  149.000;  171.000
897.996; -194.250; -972.000; -864.000
898.239;  -58.125;  168.000;  102.000
898.482; -123.825; -431.000; -453.000
898.725;  -48.475;  101.000;   53.000
898.968; -163.850; -609.000; -744.000
899.211; -113.650; -513.000; -361.000
899.454; -127.450; -633.000; -539.000
899.697;  -72.625;   90.000;  -43.000
899.940; -167.450; -761.000; -757.000
900.182; -119.875; -335.000; -405.000
900.425; -100.275; -150.000; -298.000
900.668;  -29.675;  491.000;  350.000
900.911; -102.050; -292.000; -345.000
901.154;  -59.550;  141.000;   -3.000
901.396; -141.800; -407.000; -412.000
901.639; -138.700; -430.000; -496.000
901.882; -179.150; -790.000; -809.000
902.124; -102.350;  -29.000; -143.000
902.367; -108.275; -315.000; -361.000
902.609; -139.425; -476.000; -453.000
902.852;  -99.050; -108.000; -260.000
903.094; -139.175; -458.000; -337.000
903.337;  -64.050;  -26.000;   53.000
903.579; -115.700; -228.000; -441.000
903.821; -153.450; -597.000; -744.000
904.064;  -73.325;   85.000;  127.000
904.306; -107.275; -126.000; -166.000
904.548; -102.525; -152.000; -366.000
904.790; -108.375; -195.000; -340.000
905.033; -143.375; -625.000; -577.000
905.275; -134.700; -513.000; -524.000
905.517;   13.425;  468.000;  256.000
905.759;  -66.950; -667.000; -761.000
906.001; -107.825; -322.000; -369.000
906.243;  -70.675; -162.000; -224.000
906.485;   75.575; -265.000; -207.000
906.727;  112.525; -499.000; -542.000
906.969;  -56.750;  -30.000; -135.000
907.211;   85.600; -316.000; -382.000
907.453;  230.850; -188.000; -237.000
907.695;    4.925; -158.000; -385.000
907.936;   29.025;  818.000;  706.000
908.178;  -68.250;   92.000; -135.000
908.420;  -71.050; -111.000; -162.000
908.662; -138.275; -633.000; -682.000
908.903; -103.500; -208.000; -123.000
909.145;  -62.575; -240.000; -305.000
909.386;  -13.925;  315.000;  280.000
909.628;   25.375;  363.000;  397.000
909.870;  -20.075;   29.000;  264.000
910.111;  -85.200; -809.000; -949.000
910.353;   16.600; -123.000; -161.000
910.594;    5.575; -574.000; -606.000
910.835;   82.950; -265.000; -326.000
911.077;  148.775; -503.000; -604.000
911.318;  286.275; -505.000; -471.000
911.559;  461.850; -577.000; -880.000
911.801; 1277.575; -284.000; -280.000
912.042; 9522.950;  -50.000; -159.000
912.283;28223.825;  404.000;  371.000
912.524; 5239.075; -396.000; -457.000
912.765;  556.875; -193.000;   79.000
913.006;  266.175; -307.000; -338.000
913.247;   61.525; -270.000; -290.000
913.488;   -6.950;  -43.000;   30.000
913.729;  -80.375; -373.000; -373.000
913.970;  -62.500;  -96.000; -292.000
914.211;  -78.300; -160.000; -198.000
914.452;  -81.425; -118.000;  -11.000
914.693;   -2.000;  510.000;  592.000
914.934;   11.575;  510.000;  440.000
915.175;  -68.400;   53.000;  -95.000
915.415;  -71.975; -137.000;   27.000
915.656;  -65.175;  -28.000;  192.000
915.897;  -93.600; -252.000;  -82.000
916.137;  -68.550;   74.000;   -9.000
916.378; -149.325; -573.000; -517.000
916.619;  -88.650; -159.000;  -63.000
916.859;  -34.050;  303.000;  330.000
917.100;  112.900; 1655.000; 1070.000
917.340;   41.875;  930.000;  728.000
917.581;   32.675;  965.000;  789.000
917.821;  -49.050; -171.000;  143.000
918.061;   -6.475; -199.000;  -72.000
918.302;  -56.600; -152.000; -211.000
918.542;  -56.400;  -22.000;    3.000
918.782;   42.825;  369.000;  377.000
919.023;  117.300;  360.000;  427.000
919.263; 1245.725; 8131.000;  202.000
919.503; 1104.000; -137.000;  -54.000
919.743;  582.900;  390.000;  266.000
919.983;  265.750; -134.000;  -26.000
920.223;   87.275;  135.000;   14.000
920.463;  126.125;  631.000;  554.000
920.703;  144.125;   84.000;   39.000
920.943;  172.300; -110.000;   90.000
921.183;  247.850; -414.000; -405.000
921.423;  513.775;  307.000;  546.000
921.663;  741.050; -174.000; -257.000
921.903; 1583.300;  237.000;  173.000
922.143; 8409.800;  372.000;  389.000
922.383;34537.025;  158.000;  115.000
922.622;14211.275; -120.000;  -15.000
922.862; 1445.875;  796.000;  785.000
923.102;  541.200;  -51.000;   33.000
923.341;  209.200;   59.000;   74.000
923.581;  105.575;  450.000;  360.000
923.821;   14.900;  301.000;  398.000
924.060;   -1.800;  351.000;  193.000
924.300;  -67.200;  -16.000; -128.000
924.539;   -9.075;  584.000;  473.000
924.779;   11.275;  812.000;  597.000
925.018;  -44.600;  247.000;  353.000
925.257;   -4.475;  595.000;  666.000
925.497;  -36.025;  447.000;  412.000
925.736;  -94.575;  -35.000;  102.000
925.975;    8.775;  687.000;  669.000
926.214;   12.725;  907.000;  850.000
926.454;    2.075;  706.000;  757.000
926.693;  -43.450;  419.000;  543.000
926.932;   31.800; 1021.000;  825.000
927.171;   53.350; 1107.000; 1044.000
927.410;   52.025; 1144.000;  967.000
927.649;   -3.775;  924.000;  742.000
927.888;  -20.025;  590.000;  564.000
928.127;  -12.725;  680.000;  678.000
928.366;   32.375;  842.000;  826.000
928.605;   20.925;  831.000;  737.000
928.844;  229.950; 1451.000; 1393.000
929.083;  568.800;  770.000;  613.000
929.321;  350.550; 1335.000; 1359.000
929.560;   76.675; 1158.000; 1122.000
929.799;  -31.325;  574.000;  475.000
930.038;   64.175; 1025.000; 1394.000
930.276;  -43.950;  334.000;  397.000
930.515;  -12.000;  827.000;  681.000
930.753;  -21.300;  614.000;  589.000
930.992;  -39.525;  664.000;  717.000
931.230;   -9.950;  847.000;  847.000
931.469;  154.300; 2162.000;  892.000
931.707;   77.650;  840.000;  751.000
931.946;   69.575; 1278.000; 1344.000
932.184;   60.025; 1437.000; 1175.000
932.423;   42.275; 1265.000;  963.000
932.661;   71.175; 1296.000; 1428.000
932.899;   25.525;  987.000;  821.000
933.137;   21.525;  754.000;  564.000
933.376;  124.900; 1664.000; 1335.000
933.614;  158.200; 1759.000; 1196.000
933.852;   77.300; 1357.000; 1171.000
934.090;  133.725; 1722.000; 1747.000
934.328;  105.975; 1252.000; 1457.000
934.566;  105.125; 1431.000; 1110.000
934.804;  133.825; 1263.000; 1309.000
935.042;  494.225; 1861.000; 1850.000
935.280; 1903.275; 2088.000; 2063.000
935.518; 2096.675; 2113.000; 2007.000
935.756;  441.025; 2481.000; 2316.000
935.994;  181.825; 1808.000; 1751.000
936.231;  317.475; 2890.000; 2950.000
936.469;  184.600; 2367.000; 2378.000
936.707;  182.000; 2220.000; 2167.000
936.945;  239.225; 2825.000; 2882.000
937.182;  192.925; 2679.000; 2741.000
937.420;  290.775; 3602.000; 3031.000
937.657;  390.475; 3365.000; 3478.000
937.895;  342.200; 3331.000; 3488.000
938.133;  309.650; 3540.000; 3528.000
938.370;  340.500; 3896.000; 4191.000
938.607;  390.925; 4488.000; 4205.000
938.845;  538.775; 5587.000; 5549.000
939.082;  462.225; 5387.000; 5177.000
939.320;  526.375; 5799.000; 5728.000
939.557;  639.375; 6549.000; 6491.000
939.794;  719.375; 7285.000; 7097.000
940.031;  869.250; 8421.000; 8368.000
940.269; 1082.600; 9552.000; 9107.000
940.506; 1097.300;10901.000;10507.000

