
Integration time [ms]: 200.000
Averaging Nr. [scans]: 10
Smoothing Nr. [pixels]: 0
Data measured with spectrometer [name]: 2101013U2
Wave   ;Sample   ;Dark     ;Reference
[nm]   ;[counts] ;[counts] ;[counts] 

394.013;   91.042; -450.257; -315.536
394.305;  369.439; -461.258; -419.536
394.596; 1866.881; -676.269; -527.514
394.887; 4545.106; -796.268; -654.518
395.178; 1850.653;  145.736;   11.476
395.470;  149.970; -210.263; -356.526
395.761;  364.929;  305.734;  394.479
396.052;  593.989; -545.284; -306.489
396.343;  611.996; -557.276; -454.503
396.634;  200.248; -200.279; -290.497
396.926;  182.202; -618.268; -565.517
397.217;  192.103;   11.725;  -17.504
397.508;   79.127; -366.273; -154.507
397.799;   67.448; -555.279; -571.497
398.090;  -25.061; -973.280; -902.495
398.381;  206.174;   11.708;  -11.473
398.672;  -50.324; -585.292; -742.473
398.963;   47.457; -348.279; -373.498
399.254;  185.689;   54.709; -209.475
399.545;  -98.776;-1017.266; -883.520
399.836;   92.979; -407.277; -343.501
400.127;   71.337; -205.295; -209.468
400.418;   84.019; -423.274; -392.506
400.709;  121.720; -359.281; -333.493
401.000;   77.295; -268.291; -309.476
401.290;  191.340;  225.698;  115.545
401.581;  137.162; -166.286; -228.485
401.872;   38.594; -542.298; -486.462
402.163;   82.926; -313.296; -252.467
402.454;  175.290; -123.291; -163.475
402.744;   89.512; -844.297; -813.465
403.035;  598.560; -226.293;  -86.471
403.326;  858.380; -366.292; -384.474
403.617;  568.686;  204.701;  165.539
403.907;  412.897; -593.283; -679.490
404.198; 4139.470; -545.307; -599.446
404.489;10369.005; -618.283; -588.491
404.779; 3593.045; -618.302; -660.456
405.070;  389.013;  -67.304; -174.451
405.360;  574.563; -259.293; -238.472
405.651;  650.963;  125.699;   98.542
405.942;  295.155;  209.714;  127.516
406.232;  416.177; -432.285; -413.487
406.523;  749.352;  641.706;  758.530
406.813;  139.158; -579.286; -644.484
407.104;  604.072;  261.708;  144.527
407.394;  281.588; -604.299; -591.462
407.685;  298.476;  336.715;  222.513
407.975;  100.403; -400.283; -382.490
408.265;  198.113; -134.289; -190.478
408.556;   89.086; -472.291; -459.475
408.846;  391.254;  474.706;  429.530
409.137;  168.525;   -1.288; -216.480
409.427;  107.177; -193.285; -271.487
409.717;   67.932; -776.273; -692.508
410.007;  233.567;    4.715; -170.486
410.298;  169.341; -360.295; -342.469
410.588;   90.073; -495.285; -510.486
410.878;   22.542; -792.287; -873.482
411.168;  203.198; -481.298; -478.463
411.459;  238.995; -295.283; -242.489
411.749;   66.184; -609.292; -507.474
412.039;   98.323; -755.289; -386.480
412.329;  409.968;   40.722;  132.501
412.619;  341.559;  -62.286; -148.485
412.909;  654.617;  639.711;  594.521
413.199;  568.540; -130.280; -251.495
413.490;  711.502;  521.710;  352.523
413.780;  201.446;-1013.279; -913.496
414.070;  581.797;  -46.276;  235.497
414.360;  587.962; -729.278; -666.498
414.650;  687.936; -726.288; -688.482
414.940;  871.645; -538.280; -441.496
415.230; 1542.132;   50.712;   74.519
415.520;10781.680;  155.730;   66.486
415.809;40259.819; -305.281; -125.493
416.099;32059.383; -388.277; -229.501
416.389; 8751.515;  435.726;  236.494
416.679; 5348.276;   91.738;   85.473
416.969;  891.649; -527.287; -503.483
417.259; 1049.149;  341.721;  171.503
417.549; 1203.117;  522.718;  318.508
417.838; 2884.006; -205.268; -147.518
418.128; 9185.210;  650.710;  492.522
418.418; 7771.442; -491.272; -579.509
418.708; 5331.016;    9.726;  -48.506
418.997;19522.109; -474.275; -480.505
419.287;20446.626; -733.273; -790.507
419.577;19460.694; -160.283; -123.489
419.866;61283.879; -588.277; -498.501
420.156;62615.773; -242.270;  -55.513
420.446;12051.264; -112.263;  -26.526
420.735; 1438.164; -376.271; -446.512
421.025; 1555.061; 1830.722;  315.502
421.314; 1144.761; -203.271; -226.512
421.604; 2153.694;   89.732;  233.484
421.893; 1240.556; -705.271; -602.511
422.183;  417.865; -487.263; -461.526
422.472;  630.758;  -36.271; -107.511
422.762;  679.733; -416.266; -379.521
423.051;  381.398; -916.276; -916.503
423.341;  498.729; -491.273; -439.507
423.630;  694.442; -121.265;   15.477
423.919;  615.408;   58.725;   49.495
424.209;  640.473;  -31.263;   56.473
424.498;  862.002;   68.732;  161.483
424.787; 1812.311; -535.267; -601.518
425.077; 5489.740;   34.735;   29.478
425.366; 7395.682; -734.262; -744.528
425.655;16354.130;  639.727;  259.493
425.945;35057.779; -313.247; -268.554
426.234;20160.116;  117.741;  300.467
426.523; 8424.924;  -86.259; -350.534
426.812;11855.527;  107.734;  159.480
427.101;17209.289; -127.269; -323.515
427.390;21291.779;  -55.270;  -86.514
427.680; 4623.254; -624.257; -411.538
427.969;  810.871; -330.255; -301.540
428.258;  540.242; -385.257; -477.536
428.547;  885.148;  449.728;  397.490
428.836; 1885.396; -421.253; -398.543
429.125; 2635.027; -199.259;  -72.534
429.414; 1280.831; -330.251; -294.548
429.703; 5419.031; -231.251; -213.548
429.992;15483.036; -938.250; -828.549
430.281;10488.054; -397.264; -331.524
430.570; 1071.716;  -21.252;   32.454
430.859;  999.524;  279.741;  352.466
431.148;  836.773;  636.752;  631.446
431.437;  598.515;  391.748;  367.454
431.725;  261.444; -544.257; -481.536
432.014;  219.707; -845.253; -756.545
432.303;  642.489; -149.239; -105.569
432.592;  984.864; -460.263; -178.525
432.881; 1726.175; -601.248; -437.554
433.169;10455.972; -343.255;  -61.540
433.458;20714.841;  445.765;  540.424
433.747; 8949.690; -397.261; -289.529
434.036; 1451.652; -275.242; -280.564
434.324; 3512.255; -395.249; -379.551
434.613; 5949.742;   40.757;  159.437
434.902; 2142.874;  333.760;  439.433
435.190;  898.787;   75.761;  295.431
435.479;  506.514;  -52.245;   83.441
435.767;  152.427; -411.244; -427.561
436.056;  368.546; -340.242; -294.563
436.345;  616.777; -372.240; -223.568
436.633;  699.048;   60.750;  383.450
436.922;  486.181;  208.760;  414.432
437.210;  889.025; -194.236;    1.426
437.499; 2646.438; -583.235; -432.576
437.787; 3026.825; -339.236;  -10.574
438.075;  860.796;   56.761;  162.430
438.364; 1140.000;  -44.238;  250.429
438.652;  668.860; -286.226; -138.592
438.941;  248.805;    3.770;  269.415
439.229;    5.512; -665.252; -466.545
439.517;  119.151; -160.234;  -85.577
439.806;   -9.716; -501.225; -290.595
440.094;  346.762;  377.766;  650.421
440.382;  272.068; -653.233; -302.580
440.670;  332.637; -361.235; -285.576
440.959;   58.111; -347.223; -170.599
441.247;  115.922; -151.229; -109.587
441.535;  201.148; -266.235;   31.423
441.823;   34.658; -497.234; -305.578
442.111;  330.829;  173.771;  327.412
442.400;  769.313; -628.245; -335.559
442.688; 1955.162; -111.234; -620.579
442.976; 1420.445; -786.213; -450.617
443.264;  151.094; -324.224; -364.597
443.552;  200.362; -258.226;   51.408
443.840;  300.146;  602.765;  876.423
444.128;  201.667;  265.767;  269.420
444.416;   10.433; -694.228; -312.588
444.704;   10.056; -465.219;  -92.605
444.992;  119.166;   -0.226;  240.407
445.280;   54.806; -517.230;  -94.585
445.568;   26.151; -694.212; -396.618
445.856;  572.632; -174.221;  357.398
446.143; 1068.351;  -54.220;   -7.604
446.431;  986.539;  -25.228;  625.411
446.719;  455.486;  489.783;  675.391
447.007;  377.997;  481.769;  705.416
447.295;  339.706;  597.777;  871.402
447.583;  100.719; -464.229;  -34.587
447.870;  226.227; -434.221; -202.601
448.158;  656.604; -104.230;  129.415
448.446;  425.852; -800.219; -338.604
448.733;  312.297;   13.776;  269.403
449.021;  440.350;   60.788;  341.382
449.309;  306.773; -296.210;  208.379
449.596;  397.080;  128.783;   59.392
449.884;  268.717; -571.222; -325.600
450.172;  234.847; -756.227; -406.590
450.459;  804.820;  645.786;  780.387
450.747; 4020.078; -411.218; -147.608
451.034;12537.240;  493.772;  889.411
451.322;10348.624; -413.214; -170.614
451.609;  945.399;  292.777;  508.403
451.897;  992.570; -550.203; -183.634
452.184; 2927.007; -622.223; -400.598
452.472; 2848.306;   97.792;  269.375
452.759;  657.653;  512.781;  864.395
453.047;  178.246; -407.212; -125.617
453.334;  160.265; -732.219; -216.606
453.621;  160.328; -438.214; -161.615
453.909;  246.057;   13.796;  384.368
454.196;  210.527; -299.199; -123.641
454.483;  394.089;  317.798;  540.364
454.771;  236.510; -215.208;  196.374
455.058;   84.316; -316.207;  102.374
455.345;  232.011;   71.807;  344.347
455.632;  211.220; -128.207;  235.373
455.919;  108.161;  -82.196;  182.354
456.207;  -84.566; -774.198; -450.642
456.494;  -32.892; -475.200;  -66.639
456.781;   21.183; -399.202; -198.635
457.068;  111.631; -253.206;  -29.628
457.355;    3.032; -698.206; -401.629
457.642;   14.741; -552.205; -290.630
457.929;   -0.602; -778.194; -417.651
458.216;  127.047; -575.212; -354.617
458.503;  425.305; -173.193;  -19.652
458.790;  377.607; -864.208; -630.625
459.077;  452.790;  -77.202;  110.364
459.364; 1341.587; -350.195; -210.649
459.651; 2774.727;  -46.206;  220.372
459.938; 1268.292; -864.209; -665.623
460.225;  293.395;  132.799;  276.363
460.512; -111.943; -836.197; -688.645
460.799;  187.076;  -32.218;  320.392
461.086;  122.315; -370.200; -251.640
461.372;   60.634; -509.198; -279.642
461.659;  192.863; -165.196;  108.354
461.946;  136.503; -445.193;  -54.651
462.233;  463.511;  842.800;  888.361
462.519;  531.006; -814.201; -464.639
462.806; 1617.658; -768.197; -497.645
463.093; 1471.734; -445.191;  -66.656
463.380;  -51.903; -920.186; -824.664
463.666;  131.760; -259.197;  -18.646
463.953;  205.679; -406.195; -243.648
464.239;  337.579; -173.195;  -77.648
464.526;  704.795;  413.806;  743.350
464.813;  497.852; -565.190; -304.658
465.099;  632.704;  606.807;  607.348
465.386;  621.810;  903.807;  921.348
465.672;   27.558; -694.197; -522.645
465.959;   40.179; -598.188; -520.662
466.245;   -3.690; -468.193; -359.652
466.532;  215.075; -109.195;   63.352
466.818;  130.397; -357.186; -216.664
467.104;   20.058; -488.182; -415.672
467.391;   -5.345; -628.189; -459.658
467.677;  106.702; -289.186;    9.335
467.964;   15.665; -682.189; -471.660
468.250;  131.407; -331.186; -160.665
468.536;  175.257;   90.811;  180.341
468.822;  -31.475; -821.184; -574.668
469.109;  324.182;  351.827;  471.311
469.395;  400.525;  729.808;  787.346
469.681;  385.461;   46.811;  156.341
469.967; 2109.768; -699.188; -382.660
470.254; 4298.581; -494.188; -306.662
470.540; 2908.961; -601.196; -476.646
470.826;  384.675; -488.181; -397.675
471.112;  556.830;  288.816;  113.331
471.398;  185.737; -253.183;  -58.670
471.684;   81.619; -626.177; -447.680
471.970;  -35.519; -918.180; -981.675
472.256;   65.623; -521.192; -441.654
472.542;   42.299; -499.171; -434.691
472.828;    7.252; -743.182; -607.672
473.114;   58.865; -380.166; -283.700
473.400;   38.044; -504.175; -293.684
473.686;   56.575; -452.166; -400.701
473.972;  109.566; -230.174; -131.687
474.258;  -85.318; -925.173; -843.689
474.544;  357.106; -183.178;   -2.679
474.830;  508.947;  -65.175;   45.316
475.116;  910.454; -123.190; -196.658
475.401; 1054.685; -558.180; -467.676
475.687;  306.083; -725.180; -718.676
475.973;    4.665; -673.181; -770.673
476.259;  443.650;  736.825;  764.315
476.544;  598.931; -539.176; -437.682
476.830; 1355.693; -398.172; -322.690
477.116; 1134.729; -430.177; -336.682
477.401;  301.984;  346.820;  358.324
477.687;  -15.856; -289.175; -405.684
477.973;  123.870;   21.819;   28.326
478.258;    0.506; -448.163; -348.706
478.544;  135.915;   21.815;   61.334
478.829; -117.393; -818.171; -738.692
479.115;  -65.708; -749.172; -651.690
479.401;   -7.940; -444.174; -449.686
479.686;  128.982; -253.180;  -74.676
479.972;  -60.186; -886.178; -776.680
480.257;   88.368; -258.166;  -65.700
480.542;    1.413; -614.170; -469.693
480.828;  490.342; 1288.824; 1392.317
481.113;  -23.062; -464.176; -426.683
481.399;   17.243; -236.161; -202.711
481.684;  -94.133; -620.166; -462.700
481.969;   69.263; -158.159;  -73.713
482.255;    6.730; -439.169; -285.695
482.540;    0.114; -569.178; -441.680
482.825;   11.590; -395.187; -404.663
483.110;  186.034;  -85.169; -105.696
483.396;  327.896; -840.157; -652.718
483.681;  877.767;  543.826;  730.313
483.966;  274.054; -696.160; -700.712
484.251;   46.465; -404.174; -310.687
484.536;   21.183; -356.165; -378.703
484.822;   50.970; -205.173; -218.687
485.107;  -59.745; -599.152; -502.726
485.392;  310.492;  662.836;  541.296
485.677;  184.850;  354.832;  163.302
485.962;  249.993;  160.843;  270.283
486.247;  216.318;  -14.162;   -8.707
486.532;   93.369; -178.166; -325.701
486.817;  323.034;  381.839;  431.291
487.102;  177.229; -453.154; -514.722
487.387; 1092.499; -637.156; -652.718
487.672; 1882.700; -154.164;  -38.705
487.957; 1204.145; -394.160; -286.711
488.241;  389.880; -290.150; -314.729
488.526; 1175.657; -280.152; -148.726
488.811; 1875.217; -881.177; -818.680
489.096; 1400.733; -666.154; -702.723
489.381;  819.051;    3.847;  162.275
489.666;  630.642; -428.161; -510.710
489.950;  388.538;  558.846;  627.277
490.235;  -61.427; -480.151; -458.728
490.520;  -72.959; -756.161; -723.710
490.804; -110.498; -827.156; -736.719
491.089;   27.104; -469.149; -299.732
491.374;   84.198; -132.164;  -75.704
491.658;  -61.678; -817.147; -717.735
491.943;  247.863; -657.152; -609.727
492.227;  414.522; -178.155;  -38.721
492.512;   99.392; -294.157; -341.717
492.797; -134.705; -713.149; -716.731
493.081;  -92.574; -588.147; -598.735
493.366;  -54.357; -751.161; -635.711
493.650;  443.207;  831.859;  917.254
493.935;   89.921; -648.147; -447.734
494.219;  -58.812; -778.142; -687.743
494.503; -105.513; -585.150; -487.730
494.788;  106.179;   46.842;   74.285
495.072;  206.882;  184.850;  434.271
495.356;  273.609; -463.148; -343.733
495.641;  685.236; -812.146; -736.736
495.925;  645.410; -976.156; -903.719
496.209;   50.803; -599.149; -451.732
496.494;  -79.711; -763.142; -544.744
496.778;   33.929; -364.154; -360.722
497.062;  -99.791; -819.156; -627.719
497.346;  -78.852; -869.160; -640.711
497.631;  304.315;  580.852;  560.266
497.915;  163.952;  -64.145;  175.261
498.199;  106.596; -341.157; -277.718
498.483;   82.754; -562.152; -508.725
498.767;  369.484;  301.850;  300.271
499.051;  352.400; -126.149; -100.732
499.335;   34.297; -693.149; -739.731
499.619;  -70.838; -381.129; -423.767
499.903;   83.620; -272.155;  -65.721
500.187;   74.440; -588.153; -316.724
500.471;  -10.838; -796.152; -595.727
500.755;  170.641;   62.839;  -96.710
501.039;   13.821; -270.155; -357.721
501.323;  156.310;  -21.141;  264.254
501.607;   46.607; -447.163; -503.706
501.891;    7.599; -607.156; -512.718
502.174;  -84.831; -726.144; -585.741
502.458;  180.168;   89.849;  370.273
502.742;   45.447; -180.138; -191.751
503.026;  176.120; -412.147; -254.734
503.310;  292.062; -437.159; -375.713
503.593;  216.723; -464.147; -325.735
503.877;  220.608; -232.133; -156.760
504.161;  310.744;    2.847;  -50.724
504.444;  175.983; -841.158; -710.716
504.728;  721.296; -487.164; -522.704
505.012; 1133.679; -257.150;  -76.729
505.295;  901.743; -417.161; -212.711
505.579;  853.909; -256.156; -496.719
505.862; 1219.047; -555.145; -333.738
506.146; 1134.865; -681.159; -758.714
506.429;  720.666;  568.841;  461.286
506.713;   88.775; -732.151; -667.728
506.996;  573.428;   90.846;  295.278
507.280;  537.489; -633.165; -474.703
507.563;  416.318; -469.155; -261.721
507.847;  141.441; -423.153; -112.724
508.130;  158.244; -665.161; -456.711
508.413;  179.561; -758.167; -577.700
508.697;  440.761; -151.167;   12.300
508.980;  270.043; -422.153; -312.724
509.263;   13.113; -466.155; -450.720
509.547;   83.879; -124.150;   82.271
509.830;   79.447; -172.160;  140.289
510.113;  186.708;  128.844;  298.281
510.396;   67.152; -530.152; -300.725
510.680;  205.749; -818.145; -812.738
510.963;  934.835;  184.846;  180.277
511.246;  717.991; -493.150; -357.730
511.529;  427.256; -482.145;  -83.739
511.812;  619.803; -250.134;   10.241
512.095;  438.270; -740.151; -396.728
512.378;  105.629; -317.147; -245.736
512.661;   43.358; -703.137; -623.753
512.944;   39.991; -750.142; -637.744
513.227;  130.054; -170.137; -171.752
513.510;   13.469; -479.144; -671.741
513.793;   55.717; -485.140; -435.747
514.076;  244.394;  -43.127;  -39.771
514.359;  190.705; -294.149; -135.732
514.642;  120.796; -442.142; -567.744
514.925; 1262.214;  581.860;  561.253
515.208; 1561.797; -498.134; -443.758
515.491; 1045.819; -276.133; -182.761
515.773;  595.675; -410.143; -337.742
516.056; 3442.468;  249.864;  409.246
516.339; 4316.474; -754.136; -652.755
516.622; 3000.887; -518.150; -488.730
516.904; 1913.286;  882.857;  975.257
517.187;  801.852; -730.138; -523.752
517.470;  598.784; -568.143; -510.743
517.752;  687.078; -624.136; -470.756
518.035;  561.133; -708.139; -725.749
518.318;  576.274; -799.136; -744.755
518.600; 3877.724; -300.132; -325.762
518.883; 5218.495;  310.858;   88.256
519.165; 2637.641; -585.138; -426.751
519.448;  619.523;  -61.132;  -19.762
519.730;  258.406; -573.126; -415.773
520.013;  582.513;  588.867;  664.240
520.295; 1200.106;  -94.134;  -15.759
520.578; 2601.143; -335.131; -305.764
520.860; 2929.424; -254.132;   56.238
521.143; 1599.182; -763.135; -584.756
521.425;  721.725; -251.125; -279.775
521.707; 1121.195; -622.127; -380.771
521.990; 2884.095; -199.127;  167.229
522.272; 3209.419; -116.140;   -4.748
522.554; 1484.876; -237.143; -157.742
522.836;  552.102;  -24.134;   99.241
523.119;  321.818; -496.148; -189.734
523.401;  215.054; -448.130; -314.766
523.683;  118.459; -865.137; -693.753
523.965;  514.249;  408.862;  260.248
524.247;  446.758;   54.878;  170.220
524.529;  329.205; -451.134; -367.759
524.812;  593.757;   -3.130;  191.234
525.094; 1325.148; -773.138; -631.751
525.376; 2088.039; -143.124;   78.223
525.658; 1291.970; -441.136; -339.754
525.940;   34.238; -805.131; -671.764
526.222;   96.375; -188.136;  -88.755
526.504;  219.135; -190.131;   32.237
526.786;  217.809; -960.133; -647.760
527.068;  440.948; -124.123;  -67.778
527.349;  121.065; -865.137; -774.754
527.631;  199.023; -137.132;   22.238
527.913;  178.393; -664.127; -450.771
528.195;  214.215; -761.125; -639.774
528.477;  393.498;  -93.134;  -30.758
528.759;  202.857; -648.130; -522.766
529.040;  128.646; -569.123; -293.778
529.322;   82.319; -235.125;  -10.774
529.604;  245.060;  -47.130;   93.233
529.886;  167.205; -546.126; -302.773
530.167;  229.147;  232.870;  192.235
530.449;  117.528;    1.853;   63.265
530.731;   19.056; -572.122; -459.779
531.012;   86.088; -513.120; -216.784
531.294;  115.048; -118.116;  -43.792
531.575;  276.725;  290.875;  538.225
531.857;   72.690; -548.135; -266.757
532.138;  261.008; -113.141;   40.254
532.420;  318.884;  294.865;  403.244
532.701;  298.613; -722.133; -751.760
532.983;  569.417;  232.867;  182.239
533.264;  224.802; -243.126;  175.228
533.546;  -46.225; -491.136; -508.755
533.827;  101.908;  173.867;   -1.759
534.109;   80.490; -352.135;  -80.757
534.390;  126.330; -725.132; -582.762
534.671;  375.084; -270.135;  -82.756
534.953;  215.150; -751.123; -611.779
535.234;   40.625; -426.117; -255.789
535.515; -174.199; -891.119; -735.785
535.796;    5.287; -431.128; -193.770
536.078; -198.961;-1050.124; -904.777
536.359;   44.051;  -22.123;    3.221
536.640;  -18.483; -480.125; -197.774
536.921;  291.868;  225.871;  143.232
537.202;  606.843;  -87.138;  -16.751
537.483;  740.543;  251.869;  377.236
537.764;  309.848;   17.870;   98.235
538.045;  -64.004; -543.134; -371.758
538.326;  -69.929; -596.129; -447.768
538.607;    7.196; -686.127; -476.771
538.888;  296.174;   98.879;    5.218
539.169;  318.066; -704.122; -535.781
539.450;  538.767;  236.871;   16.233
539.731;  332.580; -361.121; -182.783
540.012;  212.788;  199.880;  412.216
540.293;  171.130;   82.876;  158.224
540.574;  -16.920; -895.113; -717.796
540.855;  730.978;  435.879;  377.218
541.136;  800.562;   47.878;  139.220
541.416;  453.758; -161.130; -220.766
541.697;  335.636; -274.131; -170.763
541.978; 1678.787; -270.135; -315.757
542.259; 2020.896; -211.127; -236.771
542.539; 1014.338; -191.116; -186.790
542.820;  317.225;  461.875;  480.225
543.101;  237.951;  -52.145;  -77.738
543.381;   17.795; -638.127; -591.771
543.662;  481.392;  159.873; -254.771
543.942;  862.989; -751.127; -830.770
544.223; 1653.864;  193.878;  161.219
544.504; 1097.338; -275.124; -182.777
544.784;  956.805; -592.126; -408.773
545.065; 2635.144;  104.884; -254.791
545.345; 3131.901;  227.881;   14.215
545.626; 2067.178;  -14.113; -108.796
545.906; 1412.447;   77.869;   98.235
546.186;  587.312;   92.874;  -95.773
546.467;  308.642;   99.877;  -95.778
546.747;  539.938;  264.884;  327.210
547.027;  665.336;   91.876;  111.223
547.308;  530.588; -376.127; -530.770
547.588;  651.572;  299.871;  371.232
547.868;  370.748;  458.870;  588.235
548.149;  383.656;  609.885;  593.207
548.429;  216.093; -347.127; -299.771
548.709;  302.888; -645.120; -461.784
548.989;  784.216;   84.882;   88.213
549.269; 3483.721;   10.868;  139.239
549.550; 7485.248;  215.877;  117.222
549.830; 6706.506; -758.111; -556.799
550.110; 1400.617; -468.110; -320.801
550.390; 1369.557; -128.122;  -56.779
550.670; 1689.472; -868.114; -783.795
550.950; 1296.378; -509.121; -471.782
551.230;  392.072;  549.879;  460.218
551.510;    4.476; -381.121; -326.782
551.790;  100.429; -173.109; -127.803
552.070;  506.642;  940.877; 1181.223
552.350;  627.807; -492.119; -377.786
552.630;  892.768;   -2.121;   77.219
552.909;  615.045;  181.884;   73.209
553.189;  423.431;  -49.132;   33.237
553.469;  279.107; -703.119; -514.786
553.749;  290.298; -469.127; -357.772
554.029;  299.231;   33.883;  -24.790
554.308;  242.762; -154.115;  -37.794
554.588;  134.286; -196.128; -204.770
554.868;  130.379; -366.121;  -47.782
555.147;  238.158; -114.115;  -46.793
555.427; 1012.548; -260.116; -250.792
555.707; 6127.354; -284.115; -200.793
555.986; 7084.511; -719.111; -538.800
556.266; 4031.136;   23.884;   72.210
556.546;  166.876; -888.121; -675.782
556.825;  406.169; -657.114; -556.794
557.105; 2886.182; -125.128;   17.230
557.384; 3222.243;  122.884;  187.209
557.664; 1296.747; -717.116; -508.792
557.943;  211.978; -557.121; -411.782
558.222;  282.620; -345.118; -344.788
558.502;  470.060; -116.115;  -76.793
558.781;  828.953;  194.885;  499.208
559.061;  660.220; -232.118; -227.788
559.340;  517.028;  302.883;  353.211
559.619; 1174.836;   93.884;  148.210
559.899; 1615.631; -239.117; -266.789
560.178; 1479.959; -778.115; -593.793
560.457; 5139.233; -623.117; -562.790
560.736; 6765.213; -472.111; -482.800
561.015; 4671.279; -500.128; -502.769
561.295;  653.060;  180.893;  215.193
561.574;  554.155;  119.885;  116.207
561.853;  762.736;  274.891;  303.197
562.132;  826.363;  -45.114;  182.206
562.411;  734.669;  396.879;  553.219
562.690;  211.452; -592.115; -458.792
562.969;  316.289;  472.888;  630.203
563.248; 1022.566; 2966.878; 2487.219
563.527;  447.712; -290.111; -408.800
563.806;  598.893; -650.127; -521.771
564.085;  652.783; -297.105; -206.810
564.364;  410.035; -594.117; -405.790
564.643;  836.570; -276.121; -223.781
564.922; 2953.426;  221.890;  397.198
565.201; 2919.832; -640.109; -700.803
565.479; 1287.451; -297.115; -219.792
565.758;  488.683; -810.128; -712.770
566.037;  759.134; -155.109; -100.803
566.316;  386.244; -286.116;  -28.791
566.595;  105.455;  -17.115;  -12.793
566.873;  231.715; -166.111;  -79.801
567.152; -108.212; -490.113; -590.797
567.431;   56.438; -113.116;    6.210
567.709;   31.760; -344.107; -212.807
567.988;  410.368; -810.114; -769.794
568.266;  793.855; -160.115;  -68.793
568.545;  592.955; -644.100; -514.819
568.824;  999.050;  160.885;  356.208
569.102;  808.268; -351.114; -235.794
569.381;  383.948; -492.116; -407.792
569.659;  -71.817; -553.113; -553.796
569.938;   27.763; -743.122; -465.780
570.216;  203.638; -225.109; -225.804
570.494;  -50.927; -632.114; -572.795
570.773;  162.276;  202.879;  114.218
571.051;   21.247; -373.123; -357.778
571.330;  100.279; -221.113; -174.796
571.608;   71.082; -181.098; -173.823
571.886; -137.497; -671.111; -581.799
572.164; -116.921; -739.121; -621.782
572.443;  -80.312; -562.105; -512.811
572.721;  -36.767; -399.117; -289.790
572.999;   -9.677; -280.117; -168.788
573.277;  202.879;  379.894;  620.191
573.555;  518.082;   94.894;   37.190
573.834; 2087.023;  -86.117; -114.788
574.112; 2480.863;  880.893;  811.193
574.390;  815.113; -143.111;  -96.801
574.668;   53.290;  -91.112;  -61.797
574.946;   10.282; -165.106; -187.810
575.224;    9.432;   71.891;  -16.803
575.502;  -43.160; -200.116; -204.791
575.780; -154.108; -767.112; -829.798
576.058;  535.312; 1589.889; 1004.200
576.336;  -17.979; -210.110; -129.801
576.614;  -86.008; -511.112; -340.798
576.891;   88.261; -711.115; -823.794
577.169;  718.750; -158.108; -285.805
577.447;  928.863;  169.893;  202.193
577.725;  488.599;  629.888;  854.201
578.003;   39.496;  -71.112; -371.798
578.280;  138.502; -208.104; -242.812
578.558;  100.060; -450.115; -422.793
578.836;  220.872; -210.114; -145.795
579.114;   63.590; -630.112; -670.797
579.391;  154.226;   -6.117;  -18.789
579.669; -115.337; -595.114; -704.794
579.947;  296.058; -326.107; -127.806
580.224;  463.257; -692.107; -524.806
580.502;  505.864;  127.893;   76.193
580.779;   52.735;  -42.117;   75.210
581.057; -131.462; -584.109; -470.804
581.334; -188.175; -726.102; -695.815
581.612;  101.583;   54.895;  511.190
581.889;  -10.955;  -83.101; -129.818
582.167;  -48.633; -298.099; -190.821
582.444; -190.763; -845.102; -814.817
582.721;  247.938;  657.899;  715.183
582.999;   76.163; -326.100; -167.821
583.276;  793.653; -812.123; -713.779
583.553; 1063.330; -364.102; -294.816
583.831;  350.497; -607.104; -631.812
584.108;  137.847;  349.892;  174.195
584.385;   48.824; -122.102;  -98.815
584.662; -136.485; -651.111; -828.801
584.940;   84.714;  204.889;  204.199
585.217;  -58.018;  -73.113; -303.796
585.494;  134.528;   71.890;  118.198
585.771;  330.839; -250.109; -354.804
586.048;  756.882; -196.113;  -76.796
586.325;  490.319; -721.110; -773.801
586.602;  190.903;  230.896;  213.188
586.879;  -25.843; -499.100; -580.820
587.156;   78.884; -156.105; -331.810
587.433;  -61.766; -701.102; -667.817
587.710;  152.193;  152.888;  234.202
587.987;  480.092; -264.105; -236.811
588.264; 1259.996;  315.888;  387.202
588.541; 2206.706;  -61.104;   26.187
588.818; 4144.243;   72.892;  171.196
589.095; 3550.700; -163.104; -174.812
589.371;  604.436; -459.109; -414.804
589.648;   16.263; -581.107; -437.807
589.925;   37.874; -517.114; -621.795
590.202;  -21.008; -741.112; -607.798
590.478;  146.095; -166.105;  -73.811
590.755;  478.552; -241.108; -132.806
591.032; 3863.422; -741.110; -699.802
591.308; 5077.543; -732.094; -790.831
591.585; 2722.722; -573.110; -560.802
591.862;  197.636;-1056.102; -950.817
592.138;  101.648; -475.108; -474.805
592.415;  268.904; -486.104; -495.813
592.691; 2358.201;  460.896;  518.188
592.968; 2805.685; -208.098; -123.824
593.244; 1367.938; -695.116; -595.790
593.521;  135.437; -105.102;  -42.817
593.797;  -47.641; -810.122; -720.780
594.074;  524.604; -611.096; -588.826
594.350; 1079.621;  828.905;  729.172
594.626;  459.816; -303.111; -283.801
594.903;  146.237; -643.101; -645.817
595.179;  334.310;  243.896;  418.187
595.455;   13.565; -136.107; -150.807
595.731;   52.712;  -19.103;  -38.814
596.008;  -35.993; -464.111; -434.800
596.284;   76.561; -187.100; -242.820
596.560;   86.553; -501.093; -493.833
596.836;  321.088; -173.105;  -70.810
597.112;  575.550; -582.108; -437.805
597.388;  465.101;  -49.097;  -48.826
597.665;  246.286;  437.887;  530.203
597.941;  -94.002; -572.089; -658.839
598.217;   50.227; -323.110; -293.802
598.493;  405.942;   61.891; -204.804
598.769;  779.452; -175.100;  -50.819
599.045;  422.754; -490.108; -562.806
599.321;  134.859; -193.100; -261.820
599.597;  226.241; -355.109; -476.804
599.872;  800.006;  409.896;  429.187
600.148;  593.203;  -61.097; -172.826
600.424;  514.661;   91.893;  202.193
600.700;  397.565; -170.107; -280.807
600.976;  153.794; -442.097; -464.825
601.252;  411.635; -226.109; -272.803
601.527;  271.308; -833.104; -840.813
601.803;  233.196; -453.105; -404.812
602.079;  305.252; -124.100; -118.819
602.354;  846.368; -620.092; -531.835
602.630; 1274.782; -140.113; -482.796
602.906; 3798.945; -910.101; -863.818
603.181;10089.507; -627.119; -534.786
603.457; 8748.800;   98.903; -278.826
603.733; 1301.882; -605.120; -626.783
604.008; 1645.683; -245.106; -164.810
604.284; 4542.139; -636.101; -580.817
604.559; 4071.399;   -3.112;  -42.799
604.835;  763.387; -163.105; -225.810
605.110;  619.268; -732.099; -892.821
605.385; 1079.157;  224.907;  267.167
605.661;  999.525; -625.095; -729.829
605.936; 1681.754; -664.108; -737.806
606.211; 1562.422;  -17.103; -170.815
606.487;  332.466; -329.114; -376.794
606.762;   16.107; -791.119; -745.786
607.037;  -18.612; -501.105; -433.810
607.313;  -82.985; -589.096; -574.828
607.588;    7.082; -375.106; -137.810
607.863;   80.844;  -28.101; -143.818
608.138;  321.425;  513.890;  516.198
608.413;    4.274; -576.099; -592.822
608.688;  119.849; -203.108; -267.805
608.964;  325.373; -509.106; -218.809
609.239;  389.883; -107.105; -212.810
609.514;  471.496;  281.895;  240.188
609.789; 1010.202; -187.104; -716.812
610.064; 1281.413; -435.096; -609.827
610.339; 1355.336; -855.109; -799.804
610.614; 1733.960; -131.100; -315.820
610.889; 1060.096;  215.895;  107.188
611.163;   78.197; -407.104; -591.812
611.438;  171.168;   81.886; -167.794
611.713;   31.940; -467.101; -499.817
611.988;   93.243; -144.101; -328.818
612.263;  -55.475; -771.102; -717.815
612.538;  431.281;  385.887;  251.204
612.812;  249.662; -832.100; -911.820
613.087;  218.881; -358.098; -338.823
613.362;  -87.035; -497.107; -557.807
613.637;  130.016;  261.897;  138.186
613.911;  -41.531; -256.092; -345.835
614.186;  227.162; -249.107; -292.807
614.460;  964.312; -842.081; -758.854
614.735; 1184.533;  -55.087;  -17.843
615.010;  306.818;   43.912;  -82.841
615.284;  461.448;  360.892;  246.195
615.559;  522.267; -792.092; -955.835
615.833;  484.871;  -76.099;  -87.822
616.108;   12.285; -225.090; -390.837
616.382;  268.336;  274.913;  402.156
616.656;  250.186; -241.090; -232.837
616.931;  724.071; -785.099; -700.822
617.205; 1591.108; -973.104; -979.813
617.480; 1530.722;  -91.125;    6.225
617.754;  277.218; -396.125; -128.774
618.028;   42.473; -369.129; -382.768
618.302;  163.046;   73.892;  -25.805
618.577;  -87.082; -371.103; -518.815
618.851;  -85.569; -399.109; -600.803
619.125;  -69.895; -335.134; -378.759
619.399;  -24.891; -244.104; -374.813
619.673;  -81.750; -330.115; -515.792
619.947;  -65.128; -333.114; -448.795
620.222;  -20.283; -198.110; -204.801
620.496;   31.078;  -47.121;  -96.782
620.770;   24.366; -187.122;  -93.781
621.044;  348.084;  323.895;  346.190
621.318; 1095.483; -653.120; -614.783
621.592; 1012.679; -430.121; -409.783
621.866;  486.700; -476.112; -572.799
622.140;   56.340; -207.116; -356.791
622.413;  151.707;  138.889;  112.200
622.687;  -54.060; -746.101; -492.817
622.961;   68.846; -130.108; -143.805
623.235; -109.192; -633.111; -661.800
623.509; -189.805; -816.105; -848.811
623.783;   59.359;  -12.107;   48.193
624.056;  -14.116; -254.120; -280.783
624.330;  152.090;   63.888;   -3.797
624.604;   70.635; -271.116; -355.790
624.877;  133.524;  180.890;   26.198
625.151;   61.264; -249.114; -238.794
625.425;  -17.288; -150.103; -283.814
625.698;  -77.901; -367.119; -374.785
625.972; -163.873; -799.110; -765.802
626.245;  165.738;  685.884;  484.210
626.519;  -86.810; -426.120; -340.784
626.792;  -27.635; -192.107; -380.807
627.066; -145.245; -485.122; -662.779
627.339; -166.479; -736.110; -663.802
627.613;  138.588;  351.880;  148.216
627.886;  136.430;  187.891; -612.803
628.160;   12.682;  312.880; -161.783
628.433; -155.974; -695.125; -703.775
628.706; -186.610; -517.120; -615.784
628.979;   95.536;  296.876;  117.223
629.253; -164.994; -785.119; -833.786
629.526;  611.602; -334.126; -253.772
629.799;  458.947; -641.123; -479.778
630.072;  245.075; -497.128; -516.769
630.346; -136.262;-1115.116;-1080.790
630.619;  727.766; -467.107; -545.808
630.892;  995.309;  709.889;  593.200
631.165;  607.209;  790.896;  679.187
631.438; -168.504;-1092.112;-1055.798
631.711;  157.852;  453.877;  257.221
631.984; -106.869; -523.117; -624.789
632.257;  -92.974; -636.117; -681.789
632.530;  -64.201; -412.119; -433.785
632.803;   66.461; -109.115;    7.207
633.076;  -82.658; -360.123; -422.777
633.349;   84.282;  173.872;  121.231
633.622;  -22.503; -187.119; -240.785
633.895; -211.316; -903.120; -823.783
634.167; -126.894; -496.126; -525.773
634.440;  -11.852;  -19.116; -137.792
634.713;   14.404;  -22.119; -120.786
634.986;  190.166;  593.871;  453.233
635.258; -139.942; -507.115; -597.793
635.531;  209.519;  742.882; -343.788
635.804;  -37.871; -303.117; -318.789
636.077; -188.758; -830.116; -852.791
636.349;  -10.244; -586.115; -474.793
636.622;  788.301; 1695.874; 1392.228
636.894;  343.291; -474.120; -909.784
637.167;  197.992; -836.127; -789.771
637.439;   74.387; -278.128; -213.770
637.712;  -62.796; -312.126; -293.772
637.984; -132.557; -635.116; -707.791
638.257;  699.343;  515.877;  488.222
638.529;  830.128; -881.125; -924.776
638.802;  373.175; -508.128; -449.769
639.074; -193.936; -927.122; -952.781
639.346; -210.808; -942.135; -930.757
639.619;   11.493;  -79.142; -319.744
639.891;  -23.745;  -83.122; -168.779
640.163; -170.742; -689.122; -756.780
640.435;   88.160;  273.878;  103.220
640.708;   29.363;  -72.122; -132.780
640.980;  -43.734; -366.122; -362.781
641.252;  335.569;  -25.121;  -71.781
641.524; 2921.872;  580.879;  573.219
641.796; 2658.874;-1094.121; -907.782
642.068;  540.577; -191.121; -300.782
642.340;  -93.320; -486.121; -566.783
642.613;  116.683;  294.880;  323.217
642.885; -176.014; -787.120; -878.783
643.157;  -84.812; -810.120; -658.784
643.428;  156.991;  170.880;  218.216
643.700;  -77.606; -498.120; -425.784
643.972;  -44.603;  -16.119; -133.785
644.244; -139.300; -474.119; -559.785
644.516;  -34.398; -250.119; -114.786
644.788;  187.105;  662.881;  548.214
645.060;  -16.592;  -12.119; -124.786
645.332; -147.189; -525.118; -535.787
645.603;  103.413;  479.882;  342.213
645.875; -101.784; -334.118; -369.787
646.147;  379.619; 1487.882; 1242.212
646.418; -135.378; -931.117; -918.788
646.690;  157.625; -714.117; -715.789
646.962;   73.627; -413.117; -451.789
647.233;   26.930;   15.883;   11.211
647.505; -190.867; -595.117; -475.790
647.776;  115.336;  328.884;  229.210
648.048;   22.239; -248.116; -418.790
648.320; -164.659; -752.116; -679.791
648.591; -259.756;-1055.116; -958.791
648.862; -148.053; -505.116; -577.792
649.134;   48.350;  115.885;  198.208
649.405;  -78.947; -661.115; -618.792
649.677;  -95.345; -475.115; -598.793
649.948;   -1.642; -181.115; -296.793
650.219;   62.361;  -37.115; -147.793
650.491; -116.836; -431.114; -520.794
650.762; -189.833; -705.114; -731.794
651.033; -154.331; -437.114; -424.795
651.304; -160.928; -743.114; -728.795
651.576;  -98.125; -680.114; -645.795
651.847;   -1.522; -250.113; -140.796
652.118;    1.781;  -32.113; -189.796
652.389; -158.917; -639.113; -722.796
652.660;  -15.214; -147.113;  -89.797
652.931; -217.511; -897.112; -871.797
653.202; -106.908; -382.112; -541.798
653.473; -105.406; -633.112; -533.798
653.744;  208.897; -595.112; -590.798
654.015;  207.800; -356.112; -303.799
654.286; -116.397; -642.111; -663.799
654.557;  -89.394; -586.111; -521.799
654.828; -286.692;-1114.111;-1088.800
655.099; -133.289; -404.111; -291.800
655.370; -125.986; -427.111; -543.801
655.641; -181.983; -656.110; -714.801
655.911; -202.580; -618.110; -638.801
656.182;  149.822;  437.890;  387.198
656.453;  218.525;  830.890;  746.198
656.724;  -75.272; -466.110; -426.802
656.994; -123.469; -553.109; -568.803
657.265; -202.566; -862.109; -873.803
657.536; -137.464; -500.109; -377.804
657.806; -144.461; -561.109; -593.804
658.077; -267.858; -866.109; -950.804
658.347; -115.655; -523.108; -598.805
658.618; -215.652; -646.108; -694.805
658.888;  -17.950;  -41.108;  112.195
659.159; -105.547; -432.108; -548.806
659.429;  -21.444; -292.108; -349.806
659.700;   37.459; -435.107; -390.807
659.970;  -20.138; -370.107; -359.807
660.241;   12.664; -754.107; -921.807
660.511;  746.667; -147.107; -174.808
660.781;  132.370; -793.106; -748.808
661.052;  -49.527; -222.106; -381.808
661.322;    3.475;   21.894;   -9.809
661.592;   40.478;  257.894;  148.191
661.862; -109.819; -369.106; -382.810
662.133; -149.416; -551.105; -502.810
662.403; -212.813; -770.105; -676.810
662.673;  -52.311; -256.105; -213.811
662.943; -166.608; -612.105; -551.811
663.213;    1.295;  -85.105;  -81.811
663.483; -106.502; -593.104; -568.812
663.753;  -40.199; -194.104; -152.812
664.023;   10.203;   68.896;  -32.813
664.293;  -72.394; -319.104; -126.813
664.563; -214.691; -694.104; -648.813
664.833; -219.088; -743.103; -608.814
665.103; -230.585; -730.103; -793.814
665.373; -179.583; -766.103; -806.814
665.643; -183.880; -863.103; -918.815
665.913;   36.023; -534.103; -714.815
666.182;  200.626; -685.102; -719.816
666.452;  396.629;  -22.102;  -89.816
666.722;  -60.369; -724.102; -784.816
666.992; -229.366; -948.102; -921.817
667.261; -168.263; -824.102; -808.817
667.531;  362.340;  134.899;   45.183
667.801;  805.243; -440.101; -412.818
668.070;  463.945;  714.899;  697.182
668.340; -171.552; -883.101; -840.819
668.609;  196.751;  588.900;  301.181
668.879; -105.246; -490.100; -558.819
669.149; -129.244; -539.100; -516.820
669.418; -165.441; -698.100; -726.820
669.688;  -30.738; -482.100; -666.820
669.957;   78.065; -423.099; -546.821
670.226;  -19.232; -268.099; -331.821
670.496; -148.530; -431.099; -635.822
670.765;  -94.227; -418.099; -501.822
671.034; -226.224; -872.099; -828.822
671.304;   36.779;   55.902; -111.823
671.573; -281.618;-1085.098; -957.823
671.842;  140.484; -380.098; -294.823
672.112;   23.387; -692.098; -586.824
672.381;   19.190; -239.098; -214.824
672.650; -254.207;-1005.097;-1021.825
672.919; -140.704; -631.097; -507.825
673.188; -140.302; -681.097; -878.825
673.457; -263.399;-1101.097;-1143.826
673.726; -138.796; -579.096; -646.826
673.995;  -65.693; -533.096; -479.826
674.265;   -3.490; -263.096; -333.827
674.534;   39.612; -183.096; -235.827
674.802;   40.015; -618.096; -703.828
675.071; 1634.818; -886.095; -801.828
675.340; 5748.621; -464.095; -339.828
675.609; 1985.824;  103.905;   82.171
675.878;   80.126; -949.095; -893.829
676.147;   88.929;  -26.095;   -8.829
676.416;  190.832; -210.094; -294.830
676.685; 1170.835; 1000.906; -622.830
676.953;  154.437; -603.094; -452.831
677.222;  -54.560; -193.094; -273.831
677.491;  -29.157;  -24.094; -127.831
677.759;   23.646;   11.907;  172.168
678.028;   -6.151; -279.093; -222.832
678.297;   41.551;   71.907;  197.168
678.565; -241.646; -898.093; -944.833
678.834;  -75.943; -311.093; -268.833
679.102; -119.440; -411.092; -391.834
679.371; -218.237; -898.092; -727.834
679.639; -253.635; -797.092; -786.834
679.908; -215.832; -794.092; -724.835
680.176; -252.829; -895.091; -941.835
680.445;  -93.226; -346.091; -352.835
680.713;   16.577;  -58.091;  -23.836
680.982; -157.121; -523.091; -525.836
681.250; -178.118; -578.091; -507.837
681.518; -149.215; -534.090; -751.837
681.787;  -15.012; -204.090; -167.837
682.055;  -75.109; -490.090; -422.838
682.323; -268.507; -993.090; -992.838
682.591;   54.696; -216.090; -538.838
682.859;  161.399;    9.911;  -35.839
683.128;   89.602;  232.911;  497.161
683.396; -297.495;-1102.089;-1122.840
683.664;  -34.593; -241.089;   21.160
683.932;   44.910;  144.911;  -76.840
684.200; -122.087; -576.088; -320.841
684.468;  -13.984;  -73.088; -124.841
684.736;  -35.382; -214.088; -175.841
685.004; -232.279;-1024.088; -982.842
685.272;  -95.376; -880.088; -774.842
685.540; -123.373; -499.087; -557.843
685.808; -131.370; -651.087; -682.843
686.076; -182.668; -894.087; -969.843
686.343; -111.965; -601.087; -815.844
686.611;   78.138; -195.087; -224.844
686.879;  804.341; -530.086; -553.844
687.147; 4950.244; -483.086; -480.845
687.414; 1365.046;  -12.086; -169.845
687.682;   17.849; -658.086; -757.846
687.950;  561.652;  259.915;  263.154
688.217;  -33.945; -792.085; -760.846
688.485;   -4.442; -632.085; -636.847
688.753;  792.660;  -11.085; -102.847
689.020;  197.763; -820.085; -851.847
689.288; -158.034; -853.084; -787.848
689.555;    0.069; -195.084; -148.848
689.823;  -37.128; -241.084; -345.849
690.090; -142.726; -546.084; -651.849
690.358; -262.423; -877.084; -897.849
690.625;   80.780;  120.917;   45.150
690.892; -130.017; -403.083; -369.850
691.160;   15.486;   72.917;  -35.850
691.427;   53.988;  141.917;  130.149
691.694; -222.209; -855.083; -929.851
691.962; -248.306;-1177.082;-1060.852
692.229;   82.097;  127.918;   56.148
692.496;  183.699;  130.918;  -49.852
692.763;   40.702; -164.082; -201.853
693.031;  -99.595; -739.082; -716.853
693.298;  -59.392; -509.081; -368.853
693.565;  525.311; -155.081; -163.854
693.832; 1876.713;   -5.081;   -9.854
694.099;  245.816; -643.081; -642.855
694.366;  -81.781; -882.081; -896.855
694.633; -102.578; -920.080; -633.855
694.900; 1550.025; 4367.920; -114.856
695.167;  660.427; -214.080; -380.856
695.434;  165.130; -646.080; -623.856
695.701;  386.133;  121.921;  -61.857
695.968;  736.836; -365.079; -361.857
696.234; 1771.139; -415.079; -646.858
696.501;16742.241; -776.079; -614.858
696.768; 7938.144; -554.079; -617.858
697.035;  526.847; -632.078; -667.859
697.302;   64.250; -448.078; -552.859
697.568;   26.153; -458.078; -497.859
697.835;  -70.945; -683.078; -624.860
698.102;    3.458; -498.078; -407.860
698.368;  195.561;  384.923;  396.139
698.635;  -33.236;  -47.077; -424.861
698.901;   -7.033; -240.077; -348.861
699.168;  100.069; -534.077; -456.862
699.435;  146.672;  -72.077;  -13.862
699.701; -209.325; -868.076; -764.862
699.968;  -77.522;  144.924; -441.863
700.234; -153.919; -783.076; -822.863
700.500;  -71.617; -448.076; -539.864
700.767;   36.986;   -1.075;   26.136
701.033; -226.711;-1015.075; -963.864
701.299;  -54.508; -450.075; -483.865
701.566;  335.794;  950.925;  763.135
701.832;   95.597;  -31.075;  -76.865
702.098; -186.100;-1054.074;-1034.866
702.365; -164.297;-1098.074;-1030.866
702.631;  -52.594;-1038.074;-1063.867
702.897; 2101.108; -765.074; -676.867
703.163; 3261.111;  348.926;  254.133
703.429;  259.214; -256.073; -273.868
703.695;  -59.283; -796.073; -792.868
703.961;   73.820; -214.073; -210.868
704.227;  -98.278; -630.073; -725.869
704.493;  299.325;  613.927;  510.131
704.759;  -35.972; -565.072; -540.870
705.025;   64.131; -203.072; -194.870
705.291;  -26.566; -666.072; -562.870
705.557;  377.736;  719.928;   34.129
705.823;   20.739; -742.072; -694.871
706.089;  238.642; -307.071; -326.871
706.355;  670.645; -315.071; -244.872
706.620; 9442.148; -776.071; -729.872
706.886;11883.350; -309.071; -362.873
707.152; 1083.553; -818.070; -973.873
707.418;  -52.444;-1153.070;-1186.873
707.683;   23.359; -550.070; -530.874
707.949;  -45.438; -547.070; -578.874
708.215;   16.364; -129.070; -207.874
708.480;  -12.833; -520.069; -420.875
708.746;  200.670;   68.931;   28.125
709.011;  -81.627; -578.069; -612.876
709.277; -122.325; -538.069; -543.876
709.542;  -56.622; -428.069; -387.876
709.808;   54.181;  -59.068;   89.123
710.073; -144.716; -577.068; -695.877
710.339;   -4.113; -242.068; -228.877
710.604;  103.989; -780.068; -845.878
710.869;  494.892; -277.068; -366.878
711.135; -130.105; -715.067; -628.879
711.400; -138.802; -507.067; -608.879
711.665;  -70.199; -404.067; -479.879
711.931; -144.697; -661.067; -677.880
712.196; -190.494; -876.067; -954.880
712.461;  180.509; -402.066; -490.880
712.726;  161.712; -727.066; -771.881
712.991; -138.185; -647.066; -664.881
713.256;  -38.983; -350.066; -332.882
713.521;  -67.080; -417.065; -381.882
713.787;  -75.377; -454.065; -472.882
714.052;  -12.474; -214.065; -400.883
714.317; -184.371;-1045.065; -981.883
714.581; 1757.431; -374.065; -268.883
714.846; 1994.234; -822.064; -888.884
715.111;  269.237;  261.936;  257.116
715.376;    9.340;  -86.064; -223.885
715.641;   -6.257; -365.064; -367.885
715.906;  456.445;   15.936; -551.885
716.171;  297.248;  221.937;  209.114
716.436;   81.651;  -78.063; -104.886
716.700; -155.646; -818.063; -692.886
716.965; -217.944; -794.063; -807.887
717.230;  -83.041; -339.063; -392.887
717.494;   16.962;  -40.062; -134.888
717.759; -124.835; -784.062; -640.888
718.024;   67.568;  269.938;  250.112
718.288;  187.670;  685.938;  395.111
718.553; -232.127; -803.062; -977.889
718.817; -250.724; -883.061; -899.889
719.082;   -9.421; -115.061; -125.890
719.346; -224.418;-1000.061; -947.890
719.611;  -34.516; -300.061; -255.891
719.875; -156.513; -568.060; -537.891
720.140;  -92.010; -453.060; -603.891
720.404;   81.793; -136.060; -249.892
720.668; 1287.396; -475.060; -411.892
720.933;  531.998;  146.940;  137.108
721.197; -157.999; -667.059; -600.893
721.461; -214.096; -851.059; -826.893
721.725;   33.907;  -21.059; -250.894
721.990;  -55.490; -284.059; -204.894
722.254;   -1.788;  -26.059; -108.894
722.518;  -90.285; -286.058; -442.895
722.782; -135.482; -743.058; -594.895
723.046;  265.921;  614.942;  570.105
723.310;  141.524;  374.942;  210.104
723.574; -132.874; -654.058; -614.896
723.838; -154.071; -576.057; -642.897
724.102;  -19.868; -226.057; -239.897
724.366; -240.365;-1032.057; -978.897
724.630; -125.263; -749.057; -571.898
724.894; -110.760; -722.057; -514.898
725.158;   26.143;   38.944; -295.898
725.422;  -58.054; -394.056; -327.899
725.685;  -68.051; -441.056; -349.899
725.949; -125.049; -566.056; -519.900
726.213; -108.846; -732.056; -811.900
726.477;  268.657;-1020.055; -933.900
726.740;  224.660; -274.055; -104.901
727.004;  580.563; -384.055; -510.901
727.268; 5159.165; -442.055; -400.901
727.531; 1286.868; -961.055; -775.902
727.795;  -87.029; -713.054; -673.902
728.059; -104.126; -552.054; -557.903
728.322; -115.323; -841.054; -669.903
728.586;   38.979; -692.054; -701.903
728.849; -125.418; -695.053; -756.904
729.112; -165.415; -812.053; -912.904
729.376; -229.912; -959.053; -905.904
729.639; -108.009; -536.053; -536.905
729.903; -187.707; -733.053; -699.905
730.166;  -73.504; -437.052; -399.906
730.429;    8.499; -317.052; -468.906
730.693; -109.298; -355.052; -894.906
730.956;  446.005;  810.948;  651.093
731.219; 1065.207; -310.052; -103.907
731.482;  193.210;-1003.051; -894.907
731.745;   91.413; -794.051; -935.908
732.009;   88.116;  -30.051;   50.092
732.272; -146.682; -904.051; -771.909
732.535;  -15.379; -300.051; -310.909
732.798; -281.576;-1083.050;-1166.909
733.061;  -87.773; -430.050; -456.910
733.324;   67.830;   31.950; -180.910
733.587;  173.132;  290.950;  365.090
733.850;  -92.665; -973.049;-1050.911
734.113;  122.738;   33.951;   32.089
734.376;   21.441; -328.049; -447.912
734.639;  455.644; 1188.951; 1011.088
734.901;  155.546; -180.049; -402.912
735.164;  794.249; -883.048; -837.913
735.427; 1910.052; -166.048; -355.913
735.690;  206.255; -205.048; -234.913
735.952;  -84.142; -923.048; -925.914
736.215;  -81.940;-1113.048;-1009.914
736.478;   43.663; -771.047; -774.915
736.740;  367.466;   33.953;  129.085
737.003; 1181.369; -658.047; -672.915
737.266; 5990.672;  -94.047;   46.084
737.528;  643.874; -682.047; -660.916
737.791;  546.477; -316.046; -327.916
738.053; 1473.180;  465.954;  649.083
738.316;17773.383; -162.046; -136.917
738.578;10877.386; -770.046; -736.918
738.841;  756.688; -382.046; -446.918
739.103;  336.491; -875.045; -777.918
739.365;  814.094;   79.955;  -69.919
739.628;   -6.203; -884.045; -805.919
739.890;  -23.501; -758.045; -710.919
740.152;  -36.798; -692.044; -754.920
740.414;   18.105; -408.044; -359.920
740.677;  -52.892; -785.044; -634.921
740.939;  -65.989; -587.044; -487.921
741.201;  425.713; -432.044; -572.921
741.463;   31.716; -689.043; -745.922
741.725;   53.519;  -21.043; -199.922
741.987;  151.422;  220.957;  116.078
742.249;    7.925; -751.043; -859.923
742.511;  310.827; -703.043; -794.923
742.773;   16.230; -546.042; -546.924
743.035;  255.033;  796.958;  533.076
743.297;  -69.864; -963.042;-1013.924
743.559; 1142.539; -278.042; -262.925
743.821;   79.441; -735.042; -744.925
744.083;   52.544;  -44.041; -149.925
744.345; -140.553; -869.041; -892.926
744.607;  115.750;   75.959;  122.074
744.868;  -67.147; -490.041; -554.927
745.130; -197.445; -994.041;-1008.927
745.392;   87.058;   -1.040;  -44.927
745.653;   52.261; -411.040; -378.928
745.915;  356.064;  896.960;  631.072
746.177;  138.167;   35.960;  -43.928
746.438;    6.369; -428.040; -543.929
746.700;  -83.528; -947.039; -988.929
746.961;   -9.225; -659.039; -740.930
747.223;  253.878; -190.039;  -74.930
747.484;  152.280; -391.039; -471.930
747.746;  289.583;  -23.038; -106.931
748.007;  183.786; -647.038; -689.931
748.269;  517.789; -468.038; -440.931
748.530;  710.192; -852.038; -638.932
748.791;  431.194; -354.038; -420.932
749.053;  754.897;  286.963;  163.067
749.314;  760.600; -236.037; -169.933
749.575;  751.803; -945.037; -905.933
749.836; 1295.306; -217.037;   86.066
750.098; 4403.908;  -60.037;  -21.934
750.359;54543.211;  414.964;  555.066
750.620;12428.114; -121.036; -220.935
750.881; 1617.217; -585.036; -513.935
751.142; 2292.320; -950.036; -938.936
751.403;27101.522; -789.036; -705.936
751.664;10262.325;-1034.035; -999.936
751.925;  782.228; -175.035; -262.937
752.186;  502.331; -298.035; -278.937
752.447;  243.334; -590.035; -445.937
752.708;   97.636; -532.035; -648.938
752.969;   71.039; -566.034; -576.938
753.230;   -7.558; -777.034; -672.939
753.491;   10.545; -650.034; -631.939
753.751;  148.148;  109.966;   19.061
754.012;  222.450;  258.967;  181.060
754.273;  130.053; -174.033;  -71.940
754.534;   38.756; -487.033; -580.940
754.794; -147.041; -926.033; -911.941
755.055;  370.761; 1051.967;  881.059
755.316;  -62.536; -700.032; -566.942
755.576;  -14.833; -606.032; -576.942
755.837;  -45.030; -527.032; -695.942
756.097;  -51.227; -530.032; -564.943
756.358; -117.725; -725.032; -770.943
756.618;  -52.722; -705.031; -641.943
756.879;   38.181; -254.031; -349.944
757.139; -254.216;-1098.031;-1116.944
757.400;  -74.213; -538.031; -553.945
757.660;   24.089; -365.031; -401.945
757.920;   47.092; -266.030; -228.945
758.181;   22.595; -468.030; -351.946
758.441; -148.702; -870.030; -809.946
758.701;   -9.099; -308.030; -215.946
758.961;   -7.997; -220.030; -278.947
759.222;  -29.694; -574.029; -502.947
759.482; -121.591; -683.029; -723.948
759.742; -101.788; -706.029; -547.948
760.002;   59.615;  -83.029; -143.948
760.262;   99.817;   50.972;  182.051
760.522;  -33.980; -498.028; -574.949
760.782;  -66.677; -738.028; -612.949
761.042;  -28.974; -618.028; -573.950
761.302;  139.429;   55.972;  -18.950
761.562;  137.131; -164.027; -154.951
761.822;  158.334; -710.027; -551.951
762.082;  -19.563;-1104.027;-1093.951
762.342;  153.140; -328.027; -403.952
762.601;  149.742; -567.027; -506.952
762.861;  636.945; -281.026; -207.952
763.121;  825.848; -406.026; -411.953
763.381;14417.951; -499.026; -485.953
763.640;13170.254; -139.026; -307.954
763.900;  668.656; -242.026; -203.954
764.160;  194.359; -458.025; -491.954
764.419;   16.662; -726.025; -782.955
764.679;  -92.035; -795.025; -726.955
764.939;   46.068; -124.025; -210.955
765.198;  -99.930; -608.025; -563.956
765.458;  -80.327; -710.024; -612.956
765.717; -126.324; -454.024; -590.957
765.976;  -30.921; -428.024; -411.957
766.236; -105.018; -475.024; -610.957
766.495;  110.384;  260.977;   73.042
766.755; -177.413;-1090.023; -987.958
767.014;    8.090; -594.023; -665.958
767.273;  -65.207; -373.023; -397.959
767.533;  -11.604; -228.023; -307.959
767.792;  -17.402; -151.022; -188.960
768.051;  -35.899; -228.022; -276.960
768.310; -103.196; -546.022; -650.960
768.569;   28.807; -161.022;    4.039
768.828;  -17.690; -285.022; -363.961
769.088; -226.288;-1050.021; -942.961
769.347; -117.685; -755.021; -599.962
769.606; -137.482; -876.021; -857.962
769.865; -204.979;-1016.021;-1033.963
770.124;   49.123; -411.021; -336.963
770.383; -109.074; -778.020; -910.963
770.641;   26.029; -398.020; -400.964
770.900;  -99.768; -953.020; -846.964
771.159;  -43.765; -851.020; -951.964
771.418;  -19.763; -917.020; -779.965
771.677;  246.940; -224.019; -293.965
771.936;  230.943; -794.019; -865.966
772.194; 4406.246; -465.019; -437.966
772.453;17257.149; -213.019; -391.966
772.712; 1294.851;  416.982;  329.033
772.970;  283.454;   32.982;   63.033
773.229;  220.957;  -22.018;  102.033
773.488; -148.840; -814.018; -770.968
773.746;  164.863;  296.982;  335.032
774.005;   47.265;  190.983;  -22.969
774.263;   92.168;  243.983;  177.031
774.522; -139.329; -422.017; -548.969
774.780;  -99.526; -484.017; -417.970
775.039; -125.623; -551.017; -531.970
775.297;   14.579; -135.016; -351.970
775.555; -153.618; -489.016; -612.971
775.814; -189.815; -618.016; -570.971
776.072; -236.312; -749.016; -740.971
776.330; -138.809; -630.016; -520.972
776.589; -187.607; -703.015; -721.972
776.847; -195.304; -645.015; -624.973
777.105; -259.101;-1016.015;-1032.973
777.363; -109.498; -459.015; -454.973
777.621; -219.996; -660.015; -717.974
777.879;    4.407;  -42.014;   32.026
778.138; -153.090; -554.014; -717.974
778.396; -155.287; -585.014; -526.975
778.654; -308.884;-1015.014; -970.975
778.912;  -44.182; -269.014; -371.976
779.170; -226.379; -880.013; -803.976
779.427; -230.376; -922.013; -897.976
779.685; -210.773; -880.013; -832.977
779.943; -130.570; -654.013; -593.977
780.201; -257.668; -964.012; -883.978
780.459; -174.765; -651.012; -610.978
780.717; -103.062; -440.012; -390.978
780.974; -162.859; -449.012; -490.979
781.232;  -94.756; -358.012; -338.979
781.490; -101.154; -551.011; -472.979
781.747; -113.351; -555.011; -476.980
782.005;  130.052;  462.989;  254.020
782.263; -301.845; -542.011;-1004.981
782.520; -107.142; -326.011; -501.981
782.778; -277.340;-1013.010;-1051.981
783.035; -279.837; -962.010; -938.982
783.293;  -72.934; -248.010; -206.982
783.550;  -54.231; -134.010; -198.982
783.808; -208.228; -764.010; -776.983
784.065; -276.226; -745.009; -874.983
784.322;  -35.323;   25.991;  -86.984
784.580; -226.220; -915.009; -771.984
784.837; -124.717; -392.009; -466.984
785.094; -216.415; -783.009; -762.985
785.352;  -89.212; -304.008; -404.985
785.609; -168.709; -934.008; -839.985
785.866;  -95.506; -345.008; -401.986
786.123; -112.303; -639.008; -583.986
786.380; -187.701; -665.008; -604.987
786.637;  -29.098; -225.007; -380.987
786.895;  -35.995; -456.007; -543.987
787.152;  -19.792; -135.007; -267.988
787.409;  -46.089; -123.007; -225.988
787.666; -107.687; -299.006; -378.988
787.923; -157.684; -616.006; -695.989
788.179; -145.281; -551.006; -584.989
788.436; -186.778; -585.006; -585.990
788.693;    3.725;  -92.006;  -87.990
788.950;  312.627; -125.005; -112.990
789.207;  288.430; -381.005; -372.991
789.464;  -20.167; -161.005; -301.991
789.720;   43.236;  150.995;  110.009
789.977; -277.461;-1003.005; -671.992
790.234;   30.541;   44.996;  -66.992
790.490; -219.056; -884.004;-1031.993
790.747;   39.647;  -85.004;   22.007
791.004;   -4.150; -426.004; -348.993
791.260; -113.847; -430.004; -560.994
791.517; -174.445; -843.003; -788.994
791.773;  -39.142; -379.003; -342.994
792.030; -162.139; -596.003; -660.995
792.286; -144.636; -686.003; -636.995
792.543;   44.766;  -74.002; -159.995
792.799;  -39.931; -584.002; -382.996
793.055; -281.528;-1179.002;-1210.996
793.312; -155.325; -827.002; -816.997
793.568;  -69.422; -746.002; -599.997
793.824;   60.980; -226.001; -284.997
794.081;   31.783; -447.001; -508.998
794.337;  153.386; -664.001; -561.998
794.593; 2845.989; -319.001; -271.999
794.849;10765.792; -746.001; -772.999
795.105;  514.194; -270.000; -261.999
795.361;   54.197; -490.000; -457.000
795.617;  -89.600; -875.000; -945.000
795.873;  -31.500; -360.000; -407.000
796.129;  -30.200; -368.000; -306.000
796.385;   28.900; -124.000; -156.000
796.641;  226.000;  412.000;  550.000
796.897; -107.400; -666.000; -635.000
797.153;  202.400;  453.000;  357.000
797.409; -135.400; -785.000; -868.000
797.665; -113.200; -625.000; -732.000
797.921; -109.200; -775.000; -762.000
798.176;  -72.200; -744.000; -747.000
798.432;  -88.200; -824.000; -596.000
798.688; -159.800;-1174.000;-1078.000
798.943;  169.100; -165.000; -147.000
799.199;  -26.800;-1005.000; -959.000
799.455;  470.100;  369.000;  316.000
799.710;  231.000; -813.000; -380.000
799.966;  501.600; -162.000; -160.000
800.221;  811.100; -638.000; -721.000
800.477;18499.000; -743.000; -710.000
800.732;12751.300; -773.000; -800.000
800.988; 1035.400;  205.000;  -19.000
801.243; 3787.900; -454.000; -344.000
801.498;12708.700; -814.000; -739.000
801.754;  703.700; -289.000; -163.000
802.009;  231.300; -257.000; -335.000
802.264;  -43.200; -967.000;-1033.000
802.520;   98.400;  222.000;   -3.000
802.775;  -23.800; -524.000; -359.000
803.030;  181.600;  395.000;  356.000
803.285; -185.300; -840.000; -903.000
803.540;  -60.200; -686.000; -699.000
803.795;  -70.300; -648.000; -583.000
804.051;    7.800; -279.000; -346.000
804.306;  106.700;  168.000;  128.000
804.561;  294.700;  451.000;  362.000
804.816;  327.300;  714.000;  861.000
805.071;   57.900; -185.000; -280.000
805.325;  311.200; -257.000; -427.000
805.580; -129.000; -841.000; -877.000
805.835;   39.500; -204.000; -297.000
806.090;  -93.800; -760.000; -676.000
806.345;   28.600; -344.000; -264.000
806.600;  -13.300; -549.000; -632.000
806.854;    1.600; -408.000; -538.000
807.109;    9.400; -493.000; -577.000
807.364;   59.000; -407.000; -328.000
807.618;   58.000; -415.000; -381.000
807.873;  102.400; -470.000; -494.000
808.128;  198.900; -257.000; -518.000
808.382;  204.600; -224.000; -332.000
808.637;  162.200; -440.000; -511.000
808.891;  354.200; -257.000; -180.000
809.146;  188.200; -902.000; -794.000
809.400;  431.600; -848.000; -923.000
809.654;  613.100; -779.000; -551.000
809.909;  886.400; -841.000; -927.000
810.163;12968.000; -813.000; -651.000
810.418;26009.600; -940.000; -861.000
810.672; 1674.000; -685.000; -690.000
810.926; 1249.000; -993.000; -973.000
811.180; 2749.900; -439.000; -372.000
811.434;58784.500;  240.000;  135.000
811.689;18638.800; -231.000; -365.000
811.943; 1063.900; -936.000; -953.000
812.197;  622.800; -893.000; -671.000
812.451;  281.500; -379.000; -514.000
812.705;   -8.000; -809.000; -619.000
812.959;  -55.000; -263.000; -388.000
813.213;   70.200; -283.000; -209.000
813.467;  208.300;  470.000;  253.000
813.721; -149.900; -764.000; -792.000
813.975; -170.700; -826.000; -877.000
814.229;  156.400;  430.000;  353.000
814.482; -100.000; -517.000; -566.000
814.736; -199.000; -766.000; -744.000
814.990; -170.300; -779.000; -872.000
815.244;   -6.700; -228.000; -285.000
815.497; -125.700; -636.000; -601.000
815.751;   67.600; -141.000;   82.000
816.005; -103.000; -470.000; -586.000
816.258;  -59.800; -510.000; -363.000
816.512; -151.100; -693.000; -610.000
816.766;   96.700;  121.000;  157.000
817.019;  128.000;  148.000;  149.000
817.273; -169.200;-1000.000; -802.000
817.526;    2.700; -206.000; -173.000
817.779;  -54.100;-1049.000; -960.000
818.033; -130.400; -693.000; -807.000
818.286; -179.700; -725.000; -792.000
818.540; -117.700; -403.000; -403.000
818.793;  -91.700; -402.000; -489.000
819.046; -124.400; -582.000; -520.000
819.299;    9.900; -157.000; -166.000
819.553; -149.600; -552.000; -592.000
819.806; -247.300;-1016.000; -838.000
820.059;  -66.200; -334.000; -354.000
820.312;  101.100;  152.000;  185.000
820.565;   28.000;  110.000;  -27.000
820.818;  -36.300;  -59.000; -173.000
821.071; -278.200;-1041.000; -957.000
821.324; -152.900; -536.000; -540.000
821.577; -139.800; -457.000; -483.000
821.830;  -75.100; -270.000; -172.000
822.083; -206.400; -733.000; -288.000
822.336;  -40.900; -261.000; -167.000
822.589; -218.700; -805.000; -688.000
822.842; -235.500; -875.000; -770.000
823.094; -300.900;-1076.000;-1114.000
823.347; -199.300; -925.000; -729.000
823.600;   97.500;  402.000;  187.000
823.853;  -12.800; -311.000; -267.000
824.105; -100.500; -331.000; -575.000
824.358; -143.100; -617.000; -716.000
824.611;  124.200;  234.000;   40.000
824.863;  -61.000; -612.000; -591.000
825.116;  150.800;  -33.000;   27.000
825.368;  144.500; -366.000; -372.000
825.621;  273.600; -186.000; -240.000
825.873;  138.700; -704.000; -737.000
826.126; 1170.800; -669.000; -641.000
826.378;19279.100; -389.000; -505.000
826.630; 3475.000; -890.000; -898.000
826.883;   63.300; -754.000; -693.000
827.135;  135.400; -279.000; -270.000
827.387; -185.900; -893.000; -839.000
827.639;    1.400;  -86.000;   32.000
827.892; -191.700; -742.000; -582.000
828.144; -210.100; -848.000; -804.000
828.396;   18.300;  104.000;  -80.000
828.648; -148.300; -440.000; -333.000
828.900; -242.600; -702.000; -795.000
829.152; -185.500; -684.000; -683.000
829.404;  -50.500; -215.000; -267.000
829.656;   52.300;  321.000;  214.000
829.908;   40.800;  393.000;  229.000
830.160; -268.300;-1064.000;-1047.000
830.412; -140.500; -481.000; -430.000
830.664; -165.800; -557.000; -665.000
830.916;  -92.300; -268.000; -206.000
831.167; -285.100;-1073.000; -951.000
831.419; -151.300; -623.000; -566.000
831.671; -226.000; -764.000; -809.000
831.923; -111.900; -311.000; -447.000
832.174;  -84.200; -273.000; -331.000
832.426; -163.900; -493.000; -582.000
832.678; -301.800;-1043.000;-1091.000
832.929; -238.500; -947.000; -935.000
833.181;  -88.400; -575.000; -677.000
833.432;  -73.700;  -59.000; -186.000
833.684;   28.100;  112.000;  -27.000
833.935; -151.900; -610.000; -566.000
834.187; -177.700; -829.000; -823.000
834.438;  -19.700;  -58.000;  -25.000
834.689;  -33.900; -255.000; -123.000
834.941;  -42.200; -343.000; -244.000
835.192; -171.600; -590.000; -533.000
835.443; -115.100; -419.000; -506.000
835.695;   52.100;  138.000;  -16.000
835.946; -101.400; -608.000; -378.000
836.197; -171.100; -599.000; -622.000
836.448; -113.600; -528.000; -395.000
836.699;  -42.500; -253.000; -341.000
836.950;   82.500;   72.000;    7.000
837.201; -233.200;-1003.000; -987.000
837.452;  -46.800; -356.000; -170.000
837.703; -182.000; -791.000; -737.000
837.954;  -28.100; -205.000; -365.000
838.205; -142.000;-1029.000;-1008.000
838.456;  299.700; -196.000; -282.000
838.707;   28.000; -423.000; -519.000
838.958;   40.500; -634.000; -647.000
839.209;  480.700;   18.000;   40.000
839.460;  221.300; -439.000; -201.000
839.710;  324.100; -135.000; -297.000
839.961;  808.600;  730.000;  612.000
840.212;  544.300; -382.000; -497.000
840.462; 2083.900; -328.000; -277.000
840.713;30722.200; -571.000; -536.000
840.964; 9269.800;  -62.000; -143.000
841.214;  823.600; -384.000; -624.000
841.465;  988.600; -214.000; -141.000
841.715;  833.500; -417.000; -380.000
841.966; 1122.700; -746.000; -685.000
842.216;18319.000; -330.000; -431.000
842.466;52997.600; -169.000; -313.000
842.717; 2058.300; -964.000; -952.000
842.967;  569.700; -635.000; -641.000
843.217;  477.000;   20.000;   28.000
843.468;  187.500; -104.000; -132.000
843.718;  -60.700; -718.000; -726.000
843.968; -152.900; -837.000; -765.000
844.218;   92.800; -315.000; -262.000
844.469;  -66.900; -577.000; -561.000
844.719; -169.500; -537.000; -682.000
844.969; -116.100; -550.000; -580.000
845.219; -217.300; -814.000; -862.000
845.469; -112.300; -392.000; -342.000
845.719; -228.300; -792.000; -884.000
845.969;   36.400;  119.000;  174.000
846.219; -168.700; -738.000; -720.000
846.469;  125.900;  464.000;  432.000
846.718;  -32.400; -115.000;   31.000
846.968; -212.600; -827.000; -827.000
847.218;  -53.200; -224.000; -371.000
847.468; -159.100; -586.000; -555.000
847.718; -235.900; -827.000; -798.000
847.967; -192.900; -826.000; -915.000
848.217;  -76.900; -449.000; -569.000
848.467;  -48.300; -405.000; -376.000
848.716; -134.500; -708.000; -725.000
848.966;    6.600; -372.000; -358.000
849.215;  -66.700; -428.000; -419.000
849.465; -141.900; -785.000; -615.000
849.714; -238.400;-1132.000;-1150.000
849.964;  -67.000; -551.000; -613.000
850.213;   19.300; -393.000; -355.000
850.463;  209.100;  137.000;  340.000
850.712;   34.300; -542.000; -567.000
850.961;   47.800; -739.000; -678.000
851.211;  175.900; -513.000; -504.000
851.460;  281.500; -635.000; -650.000
851.709; 1004.300;  -25.000;   18.000
851.958;18847.800; -912.000; -750.000
852.208;17686.300; -859.000; -879.000
852.457;  686.900; -181.000;  -13.000
852.706;  111.400; -791.000; -823.000
852.955;   35.300; -507.000; -528.000
853.204; -111.600; -521.000; -461.000
853.453; -109.300; -418.000; -458.000
853.702; -227.300; -660.000; -750.000
853.951; -151.000; -532.000; -520.000
854.200; -156.100; -613.000; -562.000
854.449; -190.900; -695.000; -661.000
854.698; -141.300; -340.000; -279.000
854.946;  -60.000; -181.000; -284.000
855.195; -226.700; -843.000; -868.000
855.444; -106.900; -395.000; -420.000
855.693; -134.900; -345.000; -432.000
855.941; -153.700; -387.000; -516.000
856.190;  -69.800; -256.000; -382.000
856.439; -200.700; -652.000; -703.000
856.687;  -25.300;  -99.000;  -72.000
856.936; -181.400; -621.000; -323.000
857.184; -307.200;-1067.000;-1020.000
857.433; -127.900; -423.000; -512.000
857.681; -273.500; -989.000; -953.000
857.930;  -62.200; -282.000; -433.000
858.178; -249.500; -856.000; -929.000
858.427; -248.600; -802.000; -781.000
858.675; -167.400; -377.000; -544.000
858.923; -198.700; -527.000; -819.000
859.172; -286.900;-1094.000;-1070.000
859.420;  -85.600; -339.000; -239.000
859.668; -191.100; -624.000; -628.000
859.916;   -6.000;  109.000;  115.000
860.164; -192.600; -699.000; -603.000
860.413;  519.700; -878.000; -696.000
860.661;  263.300; -709.000; -577.000
860.909; -113.400; -339.000; -325.000
861.157; -115.400; -277.000; -444.000
861.405; -170.400; -534.000; -670.000
861.653;  128.800;  310.000;  310.000
861.901;  296.200; -543.000; -613.000
862.149;  -79.900; -801.000; -824.000
862.396;  -98.400; -297.000; -187.000
862.644; -117.000; -368.000; -347.000
862.892;   16.000;   98.000;  138.000
863.140; -171.200; -549.000; -530.000
863.388; -236.800; -815.000; -759.000
863.635; -173.900; -642.000; -601.000
863.883;   91.500;  231.000;  190.000
864.131; -117.700; -288.000; -357.000
864.378; -203.600; -675.000; -540.000
864.626; -147.800; -347.000; -415.000
864.873; -184.800; -556.000; -505.000
865.121; -219.300; -714.000; -799.000
865.368;  -59.500; -173.000;   75.000
865.616;  -11.500;  -33.000;  -40.000
865.863;  -97.800; -462.000; -506.000
866.111; -163.600; -795.000; -824.000
866.358;   98.800; -426.000; -420.000
866.605; 4274.000;  -64.000; -804.000
866.853; 3249.700; -621.000; -537.000
867.100;  -74.300; -728.000; -775.000
867.347; -161.000; -672.000; -611.000
867.594; -101.400; -740.000; -714.000
867.841;  173.000;   97.000;   17.000
868.089; -254.300; -746.000; -698.000
868.336; -129.300; -477.000; -420.000
868.583; -230.700; -637.000; -741.000
868.830;  -44.800; -131.000; -170.000
869.077; -261.400; -859.000; -787.000
869.324; -160.900; -502.000; -458.000
869.571; -173.000; -398.000; -430.000
869.818; -150.900; -485.000; -439.000
870.065; -181.400; -439.000; -513.000
870.311; -146.300; -456.000; -542.000
870.558; -149.400; -332.000; -311.000
870.805;  -79.500; -320.000; -384.000
871.052; -170.000; -494.000; -369.000
871.298;  -52.100; -204.000; -131.000
871.545;  -82.800; -151.000; -185.000
871.792; -152.500; -173.000; -222.000
872.038;  -53.300;   43.000; -126.000
872.285; -176.100; -496.000; -387.000
872.532; -125.800; -357.000; -387.000
872.778;  114.800;  556.000;  403.000
873.025;  -97.200; -384.000; -359.000
873.271;  126.900;  501.000;  578.000
873.517;   24.200; -133.000; -209.000
873.764;   -8.900; -193.000;  -80.000
874.010;  -71.200; -143.000; -230.000
874.257;   23.300;  123.000;   90.000
874.503; -185.000; -579.000; -479.000
874.749;  -68.800;   31.000;  275.000
874.995;  -83.700;  -80.000;  -20.000
875.242; -146.500; -540.000; -478.000
875.488; -150.000; -414.000; -439.000
875.734;  -57.500; -106.000; -234.000
875.980;  339.200; -872.000;-1032.000
876.226;  489.900; -157.000; -255.000
876.472;   51.800;  343.000;  237.000
876.718;    8.100;  184.000;  158.000
876.964;   -3.400;   56.000;   55.000
877.210; -214.100; -547.000; -677.000
877.456; -199.700; -630.000; -557.000
877.702; -276.100; -821.000; -832.000
877.948; -151.200; -377.000; -497.000
878.193;  127.100;  361.000;  255.000
878.439; -129.600; -487.000; -472.000
878.685; -116.900; -272.000; -343.000
878.931; -202.900; -618.000; -676.000
879.176; -116.900; -201.000; -201.000
879.422; -293.800; -933.000; -820.000
879.668;  217.300;   10.000;   79.000
879.913;  252.000;   53.000;  137.000
880.159;  -59.800; -112.000;  -17.000
880.404;  -36.700; -152.000; -162.000
880.650;  -22.300;   91.000;  141.000
880.895; -241.300; -670.000; -710.000
881.141; -150.800; -454.000; -428.000
881.386; -192.600; -503.000; -658.000
881.631; -128.100; -311.000; -166.000
881.877;   15.400;  112.000;  -13.000
882.122; -222.100; -684.000; -600.000
882.367; -107.600; -136.000; -186.000
882.612;  -73.100;  -80.000; -176.000
882.858; -276.900; -877.000; -823.000
883.103; -126.900; -297.000; -267.000
883.348; -243.600; -759.000; -852.000
883.593; -215.000; -677.000; -602.000
883.838;  -80.400; -311.000;  -24.000
884.083;  142.100;  353.000;  288.000
884.328; -128.500; -564.000; -545.000
884.573;  -22.500; -196.000; -143.000
884.818;  392.400; -694.000; -531.000
885.063;  254.800; -348.000; -315.000
885.308; -127.400; -475.000; -398.000
885.553;   71.800;  245.000;  325.000
885.797; -179.700; -545.000; -615.000
886.042;  -67.100;    8.000;   58.000
886.287; -106.600; -253.000; -211.000
886.532;  -33.500;   26.000;  204.000
886.776; -133.200; -407.000; -525.000
887.021; -177.600; -621.000; -574.000
887.265; -223.700; -685.000; -689.000
887.510; -209.300; -557.000; -496.000
887.755; -105.600; -194.000; -164.000
887.999; -211.700; -552.000; -575.000
888.244;  -21.700;  -58.000;  161.000
888.488;   93.500;  371.000;  393.000
888.732; -171.000; -368.000; -520.000
888.977; -207.300; -622.000; -567.000
889.221; -224.400; -683.000; -659.000
889.465; -173.100; -422.000; -566.000
889.710;  -72.200;  -56.000; -299.000
889.954;   80.500;  579.000;  467.000
890.198; -208.400; -584.000; -707.000
890.442; -235.900; -716.000; -712.000
890.687; -284.800; -800.000; -753.000
890.931; -121.600; -273.000; -210.000
891.175; -195.000; -502.000; -500.000
891.419;  -58.500; -105.000; -110.000
891.663;  -89.100; -239.000; -112.000
891.907; -237.000; -801.000; -545.000
892.151; -295.200; -920.000; -815.000
892.395; -142.400; -274.000; -387.000
892.638;   57.100;  408.000;  291.000
892.882; -298.700; -780.000; -867.000
893.126;  134.300;  758.000;  558.000
893.370;  -98.200; -167.000; -168.000
893.614; -200.100; -714.000; -715.000
893.857; -138.100; -183.000; -197.000
894.101; -199.600; -527.000; -631.000
894.345;  -46.000;  300.000;  150.000
894.588;  141.000;  569.000;  380.000
894.832;  -93.700; -178.000;  -84.000
895.075;  -88.200;   15.000;  -92.000
895.319; -176.300; -552.000; -420.000
895.563; -143.600; -413.000; -353.000
895.806; -250.500; -628.000; -741.000
896.049;  -69.800; -576.000; -368.000
896.293;  246.000;  527.000;  405.000
896.536; -141.800; -465.000; -468.000
896.779;  -53.700; -149.000;   -1.000
897.023; -239.000; -751.000; -714.000
897.266;   30.400;  325.000;  269.000
897.509; -285.400; -900.000; -901.000
897.752;  -31.500;  149.000;  171.000
897.996; -290.600; -972.000; -864.000
898.239;   -5.100;  168.000;  102.000
898.482; -181.400; -431.000; -453.000
898.725;  -18.500;  101.000;   53.000
898.968; -259.500; -609.000; -744.000
899.211; -142.000; -513.000; -361.000
899.454; -184.300; -633.000; -539.000
899.697;  -59.500;   90.000;  -43.000
899.940; -260.000; -761.000; -757.000
900.182; -127.900; -335.000; -405.000
900.425; -119.700; -150.000; -298.000
900.668;   62.900;  491.000;  350.000
900.911; -148.000; -292.000; -345.000
901.154;    4.100;  141.000;   -3.000
901.396; -195.200; -407.000; -412.000
901.639; -183.200; -430.000; -496.000
901.882; -276.400; -790.000; -809.000
902.124; -104.100;  -29.000; -143.000
902.367; -169.300; -315.000; -361.000
902.609; -180.200; -476.000; -453.000
902.852; -118.800; -108.000; -260.000
903.094; -162.500; -458.000; -337.000
903.337;  -28.300;  -26.000;   53.000
903.579; -150.500; -228.000; -441.000
903.821; -263.000; -597.000; -744.000
904.064;  -53.700;   85.000;  127.000
904.306; -105.100; -126.000; -166.000
904.548; -176.200; -152.000; -366.000
904.790; -120.500; -195.000; -340.000
905.033; -181.600; -625.000; -577.000
905.275; -194.100; -513.000; -524.000
905.517;  150.000;  468.000;  256.000
905.759; -104.100; -667.000; -761.000
906.001; -131.100; -322.000; -369.000
906.243;  -74.200; -162.000; -224.000
906.485;  275.000; -265.000; -207.000
906.727;  117.200; -499.000; -542.000
906.969;  -17.400;  -30.000; -135.000
907.211;  253.400; -316.000; -382.000
907.453;  483.900; -188.000; -237.000
907.695;   16.600; -158.000; -385.000
907.936;  170.400;  818.000;  706.000
908.178;  -55.800;   92.000; -135.000
908.420;  -62.000; -111.000; -162.000
908.662; -200.200; -633.000; -682.000
908.903; -101.300; -208.000; -123.000
909.145;  -55.400; -240.000; -305.000
909.386;   90.600;  315.000;  280.000
909.628;  162.900;  363.000;  397.000
909.870;  106.000;   29.000;  264.000
910.111; -147.700; -809.000; -949.000
910.353;   78.500; -123.000; -161.000
910.594;   27.000; -574.000; -606.000
910.835;  218.700; -265.000; -326.000
911.077;  321.600; -503.000; -604.000
911.318;  574.000; -505.000; -471.000
911.559;  880.700; -577.000; -880.000
911.801; 2836.700; -284.000; -280.000
912.042;23865.400;  -50.000; -159.000
912.283;49961.800;  404.000;  371.000
912.524; 5885.100; -396.000; -457.000
912.765;  958.700; -193.000;   79.000
913.006;  556.700; -307.000; -338.000
913.247;  141.400; -270.000; -290.000
913.488;   48.200;  -43.000;   30.000
913.729; -102.200; -373.000; -373.000
913.970;  -50.500;  -96.000; -292.000
914.211;  -80.300; -160.000; -198.000
914.452;  -52.300; -118.000;  -11.000
914.693;   59.400;  510.000;  592.000
914.934;  102.100;  510.000;  440.000
915.175;  -47.800;   53.000;  -95.000
915.415;  -73.400; -137.000;   27.000
915.656;  -57.200;  -28.000;  192.000
915.897; -111.300; -252.000;  -82.000
916.137;  -41.400;   74.000;   -9.000
916.378; -184.600; -573.000; -517.000
916.619; -104.600; -159.000;  -63.000
916.859;   30.700;  303.000;  330.000
917.100;  366.700; 1655.000; 1070.000
917.340;  208.900;  930.000;  728.000
917.581;  168.300;  965.000;  789.000
917.821;    6.700; -171.000;  143.000
918.061;   38.500; -199.000;  -72.000
918.302;  -49.000; -152.000; -211.000
918.542;    2.300;  -22.000;    3.000
918.782;  123.000;  369.000;  377.000
919.023;  270.100;  360.000;  427.000
919.263; 2696.600; 8131.000;  202.000
919.503; 1770.700; -137.000;  -54.000
919.743; 1103.000;  390.000;  266.000
919.983;  403.100; -134.000;  -26.000
920.223;  173.100;  135.000;   14.000
920.463;  279.900;  631.000;  554.000
920.703;  281.700;   84.000;   39.000
920.943;  293.300; -110.000;   90.000
921.183;  381.000; -414.000; -405.000
921.423;  915.200;  307.000;  546.000
921.663; 1259.700; -174.000; -257.000
921.903; 2883.700;  237.000;  173.000
922.143;17493.800;  372.000;  389.000
922.383;58828.900;  158.000;  115.000
922.622;15190.800; -120.000;  -15.000
922.862; 1945.200;  796.000;  785.000
923.102;  781.100;  -51.000;   33.000
923.341;  307.800;   59.000;   74.000
923.581;  205.000;  450.000;  360.000
923.821;   96.200;  301.000;  398.000
924.060;  124.600;  351.000;  193.000
924.300;  -68.700;  -16.000; -128.000
924.539;   68.000;  584.000;  473.000
924.779;  118.700;  812.000;  597.000
925.018;    8.400;  247.000;  353.000
925.257;   61.500;  595.000;  666.000
925.497;   13.300;  447.000;  412.000
925.736;  -82.500;  -35.000;  102.000
925.975;   71.700;  687.000;  669.000
926.214;  161.400;  907.000;  850.000
926.454;  134.800;  706.000;  757.000
926.693;    0.300;  419.000;  543.000
926.932;  195.900; 1021.000;  825.000
927.171;  223.300; 1107.000; 1044.000
927.410;  176.900; 1144.000;  967.000
927.649;  157.400;  924.000;  742.000
927.888;   86.200;  590.000;  564.000
928.127;   70.400;  680.000;  678.000
928.366;  154.300;  842.000;  826.000
928.605;  168.000;  831.000;  737.000
928.844;  561.700; 1451.000; 1393.000
929.083; 1106.500;  770.000;  613.000
929.321;  588.700; 1335.000; 1359.000
929.560;  243.100; 1158.000; 1122.000
929.799;   -6.100;  574.000;  475.000
930.038;  270.900; 1025.000; 1394.000
930.276;    5.600;  334.000;  397.000
930.515;   79.700;  827.000;  681.000
930.753;   21.900;  614.000;  589.000
930.992;   30.900;  664.000;  717.000
931.230;   66.100;  847.000;  847.000
931.469;  434.900; 2162.000;  892.000
931.707;  262.200;  840.000;  751.000
931.946;  218.600; 1278.000; 1344.000
932.184;  221.200; 1437.000; 1175.000
932.423;  201.700; 1265.000;  963.000
932.661;  289.700; 1296.000; 1428.000
932.899;  160.900;  987.000;  821.000
933.137;   75.800;  754.000;  564.000
933.376;  365.500; 1664.000; 1335.000
933.614;  399.800; 1759.000; 1196.000
933.852;  181.600; 1357.000; 1171.000
934.090;  342.200; 1722.000; 1747.000
934.328;  262.800; 1252.000; 1457.000
934.566;  251.800; 1431.000; 1110.000
934.804;  336.200; 1263.000; 1309.000
935.042;  970.700; 1861.000; 1850.000
935.280; 3532.600; 2088.000; 2063.000
935.518; 2669.600; 2113.000; 2007.000
935.756;  648.000; 2481.000; 2316.000
935.994;  396.100; 1808.000; 1751.000
936.231;  758.500; 2890.000; 2950.000
936.469;  468.700; 2367.000; 2378.000
936.707;  424.800; 2220.000; 2167.000
936.945;  595.600; 2825.000; 2882.000
937.182;  507.300; 2679.000; 2741.000
937.420;  712.000; 3602.000; 3031.000
937.657;  937.900; 3365.000; 3478.000
937.895;  721.200; 3331.000; 3488.000
938.133;  732.300; 3540.000; 3528.000
938.370;  750.800; 3896.000; 4191.000
938.607;  933.800; 4488.000; 4205.000
938.845; 1198.400; 5587.000; 5549.000
939.082; 1106.200; 5387.000; 5177.000
939.320; 1214.600; 5799.000; 5728.000
939.557; 1423.200; 6549.000; 6491.000
939.794; 1602.700; 7285.000; 7097.000
940.031; 1984.000; 8421.000; 8368.000
940.269; 2253.600; 9552.000; 9107.000
940.506; 2337.000;10901.000;10507.000

