
Integration time [ms]: 200.000
Averaging Nr. [scans]: 10
Smoothing Nr. [pixels]: 0
Data measured with spectrometer [name]: 2101013U2
Wave   ;Sample   ;Dark     ;Reference
[nm]   ;[counts] ;[counts] ;[counts] 

394.013;   93.466; -450.257; -315.536
394.305;  397.263; -461.258; -419.536
394.596; 1966.211; -676.269; -527.514
394.887; 4549.835; -796.268; -654.518
395.178; 1812.680;  145.736;   11.476
395.470;  152.297; -210.263; -356.526
395.761;  398.357;  305.734;  394.479
396.052;  617.425; -545.284; -306.489
396.343;  615.129; -557.276; -454.503
396.634;  177.782; -200.279; -290.497
396.926;  170.731; -618.268; -565.517
397.217;  195.435;   11.725;  -17.504
397.508;   42.559; -366.273; -154.507
397.799;   45.082; -555.279; -571.497
398.090;  -49.226; -973.280; -902.495
398.381;  214.014;   11.708;  -11.473
398.672;  -55.884; -585.292; -742.473
398.963;   75.891; -348.279; -373.498
399.254;  154.130;   54.709; -209.475
399.545;  -88.548;-1017.266; -883.520
399.836;   68.112; -407.277; -343.501
400.127;   96.079; -205.295; -209.468
400.418;   97.351; -423.274; -392.506
400.709;  111.855; -359.281; -333.493
401.000;   60.135; -268.291; -309.476
401.290;  224.886;  225.698;  115.545
401.581;  123.200; -166.286; -228.485
401.872;   16.438; -542.298; -486.462
402.163;   94.868; -313.296; -252.467
402.454;  164.131; -123.291; -163.475
402.744;   38.355; -844.297; -813.465
403.035;  646.902; -226.293;  -86.471
403.326;  865.320; -366.292; -384.474
403.617;  571.730;  204.701;  165.539
403.907;  355.634; -593.283; -679.490
404.198; 4077.818; -545.307; -599.446
404.489;10496.541; -618.283; -588.491
404.779; 3571.491; -618.302; -660.456
405.070;  350.059;  -67.304; -174.451
405.360;  597.604; -259.293; -238.472
405.651;  628.207;  125.699;   98.542
405.942;  329.793;  209.714;  127.516
406.232;  358.714; -432.285; -413.487
406.523;  854.494;  641.706;  758.530
406.813;  155.296; -579.286; -644.484
407.104;  613.913;  261.708;  144.527
407.394;  269.332; -604.299; -591.462
407.685;  290.913;  336.715;  222.513
407.975;  114.339; -400.283; -382.490
408.265;  226.552; -134.289; -190.478
408.556;  108.726; -472.291; -459.475
408.846;  324.095;  474.706;  429.530
409.137;  160.764;   -1.288; -216.480
409.427;   85.014; -193.285; -271.487
409.717;   22.664; -776.273; -692.508
410.007;  252.404;    4.715; -170.486
410.298;  135.983; -360.295; -342.469
410.588;   90.510; -495.285; -510.486
410.878;  -13.519; -792.287; -873.482
411.168;  213.342; -481.298; -478.463
411.459;  192.931; -295.283; -242.489
411.749;   65.324; -609.292; -507.474
412.039;  101.562; -755.289; -386.480
412.329;  346.202;   40.722;  132.501
412.619;  378.097;  -62.286; -148.485
412.909;  651.356;  639.711;  594.521
413.199;  532.274; -130.280; -251.495
413.490;  700.642;  521.710;  352.523
413.780;  197.280;-1013.279; -913.496
414.070;  587.530;  -46.276;  235.497
414.360;  600.496; -729.278; -666.498
414.650;  662.275; -726.288; -688.482
414.940;  898.479; -538.280; -441.496
415.230; 1520.270;   50.712;   74.519
415.520;10547.309;  155.730;   66.486
415.809;40239.254; -305.281; -125.493
416.099;31873.316; -388.277; -229.501
416.389; 8832.947;  435.726;  236.494
416.679; 5279.902;   91.738;   85.473
416.969;  901.587; -527.287; -503.483
417.259; 1028.883;  341.721;  171.503
417.549; 1174.253;  522.718;  318.508
417.838; 2847.134; -205.268; -147.518
418.128; 9201.250;  650.710;  492.522
418.418; 7785.373; -491.272; -579.509
418.708; 5324.148;    9.726;  -48.506
418.997;19365.941; -474.275; -480.505
419.287;20335.358; -733.273; -790.507
419.577;19611.630; -160.283; -123.489
419.866;61337.513; -588.277; -498.501
420.156;62682.903; -242.270;  -55.513
420.446;12043.291; -112.263;  -26.526
420.735; 1394.595; -376.271; -446.512
421.025; 1538.995; 1830.722;  315.502
421.314; 1110.292; -203.271; -226.512
421.604; 2173.924;   89.732;  233.484
421.893; 1235.286; -705.271; -602.511
422.183;  363.691; -487.263; -461.526
422.472;  622.788;  -36.271; -107.511
422.762;  747.961; -416.266; -379.521
423.051;  337.031; -916.276; -916.503
423.341;  509.560; -491.273; -439.507
423.630;  705.570; -121.265;   15.477
423.919;  613.140;   58.725;   49.495
424.209;  604.700;  -31.263;   56.473
424.498;  847.131;   68.732;  161.483
424.787; 1836.540; -535.267; -601.518
425.077; 5451.768;   34.735;   29.478
425.366; 7400.908; -734.262; -744.528
425.655;16397.761;  639.727;  259.493
425.945;35022.199; -313.247; -268.554
426.234;20172.541;  117.741;  300.467
426.523; 8444.749;  -86.259; -350.534
426.812;11698.855;  107.734;  159.480
427.101;17095.118; -127.269; -323.515
427.390;21350.209;  -55.270;  -86.514
427.680; 4695.578; -624.257; -411.538
427.969;  755.894; -330.255; -301.540
428.258;  499.466; -385.257; -477.536
428.547;  896.879;  449.728;  397.490
428.836; 1878.218; -421.253; -398.543
429.125; 2704.352; -199.259;  -72.534
429.414; 1295.651; -330.251; -294.548
429.703; 5259.651; -231.251; -213.548
429.992;15454.157; -938.250; -828.549
430.281;10402.981; -397.264; -331.524
430.570; 1045.137;  -21.252;   32.454
430.859;  941.548;  279.741;  352.466
431.148;  807.292;  636.752;  631.446
431.437;  528.537;  391.748;  367.454
431.725;  240.768; -544.257; -481.536
432.014;  166.329; -845.253; -756.545
432.303;  597.304; -149.239; -105.569
432.592;  971.891; -460.263; -178.525
432.881; 1687.394; -601.248; -437.554
433.169;10372.495; -343.255;  -61.540
433.458;20662.054;  445.765;  540.424
433.747; 8816.716; -397.261; -289.529
434.036; 1391.469; -275.242; -280.564
434.324; 3452.675; -395.249; -379.551
434.613; 5984.959;   40.757;  159.437
434.902; 2050.290;  333.760;  439.433
435.190;  886.002;   75.761;  295.431
435.479;  522.432;  -52.245;   83.441
435.767;  156.144; -411.244; -427.561
436.056;  339.962; -340.242; -294.563
436.345;  605.993; -372.240; -223.568
436.633;  658.568;   60.750;  383.450
436.922;  459.196;  208.760;  414.432
437.210;  939.139; -194.236;    1.426
437.499; 2690.251; -583.235; -432.576
437.787; 3024.039; -339.236;  -10.574
438.075;  855.111;   56.761;  162.430
438.364; 1136.314;  -44.238;  250.429
438.652;  662.869; -286.226; -138.592
438.941;  261.716;    3.770;  269.415
439.229;  -22.467; -665.252; -466.545
439.517;   76.864; -160.234;  -85.577
439.806;  -19.108; -501.225; -290.595
440.094;  303.975;  377.766;  650.421
440.382;  230.781; -653.233; -302.580
440.670;  293.251; -361.235; -285.576
440.959;   15.918; -347.223; -170.599
441.247;  137.733; -151.229; -109.587
441.535;  173.761; -266.235;   31.423
441.823;   39.371; -497.234; -305.578
442.111;  270.139;  173.771;  327.412
442.400;  749.731; -628.245; -335.559
442.688; 2043.474; -111.234; -620.579
442.976; 1427.248; -786.213; -450.617
443.264;  141.102; -324.224; -364.597
443.552;  146.071; -258.226;   51.408
443.840;  309.459;  602.765;  876.423
444.128;  177.679;  265.767;  269.420
444.416;  -23.557; -694.228; -312.588
444.704;   18.762; -465.219;  -92.605
444.992;  120.175;   -0.226;  240.407
445.280;   84.817; -517.230;  -94.585
445.568;   34.853; -694.212; -396.618
445.856;  561.938; -174.221;  357.398
446.143; 1084.656;  -54.220;   -7.604
446.431;  993.548;  -25.228;  625.411
446.719;  449.890;  489.783;  675.391
447.007;  329.609;  481.769;  705.416
447.295;  326.914;  597.777;  871.402
447.583;  101.629; -464.229;  -34.587
447.870;  208.234; -434.221; -202.601
448.158;  626.915; -104.230;  129.415
448.446;  409.358; -800.219; -338.604
448.733;  275.504;   13.776;  269.403
449.021;  384.952;   60.788;  341.382
449.309;  324.074; -296.210;  208.379
449.596;  402.885;  128.783;   59.392
449.884;  213.724; -571.222; -325.600
450.172;  238.556; -756.227; -406.590
450.459;  760.423;  645.786;  780.387
450.747; 3870.982; -411.218; -147.608
451.034;12330.650;  493.772;  889.411
451.322;10332.027; -413.214; -170.614
451.609;  932.006;  292.777;  508.403
451.897;  935.767; -550.203; -183.634
452.184; 2898.914; -622.223; -400.598
452.472; 2811.006;   97.792;  269.375
452.759;  599.559;  512.781;  864.395
453.047;  159.949; -407.212; -125.617
453.334;  108.770; -732.219; -216.606
453.621;  114.531; -438.214; -161.615
453.909;  207.356;   13.796;  384.368
454.196;  166.923; -299.199; -123.641
454.483;  347.387;  317.798;  540.364
454.771;  213.510; -215.208;  196.374
455.058;   64.715; -316.207;  102.374
455.345;  195.704;   71.807;  344.347
455.632;  166.020; -128.207;  235.373
455.919;   93.156;  -82.196;  182.354
456.207; -126.771; -774.198; -450.642
456.494;  -71.096; -475.200;  -66.639
456.781;   -9.420; -399.202; -198.635
457.068;   94.330; -253.206;  -29.628
457.355;    0.131; -698.206; -401.629
457.642;  -48.260; -552.205; -290.630
457.929;   -8.109; -778.194; -417.651
458.216;   58.849; -575.212; -354.617
458.503;  386.998; -173.193;  -19.652
458.790;  350.707; -864.208; -630.625
459.077;  415.687;  -77.202;  110.364
459.364; 1327.580; -350.195; -210.649
459.651; 2740.127;  -46.206;  220.372
459.938; 1270.193; -864.209; -665.623
460.225;  260.392;  132.799;  276.363
460.512; -123.248; -836.197; -688.645
460.799;  196.781;  -32.218;  320.392
461.086;   77.611; -370.200; -251.640
461.372;   46.230; -509.198; -279.642
461.659;  168.458; -165.196;  108.354
461.946;  105.896; -445.193;  -54.651
462.233;  430.508;  842.800;  888.361
462.519;  528.303; -814.201; -464.639
462.806; 1572.052; -768.197; -497.645
463.093; 1448.126; -445.191;  -66.656
463.380;  -96.413; -920.186; -824.664
463.666;   97.455; -259.197;  -18.646
463.953;  156.473; -406.195; -243.648
464.239;  314.573; -173.195;  -77.648
464.526;  625.489;  413.806;  743.350
464.813;  511.943; -565.190; -304.658
465.099;  604.497;  606.807;  607.348
465.386;  578.503;  903.807;  921.348
465.672;   -3.947; -694.197; -522.645
465.959;   14.270; -598.188; -520.662
466.245;   13.903; -468.193; -359.652
466.532;  150.270; -109.195;   63.352
466.818;  113.887; -357.186; -216.664
467.104;   -6.954; -488.182; -415.672
467.391;  -31.254; -628.189; -459.658
467.677;   65.992; -289.186;    9.335
467.964;  -16.244; -682.189; -471.660
468.250;   83.296; -331.186; -160.665
468.536;  153.648;   90.811;  180.341
468.822;  -58.987; -821.184; -574.668
469.109;  256.165;  351.827;  471.311
469.395;  386.717;  729.808;  787.346
469.681;  341.452;   46.811;  156.341
469.967; 2048.059; -699.188; -382.660
470.254; 4297.171; -494.188; -306.662
470.540; 2877.456; -601.196; -476.646
470.826;  386.462; -488.181; -397.675
471.112;  539.319;  288.816;  113.331
471.398;  167.526; -253.183;  -58.670
471.684;   61.804; -626.177; -447.680
471.970;  -29.132; -918.180; -981.675
472.256;   30.316; -521.192; -441.654
472.542;   -5.219; -499.171; -434.691
472.828;  -28.460; -743.182; -607.672
473.114;   39.846; -380.166; -283.700
473.400;   19.628; -504.175; -293.684
473.686;   40.255; -452.166; -400.701
473.972;   97.750; -230.174; -131.687
474.258; -132.435; -925.173; -843.689
474.544;  346.892; -183.178;   -2.679
474.830;  527.031;  -65.175;   45.316
475.116;  789.446; -123.190; -196.658
475.401; 1035.171; -558.180; -467.676
475.687;  306.070; -725.180; -718.676
475.973;  -18.848; -673.181; -770.673
476.259;  434.534;  736.825;  764.315
476.544;  554.316; -539.176; -437.682
476.830; 1290.575; -398.172; -322.690
477.116; 1162.614; -430.177; -336.682
477.401;  278.871;  346.820;  358.324
477.687;  -45.371; -289.175; -405.684
477.973;   83.657;   21.819;   28.326
478.258;  -19.815; -448.163; -348.706
478.544;  104.804;   21.815;   61.334
478.829; -101.911; -818.171; -738.692
479.115;  -82.825; -749.172; -651.690
479.401;  -18.057; -444.174; -449.686
479.686;   73.069; -253.180;  -74.676
479.972;  -91.001; -886.178; -776.680
480.257;   80.148; -258.166;  -65.700
480.542;  -39.505; -614.170; -469.693
480.828;  522.826; 1288.824; 1392.317
481.113;  -45.177; -464.176; -426.683
481.399;   -6.480; -236.161; -202.711
481.684;  -98.853; -620.166; -462.700
481.969;   34.340; -158.159;  -73.713
482.255;    6.211; -439.169; -285.695
482.540;    1.900; -569.178; -441.680
482.825;  -10.020; -395.187; -404.663
483.110;  153.016;  -85.169; -105.696
483.396;  267.272; -840.157; -652.718
483.681;  828.450;  543.826;  730.313
483.966;  215.231; -696.160; -700.712
484.251;   42.149; -404.174; -310.687
484.536;   42.563; -356.165; -378.703
484.822;    6.353; -205.173; -218.687
485.107;  -75.872; -599.152; -502.726
485.392;  275.271;  662.836;  541.296
485.677;  173.830;  354.832;  163.302
485.962;  218.568;  160.843;  270.283
486.247;  159.997;  -14.162;   -8.707
486.532;   77.849; -178.166; -325.701
486.817;  312.412;  381.839;  431.291
487.102;  196.303; -453.154; -514.722
487.387; 1020.974; -637.156; -652.718
487.672; 1782.279; -154.164;  -38.705
487.957; 1206.722; -394.160; -286.711
488.241;  333.453; -290.150; -314.729
488.526; 1165.830; -280.152; -148.726
488.811; 1825.503; -881.177; -818.680
489.096; 1367.807; -666.154; -702.723
489.381;  803.325;    3.847;  162.275
489.666;  580.420; -428.161; -510.710
489.950;  349.211;  558.846;  627.277
490.235;  -69.255; -480.151; -458.728
490.520;  -68.682; -756.161; -723.710
490.804; -126.023; -827.156; -736.719
491.089;   -5.924; -469.149; -299.732
491.374;   77.777; -132.164;  -75.704
491.658;  -46.507; -817.147; -717.735
491.943;  192.436; -657.152; -609.727
492.227;  375.997; -178.155;  -38.721
492.512;   67.867; -294.157; -341.717
492.797; -136.633; -713.149; -716.731
493.081;  -97.403; -588.147; -598.735
493.366;  -84.179; -751.161; -635.711
493.650;  386.175;  831.859;  917.254
493.935;   31.492; -648.147; -447.734
494.219;  -89.544; -778.142; -687.743
494.503;  -93.040; -585.150; -487.730
494.788;   99.355;   46.842;   74.285
495.072;  187.955;  184.850;  434.271
495.356;  248.281; -463.148; -343.733
495.641;  638.107; -812.146; -736.736
495.925;  615.085; -976.156; -903.719
496.209;   37.575; -599.149; -451.732
496.494; -118.443; -763.142; -544.744
496.778;  -14.997; -364.154; -360.722
497.062; -134.816; -819.156; -627.719
497.346;  -74.675; -869.160; -640.711
497.631;  285.186;  580.852;  560.266
497.915;  156.422;  -64.145;  175.261
498.199;   78.772; -341.157; -277.718
498.483;   55.228; -562.152; -508.725
498.767;  357.156;  301.850;  300.271
499.051;  299.672; -126.149; -100.732
499.335;   38.169; -693.149; -739.731
499.619;  -62.575; -381.129; -423.767
499.903;   54.295; -272.155;  -65.721
500.187;   40.014; -588.153; -316.724
500.471;  -23.565; -796.152; -595.727
500.755;  177.119;   62.839;  -96.710
501.039;   15.596; -270.155; -357.721
501.323;  161.678;  -21.141;  264.254
501.607;   46.186; -447.163; -503.706
501.891;  -33.326; -607.156; -512.718
502.174;  -90.261; -726.144; -585.741
502.458;  141.241;   89.849;  370.273
502.742;   70.013; -180.138; -191.751
503.026;  139.491; -412.147; -254.734
503.310;  258.038; -437.159; -375.713
503.593;  170.194; -464.147; -325.735
503.877;  182.773; -232.133; -156.760
504.161;  238.417;    2.847;  -50.724
504.444;  144.758; -841.158; -710.716
504.728;  704.275; -487.164; -522.704
505.012; 1136.652; -257.150;  -76.729
505.295;  810.220; -417.161; -212.711
505.579;  850.684; -256.156; -496.719
505.862; 1143.617; -555.145; -333.738
506.146; 1093.642; -681.159; -758.714
506.429;  713.943;  568.841;  461.286
506.713;   54.947; -732.151; -667.728
506.996;  520.002;   90.846;  295.278
507.280;  477.668; -633.165; -474.703
507.563;  359.993; -469.155; -261.721
507.847;  150.315; -423.153; -112.724
508.130;  129.321; -665.161; -456.711
508.413;  169.141; -758.167; -577.700
508.697;  403.442; -151.167;   12.300
508.980;  225.317; -422.153; -312.724
509.263;  -18.913; -466.155; -450.720
509.547;   61.551; -124.150;   82.271
509.830;   99.324; -172.160;  140.289
510.113;  166.883;  128.844;  298.281
510.396;   36.425; -530.152; -300.725
510.680;  184.019; -818.145; -812.738
510.963;  931.409;  184.846;  180.277
511.246;  702.263; -493.150; -357.730
511.529;  413.326; -482.145;  -83.739
511.812;  559.367; -250.134;   10.241
512.095;  368.043; -740.151; -396.728
512.378;  158.500; -317.147; -245.736
512.661;   23.024; -703.137; -623.753
512.944;   -0.041; -750.142; -637.744
513.227;  103.220; -170.137; -171.752
513.510;   -2.861; -479.144; -671.741
513.793;   15.984; -485.140; -435.747
514.076;  214.855;  -43.127;  -39.771
514.359;  195.976; -294.149; -135.732
514.642;  122.664; -442.142; -567.744
514.925; 1251.182;  581.860;  561.253
515.208; 1471.962; -498.134; -443.758
515.491; 1023.982; -276.133; -182.761
515.773;  592.244; -410.143; -337.742
516.056; 3342.634;  249.864;  409.246
516.339; 4240.240; -754.136; -652.755
516.622; 2943.859; -518.150; -488.730
516.904; 1857.454;  882.857;  975.257
517.187;  791.818; -730.138; -523.752
517.470;  589.753; -568.143; -510.743
517.752;  631.444; -624.136; -470.756
518.035;  488.300; -708.139; -725.749
518.318;  554.340; -799.136; -744.755
518.600; 3778.088; -300.132; -325.762
518.883; 5112.763;  310.858;   88.256
519.165; 2511.008; -585.138; -426.751
519.448;  630.387;  -61.132;  -19.762
519.730;  290.766; -573.126; -415.773
520.013;  504.977;  588.867;  664.240
520.295; 1231.770;  -94.134;  -15.759
520.578; 2585.906; -335.131; -305.764
520.860; 2989.587; -254.132;   56.238
521.143; 1524.447; -763.135; -584.756
521.425;  706.585; -251.125; -279.775
521.707; 1071.656; -622.127; -380.771
521.990; 2814.656; -199.127;  167.229
522.272; 3211.787; -116.140;   -4.748
522.554; 1443.845; -237.143; -157.742
522.836;  564.067;  -24.134;   99.241
523.119;  307.789; -496.148; -189.734
523.401;  204.617; -448.130; -314.766
523.683;   76.425; -865.137; -693.753
523.965;  470.215;  408.862;  260.248
524.247;  449.717;   54.878;  170.220
524.529;  296.470; -451.134; -367.759
524.812;  585.319;   -3.130;  191.234
525.094; 1327.814; -773.138; -631.751
525.376; 2036.299; -143.124;   78.223
525.658; 1267.235; -441.136; -339.754
525.940;   32.102; -805.131; -671.764
526.222;   73.041; -188.136;  -88.755
526.504;  183.298; -190.131;   32.237
526.786;  207.573; -960.133; -647.760
527.068;  415.207; -124.123;  -67.778
527.349;  156.430; -865.137; -774.754
527.631;  204.487; -137.132;   22.238
527.913;  166.455; -664.127; -450.771
528.195;  209.475; -761.125; -639.774
528.477;  377.762;  -93.134;  -30.758
528.759;  154.519; -648.130; -522.766
529.040;  101.005; -569.123; -293.778
529.322;   83.079; -235.125;  -10.774
529.604;  207.222;  -47.130;   93.233
529.886;  172.966; -546.126; -302.773
530.167;  237.310;  232.870;  192.235
530.449;  114.899;    1.853;   63.265
530.731;   19.915; -572.122; -459.779
531.012;   71.446; -513.120; -216.784
531.294;   98.503; -118.116;  -43.792
531.575;  284.285;  290.875;  538.225
531.857;   12.555; -548.135; -266.757
532.138;  177.976; -113.141;   40.254
532.420;  307.449;  294.865;  403.244
532.701;  279.277; -722.133; -751.760
532.983;  507.081;  232.867;  182.239
533.264;  193.763; -243.126;  175.228
533.546;  -46.860; -491.136; -508.755
533.827;   93.372;  173.867;   -1.759
534.109;   47.855; -352.135;  -80.757
534.390;  108.193; -725.132; -582.762
534.671;  371.849; -270.135;  -82.756
534.953;  203.309; -751.123; -611.779
535.234;    2.481; -426.117; -255.789
535.515; -155.942; -891.119; -735.785
535.796;  -16.651; -431.128; -193.770
536.078; -231.802;-1050.124; -904.777
536.359;   21.410;  -22.123;    3.221
536.640;  -24.523; -480.125; -197.774
536.921;  269.730;  225.871;  143.232
537.202;  546.010;  -87.138;  -16.751
537.483;  737.206;  251.869;  377.236
537.764;  272.910;   17.870;   98.235
538.045;  -84.339; -543.134; -371.758
538.326;  -74.267; -596.129; -447.768
538.607;   -3.643; -686.127; -476.771
538.888;  263.333;   98.879;    5.218
539.169;  242.725; -704.122; -535.781
539.450;  508.729;  236.871;   16.233
539.731;  329.639; -361.121; -182.783
540.012;  238.346;  199.880;  412.216
540.293;  153.090;   82.876;  158.224
540.574;  -39.666; -895.113; -717.796
540.855;  741.036;  435.879;  377.218
541.136;  751.121;   47.878;  139.220
541.416;  426.120; -161.130; -220.766
541.697;  334.499; -274.131; -170.763
541.978; 1582.852; -270.135; -315.757
542.259; 2012.557; -211.127; -236.771
542.539;  998.794; -191.116; -186.790
542.820;  344.485;  461.875;  480.225
543.101;  221.621;  -52.145;  -77.738
543.381;  -38.444; -638.127; -591.771
543.662;  439.453;  159.873; -254.771
543.942;  869.150; -751.127; -830.770
544.223; 1623.923;  193.878;  161.219
544.504; 1069.298; -275.124; -182.777
544.784;  914.266; -592.126; -408.773
545.065; 2523.800;  104.884; -254.791
545.345; 3061.258;  227.881;   14.215
545.626; 2004.333;  -14.113; -108.796
545.906; 1359.109;   77.869;   98.235
546.186;  570.372;   92.874;  -95.773
546.467;  323.002;   99.877;  -95.778
546.747;  534.294;  264.884;  327.210
547.027;  595.596;   91.876;  111.223
547.308;  470.549; -376.127; -530.770
547.588;  655.034;  299.871;  371.232
547.868;  387.711;  458.870;  588.235
548.149;  368.511;  609.885;  593.207
548.429;  182.554; -347.127; -299.771
548.709;  261.645; -645.120; -461.784
548.989;  779.773;   84.882;   88.213
549.269; 3284.085;   10.868;  139.239
549.550; 7313.508;  215.877;  117.222
549.830; 6517.059; -758.111; -556.799
550.110; 1385.670; -468.110; -320.801
550.390; 1311.616; -128.122;  -56.779
550.670; 1598.327; -868.114; -783.795
550.950; 1245.836; -509.121; -471.782
551.230;  353.430;  549.879;  460.218
551.510;  -13.366; -381.121; -326.782
551.790;   97.082; -173.109; -127.803
552.070;  501.801;  940.877; 1181.223
552.350;  618.464; -492.119; -377.786
552.630;  942.727;   -2.121;   77.219
552.909;  583.501;  181.884;   73.209
553.189;  336.595;  -49.132;   33.237
553.469;  268.664; -703.119; -514.786
553.749;  285.359; -469.127; -357.772
554.029;  264.088;   33.883;  -24.790
554.308;  223.017; -154.115;  -37.794
554.588;   68.447; -196.128; -204.770
554.868;   99.537; -366.121;  -47.782
555.147;  245.013; -114.115;  -46.793
555.427;  977.804; -260.116; -250.792
555.707; 6009.810; -284.115; -200.793
555.986; 6997.264; -719.111; -538.800
556.266; 3921.992;   23.884;   72.210
556.546;  180.434; -888.121; -675.782
556.825;  362.024; -657.114; -556.794
557.105; 2746.544; -125.128;   17.230
557.384; 3093.499;  122.884;  187.209
557.664; 1222.203; -717.116; -508.792
557.943;  180.136; -557.121; -411.782
558.222;  260.377; -345.118; -344.788
558.502;  451.115; -116.115;  -76.793
558.781;  820.808;  194.885;  499.208
559.061;  654.077; -232.118; -227.788
559.340;  487.684;  302.883;  353.211
559.619; 1104.792;   93.884;  148.210
559.899; 1516.187; -239.117; -266.789
560.178; 1419.014; -778.115; -593.793
560.457; 5009.089; -623.117; -562.790
560.736; 6649.866; -472.111; -482.800
561.015; 4515.141; -500.128; -502.769
561.295;  631.411;  180.893;  215.193
561.574;  549.411;  119.885;  116.207
561.853;  780.588;  274.891;  303.197
562.132;  770.818;  -45.114;  182.206
562.411;  719.427;  396.879;  553.219
562.690;  177.708; -592.115; -458.792
562.969;  262.743;  472.888;  630.203
563.248;  999.424; 2966.878; 2487.219
563.527;  414.765; -290.111; -408.800
563.806;  557.054; -650.127; -521.771
564.085;  637.934; -297.105; -206.810
564.364;  369.091; -594.117; -405.790
564.643;  795.728; -276.121; -223.781
564.922; 2929.879;  221.890;  397.198
565.201; 2809.085; -640.109; -700.803
565.479; 1327.206; -297.115; -219.792
565.758;  471.544; -810.128; -712.770
566.037;  749.186; -155.109; -100.803
566.316;  351.000; -286.116;  -28.791
566.595;   92.510;  -17.115;  -12.793
566.873;  200.568; -166.111;  -79.801
567.152;  -73.857; -490.113; -590.797
567.431;   25.494; -113.116;    6.210
567.709;   16.712; -344.107; -212.807
567.988;  362.523; -810.114; -769.794
568.266;  833.510; -160.115;  -68.793
568.545;  580.203; -644.100; -514.819
568.824;  929.005;  160.885;  356.208
569.102;  800.023; -351.114; -235.794
569.381;  354.004; -492.116; -407.792
569.659;  -78.663; -553.113; -553.796
569.938;   15.021; -743.122; -465.780
570.216;  179.290; -225.109; -225.804
570.494;  -58.572; -632.114; -572.795
570.773;  121.234;  202.879;  114.218
571.051;   -3.094; -373.123; -357.778
571.330;   69.834; -221.113; -174.796
571.608;   66.829; -181.098; -173.823
571.886; -165.943; -671.111; -581.799
572.164; -140.163; -739.121; -621.782
572.443; -107.161; -562.105; -512.811
572.721;  -70.811; -399.117; -289.790
572.999;  -55.120; -280.117; -168.788
573.277;  210.429;  379.894;  620.191
573.555;  440.833;   94.894;   37.190
573.834; 2073.879;  -86.117; -114.788
574.112; 2457.815;  880.893;  811.193
574.390;  742.067; -143.111;  -96.801
574.668;   25.544;  -91.112;  -61.797
574.946;  -12.167; -165.106; -187.810
575.224;   46.284;   71.891;  -16.803
575.502;  -23.804; -200.116; -204.791
575.780; -166.554; -767.112; -829.798
576.058;  287.965; 1589.889; 1004.200
576.336;  -34.426; -210.110; -129.801
576.614;  -63.054; -511.112; -340.798
576.891;   25.917; -711.115; -823.794
577.169;  706.902; -158.108; -285.805
577.447;  891.014;  169.893;  202.193
577.725;  504.153;  629.888;  854.201
578.003;   17.150;  -71.112; -371.798
578.280;   88.852; -208.104; -242.812
578.558;   75.615; -450.115; -422.793
578.836;  221.827; -210.114; -145.795
579.114;   37.744; -630.112; -670.797
579.391;  116.582;   -6.117;  -18.789
579.669; -175.182; -595.114; -704.794
579.947;  279.309; -326.107; -127.806
580.224;  411.209; -692.107; -524.806
580.502;  547.815;  127.893;   76.193
580.779;   21.691;  -42.117;   75.210
581.057; -113.109; -584.109; -470.804
581.334; -192.926; -726.102; -695.815
581.612;   80.634;   54.895;  511.190
581.889;  -52.406;  -83.101; -129.818
582.167;  -58.485; -298.099; -190.821
582.444; -203.814; -845.102; -814.817
582.721;  230.687;  657.899;  715.183
582.999;   73.711; -326.100; -167.821
583.276;  782.612; -812.123; -713.779
583.553; 1001.479; -364.102; -294.816
583.831;  301.547; -607.104; -631.812
584.108;  110.899;  349.892;  174.195
584.385;   18.773; -122.102;  -98.815
584.662; -152.531; -651.111; -828.801
584.940;   88.967;  204.889;  204.199
585.217;  -24.463;  -73.113; -303.796
585.494;   86.481;   71.890;  118.198
585.771;  305.592; -250.109; -354.804
586.048;  765.936; -196.113;  -76.796
586.325;  431.072; -721.110; -773.801
586.602;  181.653;  230.896;  213.188
586.879;  -93.794; -499.100; -580.820
587.156;   87.435; -156.105; -331.810
587.433;  -86.517; -701.102; -667.817
587.710;  108.447;  152.888;  234.202
587.987;  447.243; -264.105; -236.811
588.264; 1185.450;  315.888;  387.202
588.541; 2092.356;  -61.104;   26.187
588.818; 3991.395;   72.892;  171.196
589.095; 3436.450; -163.104; -174.812
589.371;  511.989; -459.109; -414.804
589.648;   15.415; -581.107; -437.807
589.925;   58.328; -517.114; -621.795
590.202;  -26.554; -741.112; -607.798
590.478;  159.846; -166.105;  -73.811
590.755;  426.404; -241.108; -132.806
591.032; 3829.575; -741.110; -699.802
591.308; 4951.288; -732.094; -790.831
591.585; 2717.275; -573.110; -560.802
591.862;  150.685;-1056.102; -950.817
592.138;   66.500; -475.108; -474.805
592.415;  251.454; -486.104; -495.813
592.691; 2325.951;  460.896;  518.188
592.968; 2740.232; -208.098; -123.824
593.244; 1364.294; -695.116; -595.790
593.521;  131.685; -105.102;  -42.817
593.797;  -64.082; -810.122; -720.780
594.074;  480.751; -611.096; -588.826
594.350; 1068.367;  828.905;  729.172
594.626;  437.569; -303.111; -283.801
594.903;  132.386; -643.101; -645.817
595.179;  347.760;  243.896;  418.187
595.455;   50.417; -136.107; -150.807
595.731;   74.862;  -19.103;  -38.814
596.008;  -38.740; -464.111; -434.800
596.284;   41.409; -187.100; -242.820
596.560;   89.898; -501.093; -493.833
596.836;  333.438; -173.105;  -70.810
597.112;  485.402; -582.108; -437.805
597.388;  454.447;  -49.097;  -48.826
597.665;  242.140;  437.887;  530.203
597.941; -110.759; -572.089; -658.839
598.217;   27.080; -323.110; -293.802
598.493;  434.894;   61.891; -204.804
598.769;  733.701; -175.100;  -50.819
599.045;  435.406; -490.108; -562.806
599.321;   70.008; -193.100; -261.820
599.597;  186.693; -355.109; -476.804
599.872;  727.756;  409.896;  429.187
600.148;  499.950;  -61.097; -172.826
600.424;  477.513;   91.893;  202.193
600.700;  358.116; -170.107; -280.807
600.976;  151.941; -442.097; -464.825
601.252;  360.288; -226.109; -272.803
601.527;  308.758; -833.104; -840.813
601.803;  194.546; -453.105; -404.812
602.079;  332.801; -124.100; -118.819
602.354;  839.512; -620.092; -531.835
602.630; 1200.137; -140.113; -482.796
602.906; 3664.394; -910.101; -863.818
603.181; 9751.664; -627.119; -534.786
603.457; 8438.546;   98.903; -278.826
603.733; 1297.340; -605.120; -626.783
604.008; 1522.434; -245.106; -164.810
604.284; 4406.788; -636.101; -580.817
604.559; 3972.653;   -3.112;  -42.799
604.835;  777.138; -163.105; -225.810
605.110;  571.815; -732.099; -892.821
605.385; 1085.302;  224.907;  267.167
605.661;  940.671; -625.095; -729.829
605.936; 1647.006; -664.108; -737.806
606.211; 1521.572;  -17.103; -170.815
606.487;  311.221; -329.114; -376.794
606.762;   17.664; -791.119; -745.786
607.037;  -41.062; -501.105; -433.810
607.313; -118.039; -589.096; -574.828
607.588;   -4.867; -375.106; -137.810
607.863;   62.993;  -28.101; -143.818
608.138;  335.878;  513.890;  516.198
608.413;   32.121; -576.099; -592.822
608.688;   38.201; -203.108; -267.805
608.964;  294.625; -509.106; -218.809
609.239;  379.234; -107.105; -212.810
609.514;  421.446;  281.895;  240.188
609.789;  967.952; -187.104; -716.812
610.064; 1227.359; -435.096; -609.827
610.339; 1287.789; -855.109; -799.804
610.614; 1686.708; -131.100; -315.820
610.889; 1012.446;  215.895;  107.188
611.163;   34.647; -407.104; -591.812
611.438;  112.223;   81.886; -167.794
611.713;    0.088; -467.101; -499.817
611.988;   78.891; -144.101; -328.818
612.263;  -72.326; -771.102; -717.815
612.538;  376.836;  385.887;  251.204
612.812;  200.710; -832.100; -911.820
613.087;  189.429; -358.098; -338.823
613.362;  -97.884; -497.107; -557.807
613.637;  100.866;  261.897;  138.186
613.911;   11.013; -256.092; -345.835
614.186;  165.614; -249.107; -292.807
614.460;  935.651; -842.081; -758.854
614.735; 1101.075;  -55.087;  -17.843
615.010;  267.760;   43.912;  -82.841
615.284;  449.500;  360.892;  246.195
615.559;  434.011; -792.092; -955.835
615.833;  441.118;  -76.099;  -87.822
616.108;   32.829; -225.090; -390.837
616.382;  246.977;  274.913;  402.156
616.656;  262.929; -241.090; -232.837
616.931;  709.219; -785.099; -700.822
617.205; 1509.258; -973.104; -979.813
617.480; 1481.982;  -91.125;    6.225
617.754;  220.578; -396.125; -128.774
618.028;    9.035; -369.129; -382.768
618.302;  124.498;   73.892;  -25.805
618.577;  -93.732; -371.103; -518.815
618.851; -124.416; -399.109; -600.803
619.125;  -86.330; -335.134; -378.759
619.399;  -14.141; -244.104; -374.813
619.673;  -77.795; -330.115; -515.792
619.947;  -95.573; -333.114; -448.795
620.222;  -32.630; -198.110; -204.801
620.496;   19.936;  -47.121;  -96.782
620.770;   25.524; -187.122;  -93.781
621.044;  340.135;  323.895;  346.190
621.318; 1072.141; -653.120; -614.783
621.592;  965.837; -430.121; -409.783
621.866;  503.754; -476.112; -572.799
622.140;   26.596; -207.116; -356.791
622.413;  129.960;  138.889;  112.200
622.687;  -59.411; -746.101; -492.817
622.961;   55.598; -130.108; -143.805
623.235; -118.539; -633.111; -661.800
623.509; -188.555; -816.105; -848.811
623.783;   72.911;  -12.107;   48.193
624.056;  -33.958; -254.120; -280.783
624.330;  101.444;   63.888;   -3.797
624.604;   98.991; -271.116; -355.790
624.877;  137.277;  180.890;   26.198
625.151;   53.119; -249.114; -238.794
625.425;  -79.138; -150.103; -283.814
625.698;  -82.744; -367.119; -374.785
625.972; -207.920; -799.110; -765.802
626.245;  186.594;  685.884;  484.210
626.519;  -49.752; -426.120; -340.784
626.792;  -55.484; -192.107; -380.807
627.066; -156.286; -485.122; -662.779
627.339; -157.726; -736.110; -663.802
627.613;  130.946;  351.880;  148.216
627.886;  131.383;  187.891; -612.803
628.160;   -5.360;  312.880; -161.783
628.433; -168.714; -695.125; -703.775
628.706; -132.052; -517.120; -615.784
628.979;   78.196;  296.876;  117.223
629.253; -187.237; -785.119; -833.786
629.526;  601.563; -334.126; -253.772
629.799;  445.106; -641.123; -479.778
630.072;  180.537; -497.128; -516.769
630.346; -152.606;-1115.116;-1080.790
630.619;  670.917; -467.107; -545.808
630.892;  938.062;  709.889;  593.200
631.165;  586.259;  790.896;  679.187
631.438; -180.150;-1092.112;-1055.798
631.711;  132.011;  453.877;  257.221
631.984;  -86.813; -523.117; -624.789
632.257; -126.118; -636.117; -681.789
632.530;  -73.744; -412.119; -433.785
632.803;  103.616; -109.115;    7.207
633.076; -110.599; -360.123; -422.777
633.349;   37.743;  173.872;  121.231
633.622;  -71.345; -187.119; -240.785
633.895; -248.958; -903.120; -823.783
634.167; -118.534; -496.126; -525.773
634.440;   -2.597;  -19.116; -137.792
634.713;   12.561;  -22.119; -120.786
634.986;  202.228;  593.871;  453.233
635.258; -131.887; -507.115; -597.793
635.531;  230.676;  742.882; -343.788
635.804;  -48.015; -303.117; -318.789
636.077; -189.302; -830.116; -852.791
636.349;  -27.589; -586.115; -474.793
636.622;  791.662; 1695.874; 1392.228
636.894;  347.749; -474.120; -909.784
637.167;  200.153; -836.127; -789.771
637.439;   57.948; -278.128; -213.770
637.712;  -84.835; -312.126; -293.772
637.984; -136.801; -635.116; -707.791
638.257;  659.602;  515.877;  488.222
638.529;  730.388; -881.125; -924.776
638.802;  317.237; -508.128; -449.769
639.074; -231.377; -927.122; -952.781
639.346; -224.043; -942.135; -930.757
639.619;   25.661;  -79.142; -319.744
639.891;  -15.286;  -83.122; -168.779
640.163; -185.084; -689.122; -756.780
640.435;   74.019;  273.878;  103.220
640.708;   34.522;  -72.122; -132.780
640.980;  -55.675; -366.122; -362.781
641.252;  339.127;  -25.121;  -71.781
641.524; 2741.030;  580.879;  573.219
641.796; 2597.433;-1094.121; -907.782
642.068;  483.535; -191.121; -300.782
642.340; -104.062; -486.121; -566.783
642.613;  132.741;  294.880;  323.217
642.885; -189.657; -787.120; -878.783
643.157; -111.554; -810.120; -658.784
643.428;  157.949;  170.880;  218.216
643.700; -114.948; -498.120; -425.784
643.972;  -38.846;  -16.119; -133.785
644.244; -139.443; -474.119; -559.785
644.516;  -95.940; -250.119; -114.786
644.788;  148.362;  662.881;  548.214
645.060;   -7.935;  -12.119; -124.786
645.332; -165.932; -525.118; -535.787
645.603;  119.070;  479.882;  342.213
645.875; -136.727; -334.118; -369.787
646.147;  327.076; 1487.882; 1242.212
646.418; -145.122; -931.117; -918.788
646.690;  161.681; -714.117; -715.789
646.962;   10.784; -413.117; -451.789
647.233;   13.187;   15.883;   11.211
647.505; -167.911; -595.117; -475.790
647.776;   73.392;  328.884;  229.210
648.048;  -18.205; -248.116; -418.790
648.320; -131.003; -752.116; -679.791
648.591; -289.500;-1055.116; -958.791
648.862; -142.697; -505.116; -577.792
649.134;  100.305;  115.885;  198.208
649.405;  -93.292; -661.115; -618.792
649.677;  -63.889; -475.115; -598.793
649.948;   17.013; -181.115; -296.793
650.219;   -1.384;  -37.115; -147.793
650.491;  -96.481; -431.114; -520.794
650.762; -231.178; -705.114; -731.794
651.033; -156.576; -437.114; -424.795
651.304; -178.373; -743.114; -728.795
651.576; -124.170; -680.114; -645.795
651.847;  -39.768; -250.113; -140.796
652.118;  -49.665;  -32.113; -189.796
652.389; -199.762; -639.113; -722.796
652.660;  -31.460; -147.113;  -89.797
652.931; -273.457; -897.112; -871.797
653.202; -148.354; -382.112; -541.798
653.473; -134.952; -633.112; -533.798
653.744;  199.751; -595.112; -590.798
654.015;  189.454; -356.112; -303.799
654.286; -128.943; -642.111; -663.799
654.557;  -85.041; -586.111; -521.799
654.828; -314.938;-1114.111;-1088.800
655.099; -111.235; -404.111; -291.800
655.370; -165.633; -427.111; -543.801
655.641; -209.530; -656.110; -714.801
655.911; -184.127; -618.110; -638.801
656.182;  126.975;  437.890;  387.198
656.453;  224.178;  830.890;  746.198
656.724; -149.119; -466.110; -426.802
656.994; -122.217; -553.109; -568.803
657.265; -185.014; -862.109; -873.803
657.536; -142.211; -500.109; -377.804
657.806; -189.108; -561.109; -593.804
658.077; -232.906; -866.109; -950.804
658.347; -139.303; -523.108; -598.805
658.618; -227.300; -646.108; -694.805
658.888;    2.102;  -41.108;  112.195
659.159; -136.195; -432.108; -548.806
659.429;  -39.192; -292.108; -349.806
659.700;   23.810; -435.107; -390.807
659.970;  -39.487; -370.107; -359.807
660.241;   -8.784; -754.107; -921.807
660.511;  758.918; -147.107; -174.808
660.781;   86.621; -793.106; -748.808
661.052;  -77.976; -222.106; -381.808
661.322;   28.427;   21.894;   -9.809
661.592;   74.529;  257.894;  148.191
661.862; -111.268; -369.106; -382.810
662.133; -157.265; -551.105; -502.810
662.403; -197.663; -770.105; -676.810
662.673;  -67.460; -256.105; -213.811
662.943; -178.557; -612.105; -551.811
663.213;   11.145;  -85.105;  -81.811
663.483; -135.652; -593.104; -568.812
663.753;  -44.549; -194.104; -152.812
664.023;   -0.447;   68.896;  -32.813
664.293;  -80.944; -319.104; -126.813
664.563; -201.941; -694.104; -648.813
664.833; -182.038; -743.103; -608.814
665.103; -233.836; -730.103; -793.814
665.373; -208.733; -766.103; -806.814
665.643; -174.430; -863.103; -918.815
665.913;   41.072; -534.103; -714.815
666.182;  182.875; -685.102; -719.816
666.452;  389.678;  -22.102;  -89.816
666.722;  -88.420; -724.102; -784.816
666.992; -239.617; -948.102; -921.817
667.261; -170.814; -824.102; -808.817
667.531;  339.488;  134.899;   45.183
667.801;  747.391; -440.101; -412.818
668.070;  462.494;  714.899;  697.182
668.340; -194.903; -883.101; -840.819
668.609;  190.799;  588.900;  301.181
668.879; -133.598; -490.100; -558.819
669.149; -106.195; -539.100; -516.820
669.418; -171.293; -698.100; -726.820
669.688;  -54.790; -482.100; -666.820
669.957;   95.313; -423.099; -546.821
670.226;  -47.685; -268.099; -331.821
670.496; -155.082; -431.099; -635.822
670.765; -124.979; -418.099; -501.822
671.034; -214.776; -872.099; -828.822
671.304;    7.826;   55.902; -111.823
671.573; -273.471;-1085.098; -957.823
671.842;  128.132; -380.098; -294.823
672.112;   18.334; -692.098; -586.824
672.381;  -14.863; -239.098; -214.824
672.650; -242.160;-1005.097;-1021.825
672.919; -135.258; -631.097; -507.825
673.188; -158.355; -681.097; -878.825
673.457; -294.452;-1101.097;-1143.826
673.726; -113.650; -579.096; -646.826
673.995;  -74.247; -533.096; -479.826
674.265;  -15.644; -263.096; -333.827
674.534;   20.059; -183.096; -235.827
674.802;    0.461; -618.096; -703.828
675.071; 1574.564; -886.095; -801.828
675.340; 5421.067; -464.095; -339.828
675.609; 1973.869;  103.905;   82.171
675.878;   61.272; -949.095; -893.829
676.147;  100.475;  -26.095;   -8.829
676.416;  130.677; -210.094; -294.830
676.685; 1224.580; 1000.906; -622.830
676.953;  156.883; -603.094; -452.831
677.222;   -8.215; -193.094; -273.831
677.491;   -7.112;  -24.094; -127.831
677.759;   20.591;   11.907;  172.168
678.028;  -21.106; -279.093; -222.832
678.297;   20.896;   71.907;  197.168
678.565; -253.501; -898.093; -944.833
678.834;  -64.898; -311.093; -268.833
679.102;  -83.896; -411.092; -391.834
679.371; -242.993; -898.092; -727.834
679.639; -245.790; -797.092; -786.834
679.908; -215.588; -794.092; -724.835
680.176; -273.185; -895.091; -941.835
680.445; -109.182; -346.091; -352.835
680.713;   -5.880;  -58.091;  -23.836
680.982; -141.077; -523.091; -525.836
681.250; -186.974; -578.091; -507.837
681.518; -186.271; -534.090; -751.837
681.787;  -37.469; -204.090; -167.837
682.055; -101.266; -490.090; -422.838
682.323; -264.363; -993.090; -992.838
682.591;   73.239; -216.090; -538.838
682.859;  131.842;    9.911;  -35.839
683.128;   89.645;  232.911;  497.161
683.396; -281.853;-1102.089;-1122.840
683.664;  -55.150; -241.089;   21.160
683.932;   57.353;  144.911;  -76.840
684.200; -127.845; -576.088; -320.841
684.468;   -1.042;  -73.088; -124.841
684.736;  -36.639; -214.088; -175.841
685.004; -235.536;-1024.088; -982.842
685.272; -145.134; -880.088; -774.842
685.540; -127.631; -499.087; -557.843
685.808; -136.128; -651.087; -682.843
686.076; -192.326; -894.087; -969.843
686.343;  -97.223; -601.087; -815.844
686.611;   54.380; -195.087; -224.844
686.879;  771.282; -530.086; -553.844
687.147; 4771.485; -483.086; -480.845
687.414; 1354.388;  -12.086; -169.845
687.682;  -13.510; -658.086; -757.846
687.950;  497.493;  259.915;  263.154
688.217;  -16.004; -792.085; -760.846
688.485;   -6.101; -632.085; -636.847
688.753;  758.401;  -11.085; -102.847
689.020;  203.804; -820.085; -851.847
689.288; -169.193; -853.084; -787.848
689.555;  -32.591; -195.084; -148.848
689.823;  -38.188; -241.084; -345.849
690.090; -152.185; -546.084; -651.849
690.358; -253.383; -877.084; -897.849
690.625;   65.220;  120.917;   45.150
690.892; -115.177; -403.083; -369.850
691.160;   24.525;   72.917;  -35.850
691.427;   54.928;  141.917;  130.149
691.694; -256.969; -855.083; -929.851
691.962; -279.666;-1177.082;-1060.852
692.229;   56.636;  127.918;   56.148
692.496;  153.839;  130.918;  -49.852
692.763;   17.642; -164.082; -201.853
693.031; -127.556; -739.082; -716.853
693.298;  -86.953; -509.081; -368.853
693.565;  514.150; -155.081; -163.854
693.832; 1800.852;   -5.081;   -9.854
694.099;  181.155; -643.081; -642.855
694.366; -123.942; -882.081; -896.855
694.633; -104.540; -920.080; -633.855
694.900; 1537.663; 4367.920; -114.856
695.167;  644.266; -214.080; -380.856
695.434;  151.669; -646.080; -623.856
695.701;  353.171;  121.921;  -61.857
695.968;  689.674; -365.079; -361.857
696.234; 1720.177; -415.079; -646.858
696.501;16281.479; -776.079; -614.858
696.768; 7749.982; -554.079; -617.858
697.035;  503.985; -632.078; -667.859
697.302;   36.687; -448.078; -552.859
697.568;   21.290; -458.078; -497.859
697.835;  -69.807; -683.078; -624.860
698.102;  -62.004; -498.078; -407.860
698.368;  203.598;  384.923;  396.139
698.635;  -16.599;  -47.077; -424.861
698.901;  -11.996; -240.077; -348.861
699.168;  128.706; -534.077; -456.862
699.435;  143.309;  -72.077;  -13.862
699.701; -235.688; -868.076; -764.862
699.968;  -75.686;  144.924; -441.863
700.234; -202.783; -783.076; -822.863
700.500;  -69.180; -448.076; -539.864
700.767;   41.422;   -1.075;   26.136
701.033; -222.175;-1015.075; -963.864
701.299; -103.472; -450.075; -483.865
701.566;  309.131;  950.925;  763.135
701.832;   77.933;  -31.075;  -76.865
702.098; -181.464;-1054.074;-1034.866
702.365; -161.161;-1098.074;-1030.866
702.631;  -74.459;-1038.074;-1063.867
702.897; 2135.144; -765.074; -676.867
703.163; 3198.447;  348.926;  254.133
703.429;  239.649; -256.073; -273.868
703.695;  -73.948; -796.073; -792.868
703.961;  123.255; -214.073; -210.868
704.227;  -94.043; -630.073; -725.869
704.493;  280.960;  613.927;  510.131
704.759;  -39.937; -565.072; -540.870
705.025;   70.866; -203.072; -194.870
705.291;  -27.432; -666.072; -562.870
705.557;  400.871;  719.928;   34.129
705.823;   30.074; -742.072; -694.871
706.089;  224.876; -307.071; -326.871
706.355;  622.779; -315.071; -244.872
706.620; 8940.082; -776.071; -729.872
706.886;11326.484; -309.071; -362.873
707.152;  998.687; -818.070; -973.873
707.418;  -57.410;-1153.070;-1186.873
707.683;   26.692; -550.070; -530.874
707.949;  -80.505; -547.070; -578.874
708.215;   16.298; -129.070; -207.874
708.480;  -46.499; -520.069; -420.875
708.746;  186.603;   68.931;   28.125
709.011;  -88.694; -578.069; -612.876
709.277; -125.491; -538.069; -543.876
709.542;  -69.189; -428.069; -387.876
709.808;   54.414;  -59.068;   89.123
710.073; -130.783; -577.068; -695.877
710.339;   -6.481; -242.068; -228.877
710.604;  128.122; -780.068; -845.878
710.869;  442.125; -277.068; -366.878
711.135; -120.273; -715.067; -628.879
711.400; -113.570; -507.067; -608.879
711.665;  -98.667; -404.067; -479.879
711.931; -132.664; -661.067; -677.880
712.196; -189.362; -876.067; -954.880
712.461;  175.241; -402.066; -490.880
712.726;  160.344; -727.066; -771.881
712.991; -148.854; -647.066; -664.881
713.256;  -29.351; -350.066; -332.882
713.521;  -99.748; -417.065; -381.882
713.787;  -95.646; -454.065; -472.882
714.052;  -34.643; -214.065; -400.883
714.317; -178.640;-1045.065; -981.883
714.581; 1585.362; -374.065; -268.883
714.846; 1843.165; -822.064; -888.884
715.111;  257.668;  261.936;  257.116
715.376;  -30.029;  -86.064; -223.885
715.641;   48.773; -365.064; -367.885
715.906;  434.676;   15.936; -551.885
716.171;  242.979;  221.937;  209.114
716.436;   51.281;  -78.063; -104.886
716.700; -183.816; -818.063; -692.886
716.965; -201.413; -794.063; -807.887
717.230;  -84.811; -339.063; -392.887
717.494;   -2.608;  -40.062; -134.888
717.759; -160.305; -784.062; -640.888
718.024;   26.597;  269.938;  250.112
718.288;  170.800;  685.938;  395.111
718.553; -254.397; -803.062; -977.889
718.817; -249.794; -883.061; -899.889
719.082;    4.608; -115.061; -125.890
719.346; -247.589;-1000.061; -947.890
719.611;  -45.586; -300.061; -255.891
719.875; -161.384; -568.060; -537.891
720.140; -110.281; -453.060; -603.891
720.404;  111.122; -136.060; -249.892
720.668; 1244.424; -475.060; -411.892
720.933;  475.427;  146.940;  137.108
721.197; -174.370; -667.059; -600.893
721.461; -240.668; -851.059; -826.893
721.725;   60.035;  -21.059; -250.894
721.990;  -61.062; -284.059; -204.894
722.254;   -8.259;  -26.059; -108.894
722.518; -130.357; -286.058; -442.895
722.782; -162.354; -743.058; -594.895
723.046;  249.649;  614.942;  570.105
723.310;   95.451;  374.942;  210.104
723.574; -151.146; -654.058; -614.896
723.838; -179.343; -576.057; -642.897
724.102;  -38.841; -226.057; -239.897
724.366; -277.838;-1032.057; -978.897
724.630; -171.435; -749.057; -571.898
724.894; -127.533; -722.057; -514.898
725.158;   34.170;   38.944; -295.898
725.422;  -66.727; -394.056; -327.899
725.685;  -63.024; -441.056; -349.899
725.949; -173.022; -566.056; -519.900
726.213; -116.919; -732.056; -811.900
726.477;  215.484;-1020.055; -933.900
726.740;  253.686; -274.055; -104.901
727.004;  582.389; -384.055; -510.901
727.268; 4988.692; -442.055; -400.901
727.531; 1214.894; -961.055; -775.902
727.795;  -86.103; -713.054; -673.902
728.059;  -83.900; -552.054; -557.903
728.322; -119.597; -841.054; -669.903
728.586;   22.805; -692.054; -701.903
728.849; -194.692; -695.053; -756.904
729.112; -194.689; -812.053; -912.904
729.376; -198.187; -959.053; -905.904
729.639;  -94.084; -536.053; -536.905
729.903; -156.881; -733.053; -699.905
730.166;  -88.379; -437.052; -399.906
730.429;    9.124; -317.052; -468.906
730.693;  -94.373; -355.052; -894.906
730.956;  400.229;  810.948;  651.093
731.219; 1001.232; -310.052; -103.907
731.482;  179.935;-1003.051; -894.907
731.745;   69.538; -794.051; -935.908
732.009;   67.440;  -30.051;   50.092
732.272; -133.357; -904.051; -771.909
732.535;  -66.654; -300.051; -310.909
732.798; -270.152;-1083.050;-1166.909
733.061;  -97.349; -430.050; -456.910
733.324;   66.954;   31.950; -180.910
733.587;  147.156;  290.950;  365.090
733.850; -132.041; -973.049;-1050.911
734.113;   88.562;   33.951;   32.089
734.376;   -0.536; -328.049; -447.912
734.639;  451.267; 1188.951; 1011.088
734.901;  113.270; -180.049; -402.912
735.164;  809.873; -883.048; -837.913
735.427; 1772.775; -166.048; -355.913
735.690;  210.078; -205.048; -234.913
735.952; -100.019; -923.048; -925.914
736.215;  -91.117;-1113.048;-1009.914
736.478;    1.286; -771.047; -774.915
736.740;  366.089;   33.953;  129.085
737.003; 1120.291; -658.047; -672.915
737.266; 5786.394;  -94.047;   46.084
737.528;  677.297; -682.047; -660.916
737.791;  493.099; -316.046; -327.916
738.053; 1415.102;  465.954;  649.083
738.316;17195.305; -162.046; -136.917
738.578;10483.208; -770.046; -736.918
738.841;  733.710; -382.046; -446.918
739.103;  296.413; -875.045; -777.918
739.365;  750.416;   79.955;  -69.919
739.628;  -50.882; -884.045; -805.919
739.890;  -56.479; -758.045; -710.919
740.152;  -83.276; -692.044; -754.920
740.414;   17.226; -408.044; -359.920
740.677;  -64.071; -785.044; -634.921
740.939;  -55.868; -587.044; -487.921
741.201;  424.734; -432.044; -572.921
741.463;   49.937; -689.043; -745.922
741.725;   42.140;  -21.043; -199.922
741.987;  131.043;  220.957;  116.078
742.249;  -22.355; -751.043; -859.923
742.511;  280.248; -703.043; -794.923
742.773;   41.251; -546.042; -546.924
743.035;  255.453;  796.958;  533.076
743.297;  -81.344; -963.042;-1013.924
743.559; 1115.159; -278.042; -262.925
743.821;   47.961; -735.042; -744.925
744.083;   45.964;  -44.041; -149.925
744.345; -156.833; -869.041; -892.926
744.607;   89.569;   75.959;  122.074
744.868;  -48.228; -490.041; -554.927
745.130; -207.225; -994.041;-1008.927
745.392;   77.678;   -1.040;  -44.927
745.653;   23.480; -411.040; -378.928
745.915;  355.983;  896.960;  631.072
746.177;  128.086;   35.960;  -43.928
746.438;  -53.712; -428.040; -543.929
746.700;  -83.009; -947.039; -988.929
746.961;    4.394; -659.039; -740.930
747.223;  242.196; -190.039;  -74.930
747.484;  144.099; -391.039; -471.930
747.746;  268.502;  -23.038; -106.931
748.007;  178.404; -647.038; -689.931
748.269;  513.707; -468.038; -440.931
748.530;  653.710; -852.038; -638.932
748.791;  428.013; -354.038; -420.932
749.053;  712.915;  286.963;  163.067
749.314;  749.718; -236.037; -169.933
749.575;  712.421; -945.037; -905.933
749.836; 1295.923; -217.037;   86.066
750.098; 4205.126;  -60.037;  -21.934
750.359;53232.429;  414.964;  555.066
750.620;12032.531; -121.036; -220.935
750.881; 1596.034; -585.036; -513.935
751.142; 2200.637; -950.036; -938.936
751.403;26135.139; -789.036; -705.936
751.664; 9888.742;-1034.035; -999.936
751.925;  764.645; -175.035; -262.937
752.186;  438.748; -298.035; -278.937
752.447;  262.850; -590.035; -445.937
752.708;   67.053; -532.035; -648.938
752.969;   12.156; -566.034; -576.938
753.230;  -19.142; -777.034; -672.939
753.491;   -1.439; -650.034; -631.939
753.751;  135.964;  109.966;   19.061
754.012;  256.266;  258.967;  181.060
754.273;  193.569; -174.033;  -71.940
754.534;   31.872; -487.033; -580.940
754.794; -162.225; -926.033; -911.941
755.055;  346.077; 1051.967;  881.059
755.316; -110.820; -700.032; -566.942
755.576;  -21.717; -606.032; -576.942
755.837;  -66.215; -527.032; -695.942
756.097;  -40.912; -530.032; -564.943
756.358; -114.209; -725.032; -770.943
756.618;  -70.007; -705.031; -641.943
756.879;   42.996; -254.031; -349.944
757.139; -219.101;-1098.031;-1116.944
757.400;  -61.899; -538.031; -553.945
757.660;    2.104; -365.031; -401.945
757.920;   42.007; -266.030; -228.945
758.181;    0.610; -468.030; -351.946
758.441; -152.188; -870.030; -809.946
758.701;  -17.485; -308.030; -215.946
758.961;  -12.782; -220.030; -278.947
759.222;  -78.780; -574.029; -502.947
759.482; -110.177; -683.029; -723.948
759.742; -123.274; -706.029; -547.948
760.002;   76.228;  -83.029; -143.948
760.262;  113.031;   50.972;  182.051
760.522;  -43.866; -498.028; -574.949
760.782;  -82.564; -738.028; -612.949
761.042;  -21.261; -618.028; -573.950
761.302;  129.642;   55.972;  -18.950
761.562;  136.945; -164.027; -154.951
761.822;  157.047; -710.027; -551.951
762.082;  -45.050;-1104.027;-1093.951
762.342;  154.553; -328.027; -403.952
762.601;  162.955; -567.027; -506.952
762.861;  582.058; -281.026; -207.952
763.121;  762.961; -406.026; -411.953
763.381;13885.463; -499.026; -485.953
763.640;12622.966; -139.026; -307.954
763.900;  693.669; -242.026; -203.954
764.160;  163.971; -458.025; -491.954
764.419;   -4.326; -726.025; -782.955
764.679;  -94.323; -795.025; -726.955
764.939;   31.780; -124.025; -210.955
765.198; -104.618; -608.025; -563.956
765.458; -111.715; -710.024; -612.956
765.717; -119.512; -454.024; -590.957
765.976;  -84.610; -428.024; -411.957
766.236;  -80.507; -475.024; -610.957
766.495;   82.996;  260.977;   73.042
766.755; -189.602;-1090.023; -987.958
767.014;   23.101; -594.023; -665.958
767.273;  -73.796; -373.023; -397.959
767.533;  -46.494; -228.023; -307.959
767.792;    6.809; -151.022; -188.960
768.051;  -83.388; -228.022; -276.960
768.310; -136.185; -546.022; -650.960
768.569;   46.917; -161.022;    4.039
768.828;  -18.480; -285.022; -363.961
769.088; -203.277;-1050.021; -942.961
769.347; -124.375; -755.021; -599.962
769.606; -147.072; -876.021; -857.962
769.865; -223.369;-1016.021;-1033.963
770.124;   36.133; -411.021; -336.963
770.383; -108.464; -778.020; -910.963
770.641;   28.039; -398.020; -400.964
770.900; -126.159; -953.020; -846.964
771.159;  -74.956; -851.020; -951.964
771.418;  -38.953; -917.020; -779.965
771.677;  221.050; -224.019; -293.965
771.936;  215.952; -794.019; -865.966
772.194; 4305.155; -465.019; -437.966
772.453;16411.958; -213.019; -391.966
772.712; 1247.460;  416.982;  329.033
772.970;  247.563;   32.982;   63.033
773.229;  186.366;  -22.018;  102.033
773.488; -132.132; -814.018; -770.968
773.746;  181.271;  296.982;  335.032
774.005;   77.274;  190.983;  -22.969
774.263;   94.976;  243.983;  177.031
774.522; -140.721; -422.017; -548.969
774.780;  -99.418; -484.017; -417.970
775.039; -125.315; -551.017; -531.970
775.297;   26.487; -135.016; -351.970
775.555; -158.110; -489.016; -612.971
775.814; -182.807; -618.016; -570.971
776.072; -205.005; -749.016; -740.971
776.330; -151.702; -630.016; -520.972
776.589; -185.899; -703.015; -721.972
776.847; -223.997; -645.015; -624.973
777.105; -266.194;-1016.015;-1032.973
777.363; -113.291; -459.015; -454.973
777.621; -215.089; -660.015; -717.974
777.879;   -3.986;  -42.014;   32.026
778.138; -165.683; -554.014; -717.974
778.396; -152.980; -585.014; -526.975
778.654; -304.778;-1015.014; -970.975
778.912;  -94.075; -269.014; -371.976
779.170; -219.772; -880.013; -803.976
779.427; -252.170; -922.013; -897.976
779.685; -213.667; -880.013; -832.977
779.943; -152.364; -654.013; -593.977
780.201; -281.962; -964.012; -883.978
780.459; -181.359; -651.012; -610.978
780.717; -112.456; -440.012; -390.978
780.974; -151.254; -449.012; -490.979
781.232;  -92.851; -358.012; -338.979
781.490;  -92.748; -551.011; -472.979
781.747; -161.445; -555.011; -476.980
782.005;  109.757;  462.989;  254.020
782.263; -287.640; -542.011;-1004.981
782.520; -114.837; -326.011; -501.981
782.778; -320.235;-1013.010;-1051.981
783.035; -301.432; -962.010; -938.982
783.293;  -47.029; -248.010; -206.982
783.550;  -58.827; -134.010; -198.982
783.808; -201.724; -764.010; -776.983
784.065; -252.321; -745.009; -874.983
784.322;  -26.918;   25.991;  -86.984
784.580; -224.016; -915.009; -771.984
784.837; -160.313; -392.009; -466.984
785.094; -225.810; -783.009; -762.985
785.352; -111.508; -304.008; -404.985
785.609; -171.605; -934.008; -839.985
785.866; -106.102; -345.008; -401.986
786.123; -115.700; -639.008; -583.986
786.380; -151.797; -665.008; -604.987
786.637;   -4.494; -225.007; -380.987
786.895;  -31.792; -456.007; -543.987
787.152;  -22.289; -135.007; -267.988
787.409;  -37.886; -123.007; -225.988
787.666; -110.983; -299.006; -378.988
787.923; -191.981; -616.006; -695.989
788.179; -143.578; -551.006; -584.989
788.436; -168.875; -585.006; -585.990
788.693;  -37.973;  -92.006;  -87.990
788.950;  317.330; -125.005; -112.990
789.207;  309.233; -381.005; -372.991
789.464;  -48.165; -161.005; -301.991
789.720;   32.538;  150.995;  110.009
789.977; -276.759;-1003.005; -671.992
790.234;    6.143;   44.996;  -66.992
790.490; -266.854; -884.004;-1031.993
790.747;   15.749;  -85.004;   22.007
791.004;  -45.548; -426.004; -348.993
791.260; -103.446; -430.004; -560.994
791.517; -164.543; -843.003; -788.994
791.773;  -76.740; -379.003; -342.994
792.030; -219.838; -596.003; -660.995
792.286; -157.335; -686.003; -636.995
792.543;  -11.332;  -74.002; -159.995
792.799;  -58.630; -584.002; -382.996
793.055; -291.027;-1179.002;-1210.996
793.312; -159.124; -827.002; -816.997
793.568;  -82.122; -746.002; -599.997
793.824;   63.181; -226.001; -284.997
794.081;   49.084; -447.001; -508.998
794.337;  125.087; -664.001; -561.998
794.593; 2840.289; -319.001; -271.999
794.849;10546.392; -746.001; -772.999
795.105;  494.195; -270.000; -261.999
795.361;   75.697; -490.000; -457.000
795.617; -124.600; -875.000; -945.000
795.873;  -46.800; -360.000; -407.000
796.129;  -19.200; -368.000; -306.000
796.385;   -5.000; -124.000; -156.000
796.641;  195.700;  412.000;  550.000
796.897; -112.700; -666.000; -635.000
797.153;  160.900;  453.000;  357.000
797.409; -171.700; -785.000; -868.000
797.665; -112.400; -625.000; -732.000
797.921; -122.700; -775.000; -762.000
798.176; -117.200; -744.000; -747.000
798.432;  -59.300; -824.000; -596.000
798.688; -145.300;-1174.000;-1078.000
798.943;  147.100; -165.000; -147.000
799.199;  -55.100;-1005.000; -959.000
799.455;  428.100;  369.000;  316.000
799.710;  243.200; -813.000; -380.000
799.966;  486.700; -162.000; -160.000
800.221;  738.900; -638.000; -721.000
800.477;17651.600; -743.000; -710.000
800.732;12142.900; -773.000; -800.000
800.988; 1009.100;  205.000;  -19.000
801.243; 3600.600; -454.000; -344.000
801.498;11950.500; -814.000; -739.000
801.754;  694.100; -289.000; -163.000
802.009;  185.500; -257.000; -335.000
802.264;  -73.700; -967.000;-1033.000
802.520;  107.800;  222.000;   -3.000
802.775;  -49.500; -524.000; -359.000
803.030;  144.900;  395.000;  356.000
803.285; -168.100; -840.000; -903.000
803.540;  -64.100; -686.000; -699.000
803.795;  -65.100; -648.000; -583.000
804.051;  -18.600; -279.000; -346.000
804.306;  119.800;  168.000;  128.000
804.561;  285.800;  451.000;  362.000
804.816;  327.600;  714.000;  861.000
805.071;   44.300; -185.000; -280.000
805.325;  336.900; -257.000; -427.000
805.580; -142.300; -841.000; -877.000
805.835;   11.200; -204.000; -297.000
806.090; -118.100; -760.000; -676.000
806.345;  -35.800; -344.000; -264.000
806.600;  -27.900; -549.000; -632.000
806.854;  -37.600; -408.000; -538.000
807.109;   32.700; -493.000; -577.000
807.364;   21.200; -407.000; -328.000
807.618;   26.200; -415.000; -381.000
807.873;   73.600; -470.000; -494.000
808.128;  199.600; -257.000; -518.000
808.382;  218.400; -224.000; -332.000
808.637;  146.900; -440.000; -511.000
808.891;  302.900; -257.000; -180.000
809.146;  168.300; -902.000; -794.000
809.400;  412.600; -848.000; -923.000
809.654;  545.200; -779.000; -551.000
809.909;  766.700; -841.000; -927.000
810.163;12588.800; -813.000; -651.000
810.418;24724.400; -940.000; -861.000
810.672; 1618.600; -685.000; -690.000
810.926; 1248.700; -993.000; -973.000
811.180; 2714.200; -439.000; -372.000
811.434;56677.900;  240.000;  135.000
811.689;17672.900; -231.000; -365.000
811.943;  923.300; -936.000; -953.000
812.197;  610.200; -893.000; -671.000
812.451;  222.700; -379.000; -514.000
812.705;   -9.000; -809.000; -619.000
812.959;  -25.700; -263.000; -388.000
813.213;   33.900; -283.000; -209.000
813.467;  229.700;  470.000;  253.000
813.721; -139.100; -764.000; -792.000
813.975; -179.600; -826.000; -877.000
814.229;  125.400;  430.000;  353.000
814.482; -105.300; -517.000; -566.000
814.736; -191.800; -766.000; -744.000
814.990; -201.700; -779.000; -872.000
815.244;  -40.400; -228.000; -285.000
815.497; -159.000; -636.000; -601.000
815.751;   34.700; -141.000;   82.000
816.005; -125.200; -470.000; -586.000
816.258;  -72.800; -510.000; -363.000
816.512; -194.100; -693.000; -610.000
816.766;  101.500;  121.000;  157.000
817.019;  111.500;  148.000;  149.000
817.273; -182.100;-1000.000; -802.000
817.526;  -10.100; -206.000; -173.000
817.779;  -80.400;-1049.000; -960.000
818.033; -129.800; -693.000; -807.000
818.286; -193.600; -725.000; -792.000
818.540; -132.900; -403.000; -403.000
818.793;  -72.900; -402.000; -489.000
819.046; -173.100; -582.000; -520.000
819.299;  -18.500; -157.000; -166.000
819.553; -131.700; -552.000; -592.000
819.806; -280.400;-1016.000; -838.000
820.059;  -86.800; -334.000; -354.000
820.312;   68.500;  152.000;  185.000
820.565;   42.700;  110.000;  -27.000
820.818;  -26.000;  -59.000; -173.000
821.071; -275.000;-1041.000; -957.000
821.324; -154.500; -536.000; -540.000
821.577; -148.000; -457.000; -483.000
821.830;  -65.300; -270.000; -172.000
822.083; -204.200; -733.000; -288.000
822.336;  -46.000; -261.000; -167.000
822.589; -184.900; -805.000; -688.000
822.842; -227.100; -875.000; -770.000
823.094; -319.400;-1076.000;-1114.000
823.347; -230.800; -925.000; -729.000
823.600;  101.900;  402.000;  187.000
823.853;  -45.400; -311.000; -267.000
824.105;  -91.700; -331.000; -575.000
824.358; -200.400; -617.000; -716.000
824.611;   76.700;  234.000;   40.000
824.863;  -96.300; -612.000; -591.000
825.116;  109.400;  -33.000;   27.000
825.368;  148.800; -366.000; -372.000
825.621;  248.100; -186.000; -240.000
825.873;  133.100; -704.000; -737.000
826.126; 1107.900; -669.000; -641.000
826.378;18394.700; -389.000; -505.000
826.630; 3291.300; -890.000; -898.000
826.883;   55.900; -754.000; -693.000
827.135;   89.000; -279.000; -270.000
827.387; -191.800; -893.000; -839.000
827.639;  -10.100;  -86.000;   32.000
827.892; -210.900; -742.000; -582.000
828.144; -221.200; -848.000; -804.000
828.396;  -22.800;  104.000;  -80.000
828.648; -128.000; -440.000; -333.000
828.900; -218.400; -702.000; -795.000
829.152; -194.200; -684.000; -683.000
829.404;  -71.300; -215.000; -267.000
829.656;  -19.300;  321.000;  214.000
829.908;   53.400;  393.000;  229.000
830.160; -266.700;-1064.000;-1047.000
830.412; -123.300; -481.000; -430.000
830.664; -181.200; -557.000; -665.000
830.916;  -79.600; -268.000; -206.000
831.167; -300.400;-1073.000; -951.000
831.419; -173.200; -623.000; -566.000
831.671; -232.700; -764.000; -809.000
831.923;  -93.100; -311.000; -447.000
832.174;  -63.400; -273.000; -331.000
832.426; -181.500; -493.000; -582.000
832.678; -311.300;-1043.000;-1091.000
832.929; -283.800; -947.000; -935.000
833.181; -114.600; -575.000; -677.000
833.432;  -51.200;  -59.000; -186.000
833.684;    7.400;  112.000;  -27.000
833.935; -196.600; -610.000; -566.000
834.187; -185.500; -829.000; -823.000
834.438;  -13.700;  -58.000;  -25.000
834.689;  -54.600; -255.000; -123.000
834.941;  -47.200; -343.000; -244.000
835.192; -151.900; -590.000; -533.000
835.443; -135.500; -419.000; -506.000
835.695;   58.800;  138.000;  -16.000
835.946; -122.700; -608.000; -378.000
836.197; -162.000; -599.000; -622.000
836.448; -119.600; -528.000; -395.000
836.699;  -78.700; -253.000; -341.000
836.950;   46.500;   72.000;    7.000
837.201; -283.700;-1003.000; -987.000
837.452;  -36.200; -356.000; -170.000
837.703; -194.600; -791.000; -737.000
837.954;  -10.900; -205.000; -365.000
838.205; -129.400;-1029.000;-1008.000
838.456;  320.700; -196.000; -282.000
838.707;   25.300; -423.000; -519.000
838.958;   37.400; -634.000; -647.000
839.209;  519.800;   18.000;   40.000
839.460;  188.100; -439.000; -201.000
839.710;  298.900; -135.000; -297.000
839.961;  742.600;  730.000;  612.000
840.212;  555.800; -382.000; -497.000
840.462; 1956.400; -328.000; -277.000
840.713;30062.800; -571.000; -536.000
840.964; 9130.000;  -62.000; -143.000
841.214;  770.600; -384.000; -624.000
841.465;  986.300; -214.000; -141.000
841.715;  870.500; -417.000; -380.000
841.966; 1142.700; -746.000; -685.000
842.216;18381.200; -330.000; -431.000
842.466;52747.800; -169.000; -313.000
842.717; 2064.300; -964.000; -952.000
842.967;  558.600; -635.000; -641.000
843.217;  514.100;   20.000;   28.000
843.468;  170.700; -104.000; -132.000
843.718;  -49.200; -718.000; -726.000
843.968; -172.000; -837.000; -765.000
844.218;   68.400; -315.000; -262.000
844.469;  -49.500; -577.000; -561.000
844.719; -144.300; -537.000; -682.000
844.969; -112.700; -550.000; -580.000
845.219; -249.700; -814.000; -862.000
845.469;  -79.300; -392.000; -342.000
845.719; -225.900; -792.000; -884.000
845.969;   63.600;  119.000;  174.000
846.219; -178.800; -738.000; -720.000
846.469;   99.300;  464.000;  432.000
846.718;  -32.200; -115.000;   31.000
846.968; -229.800; -827.000; -827.000
847.218;  -46.900; -224.000; -371.000
847.468; -163.600; -586.000; -555.000
847.718; -235.500; -827.000; -798.000
847.967; -205.200; -826.000; -915.000
848.217; -130.400; -449.000; -569.000
848.467;  -83.700; -405.000; -376.000
848.716; -161.100; -708.000; -725.000
848.966;   18.300; -372.000; -358.000
849.215;  -74.200; -428.000; -419.000
849.465; -149.800; -785.000; -615.000
849.714; -240.300;-1132.000;-1150.000
849.964; -101.800; -551.000; -613.000
850.213;   10.500; -393.000; -355.000
850.463;  198.000;  137.000;  340.000
850.712;   -2.400; -542.000; -567.000
850.961;    3.500; -739.000; -678.000
851.211;  168.600; -513.000; -504.000
851.460;  238.000; -635.000; -650.000
851.709;  961.700;  -25.000;   18.000
851.958;18317.300; -912.000; -750.000
852.208;16930.000; -859.000; -879.000
852.457;  675.900; -181.000;  -13.000
852.706;  100.200; -791.000; -823.000
852.955;   40.900; -507.000; -528.000
853.204; -119.100; -521.000; -461.000
853.453; -114.400; -418.000; -458.000
853.702; -225.400; -660.000; -750.000
853.951; -145.700; -532.000; -520.000
854.200; -193.900; -613.000; -562.000
854.449; -189.000; -695.000; -661.000
854.698; -118.300; -340.000; -279.000
854.946;  -63.800; -181.000; -284.000
855.195; -245.000; -843.000; -868.000
855.444; -129.500; -395.000; -420.000
855.693; -218.300; -345.000; -432.000
855.941; -161.800; -387.000; -516.000
856.190;  -48.200; -256.000; -382.000
856.439; -208.300; -652.000; -703.000
856.687;  -46.600;  -99.000;  -72.000
856.936; -160.300; -621.000; -323.000
857.184; -333.800;-1067.000;-1020.000
857.433; -135.000; -423.000; -512.000
857.681; -277.000; -989.000; -953.000
857.930;  -80.700; -282.000; -433.000
858.178; -291.100; -856.000; -929.000
858.427; -246.800; -802.000; -781.000
858.675; -178.000; -377.000; -544.000
858.923; -152.500; -527.000; -819.000
859.172; -294.700;-1094.000;-1070.000
859.420; -117.700; -339.000; -239.000
859.668; -214.900; -624.000; -628.000
859.916;   13.300;  109.000;  115.000
860.164; -203.400; -699.000; -603.000
860.413;  477.200; -878.000; -696.000
860.661;  207.200; -709.000; -577.000
860.909; -102.100; -339.000; -325.000
861.157; -104.300; -277.000; -444.000
861.405; -189.500; -534.000; -670.000
861.653;   66.700;  310.000;  310.000
861.901;  280.500; -543.000; -613.000
862.149;  -77.600; -801.000; -824.000
862.396; -105.000; -297.000; -187.000
862.644; -133.700; -368.000; -347.000
862.892;    8.700;   98.000;  138.000
863.140; -177.900; -549.000; -530.000
863.388; -256.400; -815.000; -759.000
863.635; -203.500; -642.000; -601.000
863.883;   27.900;  231.000;  190.000
864.131; -146.700; -288.000; -357.000
864.378; -223.900; -675.000; -540.000
864.626; -128.500; -347.000; -415.000
864.873; -177.800; -556.000; -505.000
865.121; -239.000; -714.000; -799.000
865.368;  -31.100; -173.000;   75.000
865.616;  -46.700;  -33.000;  -40.000
865.863; -112.000; -462.000; -506.000
866.111; -186.300; -795.000; -824.000
866.358;   66.000; -426.000; -420.000
866.605; 4014.300;  -64.000; -804.000
866.853; 3046.800; -621.000; -537.000
867.100;  -83.800; -728.000; -775.000
867.347; -166.300; -672.000; -611.000
867.594; -132.700; -740.000; -714.000
867.841;  141.800;   97.000;   17.000
868.089; -266.400; -746.000; -698.000
868.336; -138.000; -477.000; -420.000
868.583; -242.700; -637.000; -741.000
868.830;  -50.800; -131.000; -170.000
869.077; -299.200; -859.000; -787.000
869.324; -159.500; -502.000; -458.000
869.571; -216.900; -398.000; -430.000
869.818; -192.700; -485.000; -439.000
870.065; -144.800; -439.000; -513.000
870.311; -144.800; -456.000; -542.000
870.558; -159.500; -332.000; -311.000
870.805;  -85.300; -320.000; -384.000
871.052; -139.500; -494.000; -369.000
871.298;  -40.500; -204.000; -131.000
871.545;  -89.400; -151.000; -185.000
871.792; -107.400; -173.000; -222.000
872.038;  -40.100;   43.000; -126.000
872.285; -186.000; -496.000; -387.000
872.532; -146.600; -357.000; -387.000
872.778;   88.100;  556.000;  403.000
873.025; -122.500; -384.000; -359.000
873.271;  140.700;  501.000;  578.000
873.517;  -15.500; -133.000; -209.000
873.764;  -21.600; -193.000;  -80.000
874.010;  -92.100; -143.000; -230.000
874.257;  -28.500;  123.000;   90.000
874.503; -205.400; -579.000; -479.000
874.749;  -76.700;   31.000;  275.000
874.995;  -57.900;  -80.000;  -20.000
875.242; -196.400; -540.000; -478.000
875.488; -159.500; -414.000; -439.000
875.734;  -70.800; -106.000; -234.000
875.980;  350.200; -872.000;-1032.000
876.226;  517.200; -157.000; -255.000
876.472;   83.300;  343.000;  237.000
876.718;  -30.300;  184.000;  158.000
876.964;  -22.100;   56.000;   55.000
877.210; -215.200; -547.000; -677.000
877.456; -183.600; -630.000; -557.000
877.702; -271.700; -821.000; -832.000
877.948; -158.600; -377.000; -497.000
878.193;   92.100;  361.000;  255.000
878.439; -162.100; -487.000; -472.000
878.685; -139.200; -272.000; -343.000
878.931; -194.400; -618.000; -676.000
879.176;  -73.400; -201.000; -201.000
879.422; -302.000; -933.000; -820.000
879.668;  197.100;   10.000;   79.000
879.913;  219.000;   53.000;  137.000
880.159;  -59.700; -112.000;  -17.000
880.404;  -62.000; -152.000; -162.000
880.650;  -17.100;   91.000;  141.000
880.895; -252.400; -670.000; -710.000
881.141; -170.400; -454.000; -428.000
881.386; -212.800; -503.000; -658.000
881.631; -132.200; -311.000; -166.000
881.877;  -35.700;  112.000;  -13.000
882.122; -205.800; -684.000; -600.000
882.367;  -93.700; -136.000; -186.000
882.612;  -85.600;  -80.000; -176.000
882.858; -327.300; -877.000; -823.000
883.103; -147.100; -297.000; -267.000
883.348; -224.200; -759.000; -852.000
883.593; -223.800; -677.000; -602.000
883.838;  -40.000; -311.000;  -24.000
884.083;  106.700;  353.000;  288.000
884.328; -131.500; -564.000; -545.000
884.573;  -38.800; -196.000; -143.000
884.818;  349.000; -694.000; -531.000
885.063;  217.000; -348.000; -315.000
885.308; -135.600; -475.000; -398.000
885.553;   35.000;  245.000;  325.000
885.797; -197.100; -545.000; -615.000
886.042;  -52.000;    8.000;   58.000
886.287; -104.500; -253.000; -211.000
886.532;  -40.100;   26.000;  204.000
886.776; -130.900; -407.000; -525.000
887.021; -214.500; -621.000; -574.000
887.265; -238.300; -685.000; -689.000
887.510; -199.900; -557.000; -496.000
887.755; -109.700; -194.000; -164.000
887.999; -237.200; -552.000; -575.000
888.244;  -37.300;  -58.000;  161.000
888.488;   89.700;  371.000;  393.000
888.732; -158.800; -368.000; -520.000
888.977; -189.000; -622.000; -567.000
889.221; -256.500; -683.000; -659.000
889.465; -174.600; -422.000; -566.000
889.710;  -77.100;  -56.000; -299.000
889.954;   74.500;  579.000;  467.000
890.198; -246.500; -584.000; -707.000
890.442; -261.000; -716.000; -712.000
890.687; -268.800; -800.000; -753.000
890.931; -128.900; -273.000; -210.000
891.175; -198.300; -502.000; -500.000
891.419;  -78.500; -105.000; -110.000
891.663; -102.500; -239.000; -112.000
891.907; -273.900; -801.000; -545.000
892.151; -309.900; -920.000; -815.000
892.395; -127.100; -274.000; -387.000
892.638;   49.600;  408.000;  291.000
892.882; -283.100; -780.000; -867.000
893.126;  120.800;  758.000;  558.000
893.370; -105.800; -167.000; -168.000
893.614; -197.400; -714.000; -715.000
893.857; -131.700; -183.000; -197.000
894.101; -205.600; -527.000; -631.000
894.345;  -29.800;  300.000;  150.000
894.588;  101.200;  569.000;  380.000
894.832; -113.900; -178.000;  -84.000
895.075;  -86.900;   15.000;  -92.000
895.319; -207.500; -552.000; -420.000
895.563; -187.500; -413.000; -353.000
895.806; -233.000; -628.000; -741.000
896.049;  -86.100; -576.000; -368.000
896.293;  222.700;  527.000;  405.000
896.536;  -98.700; -465.000; -468.000
896.779;  -62.200; -149.000;   -1.000
897.023; -230.600; -751.000; -714.000
897.266;    2.500;  325.000;  269.000
897.509; -309.000; -900.000; -901.000
897.752;   -0.900;  149.000;  171.000
897.996; -334.700; -972.000; -864.000
898.239;   -6.900;  168.000;  102.000
898.482; -183.300; -431.000; -453.000
898.725;   -9.300;  101.000;   53.000
898.968; -270.500; -609.000; -744.000
899.211; -173.000; -513.000; -361.000
899.454; -183.800; -633.000; -539.000
899.697;  -53.900;   90.000;  -43.000
899.940; -276.900; -761.000; -757.000
900.182; -139.800; -335.000; -405.000
900.425; -125.500; -150.000; -298.000
900.668;   58.400;  491.000;  350.000
900.911; -136.800; -292.000; -345.000
901.154;  -55.800;  141.000;   -3.000
901.396; -225.400; -407.000; -412.000
901.639; -230.500; -430.000; -496.000
901.882; -284.500; -790.000; -809.000
902.124;  -92.400;  -29.000; -143.000
902.367; -161.700; -315.000; -361.000
902.609; -214.300; -476.000; -453.000
902.852; -102.000; -108.000; -260.000
903.094; -156.000; -458.000; -337.000
903.337;  -37.000;  -26.000;   53.000
903.579; -166.800; -228.000; -441.000
903.821; -262.600; -597.000; -744.000
904.064;  -40.100;   85.000;  127.000
904.306;  -94.800; -126.000; -166.000
904.548; -144.200; -152.000; -366.000
904.790; -112.500; -195.000; -340.000
905.033; -196.900; -625.000; -577.000
905.275; -183.700; -513.000; -524.000
905.517;  159.500;  468.000;  256.000
905.759; -112.000; -667.000; -761.000
906.001; -147.400; -322.000; -369.000
906.243;  -79.000; -162.000; -224.000
906.485;  254.200; -265.000; -207.000
906.727;  155.400; -499.000; -542.000
906.969;  -16.000;  -30.000; -135.000
907.211;  253.900; -316.000; -382.000
907.453;  463.700; -188.000; -237.000
907.695;    8.600; -158.000; -385.000
907.936;  170.500;  818.000;  706.000
908.178;  -11.200;   92.000; -135.000
908.420;  -96.600; -111.000; -162.000
908.662; -228.300; -633.000; -682.000
908.903; -106.900; -208.000; -123.000
909.145;  -70.800; -240.000; -305.000
909.386;   67.400;  315.000;  280.000
909.628;  164.800;  363.000;  397.000
909.870;   64.900;   29.000;  264.000
910.111; -167.200; -809.000; -949.000
910.353;   79.400; -123.000; -161.000
910.594;   52.700; -574.000; -606.000
910.835;  139.100; -265.000; -326.000
911.077;  298.700; -503.000; -604.000
911.318;  570.000; -505.000; -471.000
911.559;  824.500; -577.000; -880.000
911.801; 2692.700; -284.000; -280.000
912.042;23094.000;  -50.000; -159.000
912.283;47787.300;  404.000;  371.000
912.524; 5610.100; -396.000; -457.000
912.765;  847.200; -193.000;   79.000
913.006;  505.600; -307.000; -338.000
913.247;  106.500; -270.000; -290.000
913.488;   49.900;  -43.000;   30.000
913.729; -115.100; -373.000; -373.000
913.970;  -53.000;  -96.000; -292.000
914.211;  -77.000; -160.000; -198.000
914.452;  -82.600; -118.000;  -11.000
914.693;  121.600;  510.000;  592.000
914.934;   84.700;  510.000;  440.000
915.175;  -46.600;   53.000;  -95.000
915.415;  -94.000; -137.000;   27.000
915.656;  -31.700;  -28.000;  192.000
915.897; -134.400; -252.000;  -82.000
916.137;  -85.200;   74.000;   -9.000
916.378; -221.500; -573.000; -517.000
916.619; -107.800; -159.000;  -63.000
916.859;   -3.000;  303.000;  330.000
917.100;  374.300; 1655.000; 1070.000
917.340;  162.600;  930.000;  728.000
917.581;  152.900;  965.000;  789.000
917.821;    6.200; -171.000;  143.000
918.061;   34.500; -199.000;  -72.000
918.302;  -74.500; -152.000; -211.000
918.542;   -5.500;  -22.000;    3.000
918.782;  125.100;  369.000;  377.000
919.023;  252.600;  360.000;  427.000
919.263; 2751.700; 8131.000;  202.000
919.503; 1666.400; -137.000;  -54.000
919.743; 1062.500;  390.000;  266.000
919.983;  390.100; -134.000;  -26.000
920.223;  168.300;  135.000;   14.000
920.463;  304.900;  631.000;  554.000
920.703;  277.400;   84.000;   39.000
920.943;  320.100; -110.000;   90.000
921.183;  407.600; -414.000; -405.000
921.423;  870.700;  307.000;  546.000
921.663; 1298.400; -174.000; -257.000
921.903; 2824.900;  237.000;  173.000
922.143;16968.000;  372.000;  389.000
922.383;56936.500;  158.000;  115.000
922.622;14619.200; -120.000;  -15.000
922.862; 1875.400;  796.000;  785.000
923.102;  702.700;  -51.000;   33.000
923.341;  305.200;   59.000;   74.000
923.581;  216.400;  450.000;  360.000
923.821;   79.600;  301.000;  398.000
924.060;   61.600;  351.000;  193.000
924.300;  -58.000;  -16.000; -128.000
924.539;   44.400;  584.000;  473.000
924.779;  113.200;  812.000;  597.000
925.018;  -27.300;  247.000;  353.000
925.257;   92.300;  595.000;  666.000
925.497;   -2.300;  447.000;  412.000
925.736;  -81.100;  -35.000;  102.000
925.975;   59.700;  687.000;  669.000
926.214;  149.300;  907.000;  850.000
926.454;  132.300;  706.000;  757.000
926.693;   14.200;  419.000;  543.000
926.932;  171.300; 1021.000;  825.000
927.171;  215.800; 1107.000; 1044.000
927.410;  212.300; 1144.000;  967.000
927.649;  129.600;  924.000;  742.000
927.888;   53.100;  590.000;  564.000
928.127;   18.100;  680.000;  678.000
928.366;  127.600;  842.000;  826.000
928.605;  135.500;  831.000;  737.000
928.844;  536.400; 1451.000; 1393.000
929.083; 1124.000;  770.000;  613.000
929.321;  598.600; 1335.000; 1359.000
929.560;  259.100; 1158.000; 1122.000
929.799;  -16.600;  574.000;  475.000
930.038;  237.700; 1025.000; 1394.000
930.276;  -43.500;  334.000;  397.000
930.515;   80.600;  827.000;  681.000
930.753;   28.100;  614.000;  589.000
930.992;   52.100;  664.000;  717.000
931.230;   89.200;  847.000;  847.000
931.469;  425.900; 2162.000;  892.000
931.707;  188.400;  840.000;  751.000
931.946;  206.200; 1278.000; 1344.000
932.184;  205.400; 1437.000; 1175.000
932.423;  165.200; 1265.000;  963.000
932.661;  239.500; 1296.000; 1428.000
932.899;  106.200;  987.000;  821.000
933.137;   54.900;  754.000;  564.000
933.376;  319.500; 1664.000; 1335.000
933.614;  350.000; 1759.000; 1196.000
933.852;  209.100; 1357.000; 1171.000
934.090;  364.700; 1722.000; 1747.000
934.328;  284.100; 1252.000; 1457.000
934.566;  247.500; 1431.000; 1110.000
934.804;  304.200; 1263.000; 1309.000
935.042;  932.000; 1861.000; 1850.000
935.280; 3406.000; 2088.000; 2063.000
935.518; 2588.000; 2113.000; 2007.000
935.756;  653.700; 2481.000; 2316.000
935.994;  390.200; 1808.000; 1751.000
936.231;  745.100; 2890.000; 2950.000
936.469;  473.800; 2367.000; 2378.000
936.707;  432.300; 2220.000; 2167.000
936.945;  583.500; 2825.000; 2882.000
937.182;  489.100; 2679.000; 2741.000
937.420;  699.100; 3602.000; 3031.000
937.657;  853.500; 3365.000; 3478.000
937.895;  746.500; 3331.000; 3488.000
938.133;  706.300; 3540.000; 3528.000
938.370;  780.500; 3896.000; 4191.000
938.607;  877.900; 4488.000; 4205.000
938.845; 1175.600; 5587.000; 5549.000
939.082; 1097.900; 5387.000; 5177.000
939.320; 1183.400; 5799.000; 5728.000
939.557; 1353.600; 6549.000; 6491.000
939.794; 1547.600; 7285.000; 7097.000
940.031; 1895.800; 8421.000; 8368.000
940.269; 2297.100; 9552.000; 9107.000
940.506; 2343.400;10901.000;10507.000

