
Integration time [ms]: 100.000
Averaging Nr. [scans]: 40
Smoothing Nr. [pixels]: 0
Data measured with spectrometer [name]: 2101013U2
Wave   ;Sample   ;Dark     ;Reference
[nm]   ;[counts] ;[counts] ;[counts] 

394.013;   40.995; -450.257; -315.536
394.305;  164.242; -461.258; -419.536
394.596; 1563.443; -676.269; -527.514
394.887; 4170.463; -796.268; -654.518
395.178; 1499.575;  145.736;   11.476
395.470;   84.788; -210.263; -356.526
395.761;  141.106;  305.734;  394.479
396.052;  117.141; -545.284; -306.489
396.343;  100.701; -557.276; -454.503
396.634;   41.288; -200.279; -290.497
396.926;   20.785; -618.268; -565.517
397.217;   66.656;   11.725;  -17.504
397.508;   17.075; -366.273; -154.507
397.799;   25.988; -555.279; -571.497
398.090;   15.031; -973.280; -902.495
398.381;   61.400;   11.708;  -11.473
398.672;  -14.473; -585.292; -742.473
398.963;   22.820; -348.279; -373.498
399.254;   77.462;   54.709; -209.475
399.545;  -30.198;-1017.266; -883.520
399.836;   65.212; -407.277; -343.501
400.127;   55.046; -205.295; -209.468
400.418;   20.543; -423.274; -392.506
400.709;   42.890; -359.281; -333.493
401.000;   42.292; -268.291; -309.476
401.290;  110.170;  225.698;  115.545
401.581;   52.270; -166.286; -228.485
401.872;   39.113; -542.298; -486.462
402.163;   47.637; -313.296; -252.467
402.454;   91.788; -123.291; -163.475
402.744;   43.302; -844.297; -813.465
403.035;  245.265; -226.293;  -86.471
403.326;  312.880; -366.292; -384.474
403.617;  308.881;  204.701;  165.539
403.907;  350.523; -593.283; -679.490
404.198; 3597.314; -545.307; -599.446
404.489; 9091.829; -618.283; -588.491
404.779; 2566.574; -618.302; -660.456
405.070;  286.448;  -67.304; -174.451
405.360;  483.667; -259.293; -238.472
405.651;  465.812;  125.699;   98.542
405.942;  161.914;  209.714;  127.516
406.232;   88.957; -432.285; -413.487
406.523;  240.708;  641.706;  758.530
406.813;   43.992; -579.286; -644.484
407.104;  194.724;  261.708;  144.527
407.394;   73.932; -604.299; -591.462
407.685;  127.106;  336.715;  222.513
407.975;   56.077; -400.283; -382.490
408.265;  102.481; -134.289; -190.478
408.556;   62.210; -472.291; -459.475
408.846;  172.659;  474.706;  429.530
409.137;   87.316;   -1.288; -216.480
409.427;   91.632; -193.285; -271.487
409.717;   59.254; -776.273; -692.508
410.007;  128.424;    4.715; -170.486
410.298;  111.575; -360.295; -342.469
410.588;   98.778; -495.285; -510.486
410.878;   41.029; -792.287; -873.482
411.168;  117.790; -481.298; -478.463
411.459;  135.796; -295.283; -242.489
411.749;   93.158; -609.292; -507.474
412.039;   86.414; -755.289; -386.480
412.329;  222.879;   40.722;  132.501
412.619;  219.867;  -62.286; -148.485
412.909;  370.509;  639.711;  594.521
413.199;  327.456; -130.280; -251.495
413.490;  392.323;  521.710;  352.523
413.780;  205.961;-1013.279; -913.496
414.070;  382.877;  -46.276;  235.497
414.360;  393.449; -729.278; -666.498
414.650;  546.500; -726.288; -688.482
414.940;  745.610; -538.280; -441.496
415.230; 1215.246;   50.712;   74.519
415.520; 8494.667;  155.730;   66.486
415.809;34353.965; -305.281; -125.493
416.099;25844.090; -388.277; -229.501
416.389; 7698.416;  435.726;  236.494
416.679; 4480.968;   91.738;   85.473
416.969;  768.910; -527.287; -503.483
417.259;  644.213;  341.721;  171.503
417.549;  876.663;  522.718;  318.508
417.838; 2388.662; -205.268; -147.518
418.128; 8292.204;  650.710;  492.522
418.418; 6815.637; -491.272; -579.509
418.708; 4514.316;    9.726;  -48.506
418.997;17684.136; -474.275; -480.505
419.287;18111.299; -733.273; -790.507
419.577;17719.545; -160.283; -123.489
419.866;56785.613; -588.277; -498.501
420.156;55075.187; -242.270;  -55.513
420.446; 9130.334; -112.263;  -26.526
420.735;  888.679; -376.271; -446.512
421.025;  890.823; 1830.722;  315.502
421.314;  567.152; -203.271; -226.512
421.604;  705.553;   89.732;  233.484
421.893;  437.148; -705.271; -602.511
422.183;  287.784; -487.263; -461.526
422.472;  403.099;  -36.271; -107.511
422.762;  412.484; -416.266; -379.521
423.051;  279.727; -916.276; -916.503
423.341;  311.527; -491.273; -439.507
423.630;  412.341; -121.265;   15.477
423.919;  428.935;   58.725;   49.495
424.209;  476.665;  -31.263;   56.473
424.498;  640.109;   68.732;  161.483
424.787; 1482.842; -535.267; -601.518
425.077; 4351.064;   34.735;   29.478
425.366; 4823.097; -734.262; -744.528
425.655;13693.527;  639.727;  259.493
425.945;34874.003; -313.247; -268.554
426.234;18470.250;  117.741;  300.467
426.523; 7355.356;  -86.259; -350.534
426.812; 9856.454;  107.734;  159.480
427.101;14952.649; -127.269; -323.515
427.390;17485.666;  -55.270;  -86.514
427.680; 2553.680; -624.257; -411.538
427.969;  501.543; -330.255; -301.540
428.258;  359.320; -385.257; -477.536
428.547;  523.367;  449.728;  397.490
428.836;  767.037; -421.253; -398.543
429.125; 1020.533; -199.259;  -72.534
429.414;  803.565; -330.251; -294.548
429.703; 4496.940; -231.251; -213.548
429.992;13975.444; -938.250; -828.549
430.281; 8845.850; -397.264; -331.524
430.570;  597.053;  -21.252;   32.454
430.859;  426.705;  279.741;  352.466
431.148;  425.748;  636.752;  631.446
431.437;  306.853;  391.748;  367.454
431.725;  203.146; -544.257; -481.536
432.014;  227.971; -845.253; -756.545
432.303;  411.865; -149.239; -105.569
432.592;  555.083; -460.263; -178.525
432.881; 1442.800; -601.248; -437.554
433.169; 9522.794; -343.255;  -61.540
433.458;19364.206;  445.765;  540.424
433.747; 7530.304; -397.261; -289.529
434.036;  943.061; -275.242; -280.564
434.324; 2886.609; -395.249; -379.551
434.613; 5253.253;   40.757;  159.437
434.902; 1490.403;  333.760;  439.433
435.190;  294.938;   75.761;  295.431
435.479;  172.631;  -52.245;   83.441
435.767;   89.041; -411.244; -427.561
436.056;  208.756; -340.242; -294.563
436.345;  485.731; -372.240; -223.568
436.633;  455.328;   60.750;  383.450
436.922;  203.934;  208.760;  414.432
437.210;  233.894; -194.236;    1.426
437.499;  510.128; -583.235; -432.576
437.787;  575.443; -339.236;  -10.574
438.075;  190.695;   56.761;  162.430
438.364;  205.148;  -44.238;  250.429
438.652;  102.825; -286.226; -138.592
438.941;   83.006;    3.770;  269.415
439.229;  -19.900; -665.252; -466.545
439.517;   32.564; -160.234;  -85.577
439.806;   -8.706; -501.225; -290.595
440.094;  139.673;  377.766;  650.421
440.382;   42.202; -653.233; -302.580
440.670;   41.353; -361.235; -285.576
440.959;   11.290; -347.223; -170.599
441.247;   43.345; -151.229; -109.587
441.535;   42.037; -266.235;   31.423
441.823;    6.519; -497.234; -305.578
442.111;  164.150;  173.771;  327.412
442.400;  301.305; -628.245; -335.559
442.688;  560.222; -111.234; -620.579
442.976;  257.746; -786.213; -450.617
443.264;   45.977; -324.224; -364.597
443.552;   55.776; -258.226;   51.408
443.840;  149.160;  602.765;  876.423
444.128;   98.501;  265.767;  269.420
444.416;  -10.697; -694.228; -312.588
444.704;   20.726; -465.219;  -92.605
444.992;   65.880;   -0.226;  240.407
445.280;   27.432; -517.230;  -94.585
445.568;   -4.700; -694.212; -396.618
445.856;  132.082; -174.221;  357.398
446.143;  270.596;  -54.220;   -7.604
446.431;  247.258;  -25.228;  625.411
446.719;  163.174;  489.783;  675.391
447.007;  144.175;  481.769;  705.416
447.295;  172.086;  597.777;  871.402
447.583;   89.017; -464.229;  -34.587
447.870;  118.378; -434.221; -202.601
448.158;  240.106; -104.230;  129.415
448.446;  136.573; -800.219; -338.604
448.733;  140.604;   13.776;  269.403
449.021;  186.900;   60.788;  341.382
449.309;  163.693; -296.210;  208.379
449.596;  232.545;  128.783;   59.392
449.884;  196.470; -571.222; -325.600
450.172;  280.039; -756.227; -406.590
450.459;  630.201;  645.786;  780.387
450.747; 3804.243; -411.218; -147.608
451.034;12231.734;  493.772;  889.411
451.322; 9909.280; -413.214; -170.614
451.609;  729.930;  292.777;  508.403
451.897;  916.544; -550.203; -183.634
452.184; 2727.037; -622.223; -400.598
452.472; 2417.344;   97.792;  269.375
452.759;  339.298;  512.781;  864.395
453.047;   61.047; -407.212; -125.617
453.334;   34.383; -732.219; -216.606
453.621;   41.957; -438.214; -161.615
453.909;  102.710;   13.796;  384.368
454.196;  115.639; -299.199; -123.641
454.483;  227.460;  317.798;  540.364
454.771;  135.648; -215.208;  196.374
455.058;   57.352; -316.207;  102.374
455.345;  145.606;   71.807;  344.347
455.632;  123.431; -128.207;  235.373
455.919;   56.642;  -82.196;  182.354
456.207;  -56.830; -774.198; -450.642
456.494;   -0.750; -475.200;  -66.639
456.781;   25.380; -399.202; -198.635
457.068;   57.738; -253.206;  -29.628
457.355;  -20.835; -698.206; -401.629
457.642;   10.296; -552.205; -290.630
457.929;    9.045; -778.194; -417.651
458.216;  108.047; -575.212; -354.617
458.503;  386.401; -173.193;  -19.652
458.790;  420.445; -864.208; -630.625
459.077;  374.036;  -77.202;  110.364
459.364; 1184.237; -350.195; -210.649
459.651; 2574.311;  -46.206;  220.372
459.938; 1168.283; -864.209; -665.623
460.225;  111.940;  132.799;  276.363
460.512;  -43.887; -836.197; -688.645
460.799;  134.816;  -32.218;  320.392
461.086;  116.705; -370.200; -251.640
461.372;   36.795; -509.198; -279.642
461.659;   73.318; -165.196;  108.354
461.946;   51.824; -445.193;  -54.651
462.233;  213.152;  842.800;  888.361
462.519;  496.448; -814.201; -464.639
462.806; 1507.414; -768.197; -497.645
463.093; 1305.174; -445.191;  -66.656
463.380;    3.524; -920.186; -824.664
463.666;   61.391; -259.197;  -18.646
463.953;  137.381; -406.195; -243.648
464.239;  282.655; -173.195;  -77.648
464.526;  395.144;  413.806;  743.350
464.813;  333.663; -565.190; -304.658
465.099;  339.001;  606.807;  607.348
465.386;  273.680;  903.807;  921.348
465.672;   -7.186; -694.197; -522.645
465.959;   37.310; -598.188; -520.662
466.245;    3.830; -468.193; -359.652
466.532;   55.803; -109.195;   63.352
466.818;   28.574; -357.186; -216.664
467.104;   -4.053; -488.182; -415.672
467.391;  -20.509; -628.189; -459.658
467.677;   28.778; -289.186;    9.335
467.964;   -5.727; -682.189; -471.660
468.250;   47.281; -331.186; -160.665
468.536;   75.867;   90.811;  180.341
468.822;  -22.379; -821.184; -574.668
469.109;  139.895;  351.827;  471.311
469.395;  198.692;  729.808;  787.346
469.681;  229.021;   46.811;  156.341
469.967; 1800.076; -699.188; -382.660
470.254; 4070.061; -494.188; -306.662
470.540; 2494.041; -601.196; -476.646
470.826;  380.311; -488.181; -397.675
471.112;  411.625;  288.816;  113.331
471.398;   84.931; -253.183;  -58.670
471.684;   34.845; -626.177; -447.680
471.970;   32.615; -918.180; -981.675
472.256;   46.766; -521.192; -441.654
472.542;   20.383; -499.171; -434.691
472.828;   18.142; -743.182; -607.672
473.114;   31.386; -380.166; -283.700
473.400;   18.340; -504.175; -293.684
473.686;   33.868; -452.166; -400.701
473.972;   43.758; -230.174; -131.687
474.258;  -16.780; -925.173; -843.689
474.544;  325.210; -183.178;   -2.679
474.830;  523.617;  -65.175;   45.316
475.116;  829.890; -123.190; -196.658
475.401; 1093.418; -558.180; -467.676
475.687;  295.142; -725.180; -718.676
475.973;  -19.573; -673.181; -770.673
476.259;  234.795;  736.825;  764.315
476.544;  541.855; -539.176; -437.682
476.830; 1394.928; -398.172; -322.690
477.116; 1206.928; -430.177; -336.682
477.401;  160.818;  346.820;  358.324
477.687;    8.490; -289.175; -405.684
477.973;   49.931;   21.819;   28.326
478.258;  -12.082; -448.163; -348.706
478.544;   37.513;   21.815;   61.334
478.829;  -58.035; -818.171; -738.692
479.115;  -57.472; -749.172; -651.690
479.401;  -11.598; -444.174; -449.686
479.686;   49.341; -253.180;  -74.676
479.972;    9.516; -886.178; -776.680
480.257;   56.538; -258.166;  -65.700
480.542;   22.244; -614.170; -469.693
480.828;  224.013; 1288.824; 1392.317
481.113;  -37.690; -464.176; -426.683
481.399;   -1.303; -236.161; -202.711
481.684;  -49.788; -620.166; -462.700
481.969;   18.738; -158.159;  -73.713
482.255;    3.707; -439.169; -285.695
482.540;    6.842; -569.178; -441.680
482.825;   22.343; -395.187; -404.663
483.110;  148.461;  -85.169; -105.696
483.396;  373.389; -840.157; -652.718
483.681;  742.808;  543.826;  730.313
483.966;  296.606; -696.160; -700.712
484.251;   -7.894; -404.174; -310.687
484.536;    8.425; -356.165; -378.703
484.822;   29.185; -205.173; -218.687
485.107;   -2.640; -599.152; -502.726
485.392;  126.507;  662.836;  541.296
485.677;   75.148;  354.832;  163.302
485.962;  105.111;  160.843;  270.283
486.247;  114.778;  -14.162;   -8.707
486.532;   74.139; -178.166; -325.701
486.817;  168.940;  381.839;  431.291
487.102;  144.640; -453.154; -514.722
487.387; 1059.116; -637.156; -652.718
487.672; 1958.013; -154.164;  -38.705
487.957; 1218.899; -394.160; -286.711
488.241;  324.705; -290.150; -314.729
488.526; 1217.587; -280.152; -148.726
488.811; 1996.419; -881.177; -818.680
489.096; 1400.618; -666.154; -702.723
489.381;  713.282;    3.847;  162.275
489.666;  657.671; -428.161; -510.710
489.950;  208.247;  558.846;  627.277
490.235;  -30.101; -480.151; -458.728
490.520;  -37.855; -756.161; -723.710
490.804;  -45.831; -827.156; -736.719
491.089;   21.749; -469.149; -299.732
491.374;   45.586; -132.164;  -75.704
491.658;   -7.237; -817.147; -717.735
491.943;  137.392; -657.152; -609.727
492.227;  205.860; -178.155;  -38.721
492.512;   37.936; -294.157; -341.717
492.797;  -52.958; -713.149; -716.731
493.081;  -40.583; -588.147; -598.735
493.366;  -50.028; -751.161; -635.711
493.650;  226.631;  831.859;  917.254
493.935;   95.288; -648.147; -447.734
494.219;  -17.185; -778.142; -687.743
494.503;  -35.914; -585.150; -487.730
494.788;   67.075;   46.842;   74.285
495.072;  126.207;  184.850;  434.271
495.356;  247.728; -463.148; -343.733
495.641;  536.650; -812.146; -736.736
495.925;  449.125; -976.156; -903.719
496.209;   28.749; -599.149; -451.732
496.494;  -35.309; -763.142; -544.744
496.778;   11.940; -364.154; -360.722
497.062;  -27.401; -819.156; -627.719
497.346;   -9.774; -869.160; -640.711
497.631;  183.958;  580.852;  560.266
497.915;   89.262;  -64.145;  175.261
498.199;   42.814; -341.157; -277.718
498.483;   48.710; -562.152; -508.725
498.767;  266.883;  301.850;  300.271
499.051;  265.546; -126.149; -100.732
499.335;   76.194; -693.149; -739.731
499.619;  -43.597; -381.129; -423.767
499.903;    2.858; -272.155;  -65.721
500.187;   17.498; -588.153; -316.724
500.471;   27.041; -796.152; -595.727
500.755;  102.896;   62.839;  -96.710
501.039;   10.559; -270.155; -357.721
501.323;   62.583;  -21.141;  264.254
501.607;   16.843; -447.163; -503.706
501.891;   -0.209; -607.156; -512.718
502.174;  -40.299; -726.144; -585.741
502.458;   70.571;   89.849;  370.273
502.742;   59.137; -180.138; -191.751
503.026;  199.337; -412.147; -254.734
503.310;  334.137; -437.159; -375.713
503.593;  203.014; -464.147; -325.735
503.877;  151.685; -232.133; -156.760
504.161;  178.976;    2.847;  -50.724
504.444;  209.028; -841.158; -710.716
504.728;  776.910; -487.164; -522.704
505.012; 1129.330; -257.150;  -76.729
505.295;  806.897; -417.161; -212.711
505.579;  837.549; -256.156; -496.719
505.862; 1248.858; -555.145; -333.738
506.146; 1264.990; -681.159; -758.714
506.429;  572.115;  568.841;  461.286
506.713;  135.526; -732.151; -667.728
506.996;  495.714;   90.846;  295.278
507.280;  559.179; -633.165; -474.703
507.563;  377.281; -469.155; -261.721
507.847;  182.749; -423.153; -112.724
508.130;  173.698; -665.161; -456.711
508.413;  223.782; -758.167; -577.700
508.697;  414.932; -151.167;   12.300
508.980;  281.426; -422.153; -312.724
509.263;   27.827; -466.155; -450.720
509.547;   37.304; -124.150;   82.271
509.830;   63.475; -172.160;  140.289
510.113;  103.299;  128.844;  298.281
510.396;   39.908; -530.152; -300.725
510.680;   41.434; -818.145; -812.738
510.963;  196.970;  184.846;  180.277
511.246;  130.839; -493.150; -357.730
511.529;  294.915; -482.145;  -83.739
511.812;  613.081; -250.134;   10.241
512.095;  483.473; -740.151; -396.728
512.378;  116.669; -317.147; -245.736
512.661;   88.246; -703.137; -623.753
512.944;   87.368; -750.142; -637.744
513.227;  110.018; -170.137; -171.752
513.510;   70.851; -479.144; -671.741
513.793;   27.663; -485.140; -435.747
514.076;  156.428;  -43.127;  -39.771
514.359;  155.800; -294.149; -135.732
514.642;  157.571; -442.142; -567.744
514.925; 1135.636;  581.860;  561.253
515.208; 1667.527; -498.134; -443.758
515.491; 1047.569; -276.133; -182.761
515.773;  582.380; -410.143; -337.742
516.056; 3310.429;  249.864;  409.246
516.339; 4333.833; -754.136; -652.755
516.622; 2028.686; -518.150; -488.730
516.904;  567.189;  882.857;  975.257
517.187;  234.141; -730.138; -523.752
517.470;  443.287; -568.143; -510.743
517.752;  728.987; -624.136; -470.756
518.035;  586.326; -708.139; -725.749
518.318;  641.509; -799.136; -744.755
518.600; 4009.473; -300.132; -325.762
518.883; 5527.496;  310.858;   88.256
519.165; 2541.882; -585.138; -426.751
519.448;  434.797;  -61.132;  -19.762
519.730;  227.237; -573.126; -415.773
520.013;  232.314;  588.867;  664.240
520.295;  317.633;  -94.134;  -15.759
520.578;  691.913; -335.131; -305.764
520.860;  902.023; -254.132;   56.238
521.143;  650.864; -763.135; -584.756
521.425;  615.203; -251.125; -279.775
521.707;  991.104; -622.127; -380.771
521.990; 2836.829; -199.127;  167.229
522.272; 3284.890; -116.140;   -4.748
522.554; 1185.381; -237.143; -157.742
522.836;  266.856;  -24.134;   99.241
523.119;  202.811; -496.148; -189.734
523.401;  178.847; -448.130; -314.766
523.683;  169.322; -865.137; -693.753
523.965;  440.564;  408.862;  260.248
524.247;  445.403;   54.878;  170.220
524.529;  317.983; -451.134; -367.759
524.812;  479.124;   -3.130;  191.234
525.094; 1400.238; -773.138; -631.751
525.376; 2224.289; -143.124;   78.223
525.658; 1339.780; -441.136; -339.754
525.940;  115.434; -805.131; -671.764
526.222;   37.184; -188.136;  -88.755
526.504;   59.957; -190.131;   32.237
526.786;   37.711; -960.133; -647.760
527.068;  123.195; -124.123;  -67.778
527.349;    1.801; -865.137; -774.754
527.631;  127.872; -137.132;   22.238
527.913;  244.378; -664.127; -450.771
528.195;  323.494; -761.125; -639.774
528.477;  394.427;  -93.134;  -30.758
528.759;  284.974; -648.130; -522.766
529.040;  164.444; -569.123; -293.778
529.322;   90.473; -235.125;  -10.774
529.604;   91.851;  -47.130;   93.233
529.886;   60.062; -546.126; -302.773
530.167;   94.866;  232.870;  192.235
530.449;   31.568;    1.853;   63.265
530.731;   67.327; -572.122; -459.779
531.012;  156.452; -513.120; -216.784
531.294;  142.625; -118.116;  -43.792
531.575;  208.878;  290.875;  538.225
531.857;  147.046; -548.135; -266.757
532.138;  135.181; -113.141;   40.254
532.420;  116.791;  294.865;  403.244
532.701;   69.514; -722.133; -751.760
532.983;  206.993;  232.867;  182.239
533.264;   64.484; -243.126;  175.228
533.546;  -32.291; -491.136; -508.755
533.827;   25.435;  173.867;   -1.759
534.109;   12.996; -352.135;  -80.757
534.390;  107.177; -725.132; -582.762
534.671;  306.091; -270.135;  -82.756
534.953;  211.172; -751.123; -611.779
535.234;   56.131; -426.117; -255.789
535.515;  -52.062; -891.119; -735.785
535.796;  -11.977; -431.128; -193.770
536.078; -105.362;-1050.124; -904.777
536.359;   16.498;  -22.123;    3.221
536.640;  -15.479; -480.125; -197.774
536.921;  176.008;  225.871;  143.232
537.202;  551.459;  -87.138;  -16.751
537.483;  709.038;  251.869;  377.236
537.764;  287.241;   17.870;   98.235
538.045;  -26.924; -543.134; -371.758
538.326;  -11.290; -596.129; -447.768
538.607;   80.430; -686.127; -476.771
538.888;  276.667;   98.879;    5.218
539.169;  321.985; -704.122; -535.781
539.450;  418.081;  236.871;   16.233
539.731;  273.746; -361.121; -182.783
540.012;  152.227;  199.880;  412.216
540.293;   96.082;   82.876;  158.224
540.574;   11.575; -895.113; -717.796
540.855;  518.544;  435.879;  377.218
541.136;  681.457;   47.878;  139.220
541.416;  394.874; -161.130; -220.766
541.697;  323.232; -274.131; -170.763
541.978; 1660.869; -270.135; -315.757
542.259; 2125.279; -211.127; -236.771
542.539;  958.617; -191.116; -186.790
542.820;  210.902;  461.875;  480.225
543.101;  155.786;  -52.145;  -77.738
543.381;   49.329; -638.127; -591.771
543.662;  366.476;  159.873; -254.771
543.942;  967.349; -751.127; -830.770
544.223; 1664.784;  193.878;  161.219
544.504; 1105.338; -275.124; -182.777
544.784;  872.762; -592.126; -408.773
545.065; 2522.622;  104.884; -254.791
545.345; 2954.938;  227.881;   14.215
545.626; 1935.074;  -14.113; -108.796
545.906; 1394.891;   77.869;   98.235
546.186;  573.892;   92.874;  -95.773
546.467;  323.591;   99.877;  -95.778
546.747;  507.617;  264.884;  327.210
547.027;  582.911;   91.876;  111.223
547.308;  580.998; -376.127; -530.770
547.588;  594.261;  299.871;  371.232
547.868;  266.517;  458.870;  588.235
548.149;  264.281;  609.885;  593.207
548.429;  257.277; -347.127; -299.771
548.709;  376.102; -645.120; -461.784
548.989;  785.074;   84.882;   88.213
549.269; 3328.596;   10.868;  139.239
549.550; 7851.671;  215.877;  117.222
549.830; 6969.570; -758.111; -556.799
550.110; 1366.754; -468.110; -320.801
550.390; 1318.753; -128.122;  -56.779
550.670; 1941.169; -868.114; -783.795
550.950; 1328.569; -509.121; -471.782
551.230;  242.440;  549.879;  460.218
551.510;   44.518; -381.121; -326.782
551.790;   74.364; -173.109; -127.803
552.070;  330.316;  940.877; 1181.223
552.350;  726.867; -492.119; -377.786
552.630;  966.787;   -2.121;   77.219
552.909;  584.297;  181.884;   73.209
553.189;  414.803;  -49.132;   33.237
553.469;  384.742; -703.119; -514.786
553.749;  384.781; -469.127; -357.772
554.029;  295.137;   33.883;  -24.790
554.308;  265.286; -154.115;  -37.794
554.588;  143.197; -196.128; -204.770
554.868;  150.445; -366.121;  -47.782
555.147;  273.357; -114.115;  -46.793
555.427;  962.100; -260.116; -250.792
555.707; 6309.230; -284.115; -200.793
555.986; 7695.399; -719.111; -538.800
556.266; 3942.390;   23.884;   72.210
556.546;  251.743; -888.121; -675.782
556.825;  454.066; -657.114; -556.794
557.105; 2929.269; -125.128;   17.230
557.384; 3462.896;  122.884;  187.209
557.664; 1343.849; -717.116; -508.792
557.943;  247.844; -557.121; -411.782
558.222;  351.603; -345.118; -344.788
558.502;  420.259; -116.115;  -76.793
558.781;  744.729;  194.885;  499.208
559.061;  684.753; -232.118; -227.788
559.340;  467.784;  302.883;  353.211
559.619; 1168.540;   93.884;  148.210
559.899; 1759.911; -239.117; -266.789
560.178; 1537.008; -778.115; -593.793
560.457; 4885.863; -623.117; -562.790
560.736; 6904.901; -472.111; -482.800
561.015; 4486.041; -500.128; -502.769
561.295;  562.138;  180.893;  215.193
561.574;  460.805;  119.885;  116.207
561.853;  706.819;  274.891;  303.197
562.132;  813.686;  -45.114;  182.206
562.411;  684.962;  396.879;  553.219
562.690;  289.753; -592.115; -458.792
562.969;  187.507;  472.888;  630.203
563.248;  552.960; 2966.878; 2487.219
563.527;  473.425; -290.111; -408.800
563.806;  685.252; -650.127; -521.771
564.085;  711.881; -297.105; -206.810
564.364;  435.690; -594.117; -405.790
564.643;  828.863; -276.121; -223.781
564.922; 3008.412;  221.890;  397.198
565.201; 3165.191; -640.109; -700.803
565.479; 1322.377; -297.115; -219.792
565.758;  600.919; -810.128; -712.770
566.037;  783.792; -155.109; -100.803
566.316;  383.121; -286.116;  -28.791
566.595;   84.455;  -17.115;  -12.793
566.873;  118.202; -166.111;  -79.801
567.152;  -28.268; -490.113; -590.797
567.431;   30.041; -113.116;    6.210
567.709;   53.863; -344.107; -212.807
567.988;  469.216; -810.114; -769.794
568.266;  869.855; -160.115;  -68.793
568.545;  655.063; -644.100; -514.819
568.824;  950.676;  160.885;  356.208
569.102;  982.390; -351.114; -235.794
569.381;  439.325; -492.116; -407.792
569.659;   -9.773; -553.113; -553.796
569.938;  123.207; -743.122; -465.780
570.216;  192.446; -225.109; -225.804
570.494;   28.469; -632.114; -572.795
570.773;   53.017;  202.879;  114.218
571.051;   57.920; -373.123; -357.778
571.330;  124.974; -221.113; -174.796
571.608;   96.109; -181.098; -173.823
571.886;  -30.082; -671.111; -581.799
572.164;  -15.280; -739.121; -621.782
572.443;  -13.264; -562.105; -512.811
572.721;   -3.137; -399.117; -289.790
572.999;    0.180; -280.117; -168.788
573.277;  111.603;  379.894;  620.191
573.555;  469.980;   94.894;   37.190
573.834; 2255.230;  -86.117; -114.788
574.112; 2530.266;  880.893;  811.193
574.390;  773.776; -143.111;  -96.801
574.668;   35.983;  -91.112;  -61.797
574.946;   17.605; -165.106; -187.810
575.224;   21.716;   71.891;  -16.803
575.502;    7.544; -200.116; -204.791
575.780;  -54.866; -767.112; -829.798
576.058;  244.625; 1589.889; 1004.200
576.336;  -13.718; -210.110; -129.801
576.614;  -25.740; -511.112; -340.798
576.891;  149.135; -711.115; -823.794
577.169;  855.580; -158.108; -285.805
577.447;  921.465;  169.893;  202.193
577.725;  372.365;  629.888;  854.201
578.003;   57.887;  -71.112; -371.798
578.280;  148.721; -208.104; -242.812
578.558;  105.234; -450.115; -422.793
578.836;  163.694; -210.114; -145.795
579.114;  110.033; -630.112; -670.797
579.391;   79.432;   -6.117;  -18.789
579.669;  -30.814; -595.114; -704.794
579.947;  292.661; -326.107; -127.806
580.224;  604.286; -692.107; -524.806
580.502;  521.716;  127.893;   76.193
580.779;   48.514;  -42.117;   75.210
581.057;  -60.829; -584.109; -470.804
581.334;  -83.211; -726.102; -695.815
581.612;   56.631;   54.895;  511.190
581.889;  -13.370;  -83.101; -129.818
582.167;  -23.478; -298.099; -190.821
582.444;  -82.701; -845.102; -814.817
582.721;  106.299;  657.899;  715.183
582.999;  119.944; -326.100; -167.821
583.276;  944.275; -812.123; -713.779
583.553; 1223.368; -364.102; -294.816
583.831;  449.842; -607.104; -631.812
584.108;   94.653;  349.892;  174.195
584.385;   43.489; -122.102;  -98.815
584.662;  -22.122; -651.111; -828.801
584.940;   47.902;  204.889;  204.199
585.217;   -3.898;  -73.113; -303.796
585.494;   58.313;   71.890;  118.198
585.771;  339.397; -250.109; -354.804
586.048;  826.176; -196.113;  -76.796
586.325;  545.131; -721.110; -773.801
586.602;  128.447;  230.896;  213.188
586.879;   33.640; -499.100; -580.820
587.156;  119.182; -156.105; -331.810
587.433;   14.796; -701.102; -667.817
587.710;  102.310;  152.888;  234.202
587.987;  468.214; -264.105; -236.811
588.264; 1162.712;  315.888;  387.202
588.541; 1974.725;  -61.104;   26.187
588.818; 4056.125;   72.892;  171.196
589.095; 3473.869; -163.104; -174.812
589.371;  597.894; -459.109; -414.804
589.648;   68.741; -581.107; -437.807
589.925;   93.795; -517.114; -621.795
590.202;   96.385; -741.112; -607.798
590.478;  159.216; -166.105;  -73.811
590.755;  427.157; -241.108; -132.806
591.032; 3854.858; -741.110; -699.802
591.308; 5452.833; -732.094; -790.831
591.585; 2786.758; -573.110; -560.802
591.862;  327.498;-1056.102; -950.817
592.138;  143.929; -475.108; -474.805
592.415;  266.473; -486.104; -495.813
592.691; 2160.895;  460.896;  518.188
592.968; 2883.087; -208.098; -123.824
593.244; 1384.267; -695.116; -595.790
593.521;  133.199; -105.102;  -42.817
593.797;   40.554; -810.122; -720.780
594.074;  560.502; -611.096; -588.826
594.350;  973.615;  828.905;  729.172
594.626;  489.453; -303.111; -283.801
594.903;  255.824; -643.101; -645.817
595.179;  291.177;  243.896;  418.187
595.455;   25.792; -136.107; -150.807
595.731;   29.104;  -19.103;  -38.814
596.008;   -3.904; -464.111; -434.800
596.284;   90.618; -187.100; -242.820
596.560;  173.965; -501.093; -493.833
596.836;  336.885; -173.105;  -70.810
597.112;  585.955; -582.108; -437.805
597.388;  471.024;  -49.097;  -48.826
597.665;  150.530;  437.887;  530.203
597.941;  -21.649; -572.089; -658.839
598.217;   52.637; -323.110; -293.802
598.493;  417.999;   61.891; -204.804
598.769;  829.711; -175.100;  -50.819
599.045;  513.058; -490.108; -562.806
599.321;  126.517; -193.100; -261.820
599.597;  272.773; -355.109; -476.804
599.872;  747.675;  409.896;  429.187
600.148;  609.001;  -61.097; -172.826
600.424;  453.114;   91.893;  202.193
600.700;  417.392; -170.107; -280.807
600.976;  237.444; -442.097; -464.825
601.252;  411.644; -226.109; -272.803
601.527;  423.001; -833.104; -840.813
601.803;  264.491; -453.105; -404.812
602.079;  292.036; -124.100; -118.819
602.354;  905.727; -620.092; -531.835
602.630; 1338.252; -140.113; -482.796
602.906; 3505.005; -910.101; -863.818
603.181;10623.617; -627.119; -534.786
603.457; 8925.723;   98.903; -278.826
603.733; 1340.697; -605.120; -626.783
604.008; 1461.481; -245.106; -164.810
604.284; 4818.676; -636.101; -580.817
604.559; 4187.390;   -3.112;  -42.799
604.835;  764.360; -163.105; -225.810
605.110;  725.948; -732.099; -892.821
605.385; 1073.994;  224.907;  267.167
605.661; 1072.843; -625.095; -729.829
605.936; 1987.634; -664.108; -737.806
606.211; 1615.512;  -17.103; -170.815
606.487;  368.914; -329.114; -376.794
606.762;  103.692; -791.119; -745.786
607.037;   16.985; -501.105; -433.810
607.313;   -2.115; -589.096; -574.828
607.588;   27.956; -375.106; -137.810
607.863;  104.955;  -28.101; -143.818
608.138;  260.836;  513.890;  516.198
608.413;  120.053; -576.099; -592.822
608.688;  125.804; -203.108; -267.805
608.964;  374.699; -509.106; -218.809
609.239;  438.857; -107.105; -212.810
609.514;  371.041;  281.895;  240.188
609.789; 1051.046; -187.104; -716.812
610.064; 1379.709; -435.096; -609.827
610.339; 1464.444; -855.109; -799.804
610.614; 1981.342; -131.100; -315.820
610.889; 1085.466;  215.895;  107.188
611.163;  115.942; -407.104; -591.812
611.438;  167.840;   81.886; -167.794
611.713;   61.851; -467.101; -499.817
611.988;  137.053; -144.101; -328.818
612.263;   60.539; -771.102; -717.815
612.538;  307.226;  385.887;  251.204
612.812;  379.119; -832.100; -911.820
613.087;  258.109; -358.098; -338.823
613.362;  -10.608; -497.107; -557.807
613.637;   73.532;  261.897;  138.186
613.911;   31.903; -256.092; -345.835
614.186;  226.365; -249.107; -292.807
614.460; 1198.216; -842.081; -758.854
614.735; 1309.154;  -55.087;  -17.843
615.010;  262.742;   43.912;  -82.841
615.284;  351.078;  360.892;  246.195
615.559;  647.577; -792.092; -955.835
615.833;  468.575;  -76.099;  -87.822
616.108;   49.291; -225.090; -390.837
616.382;  193.831;  274.913;  402.156
616.656;  261.991; -241.090; -232.837
616.931;  819.251; -785.099; -700.822
617.205; 1727.501; -973.104; -979.813
617.480; 1550.475;  -91.125;    6.225
617.754;  310.722; -396.125; -128.774
618.028;   77.812; -369.129; -382.768
618.302;  118.077;   73.892;  -25.805
618.577;   -3.041; -371.103; -518.815
618.851;  -26.710; -399.109; -600.803
619.125;  -13.092; -335.134; -378.759
619.399;   -8.698; -244.104; -374.813
619.673;  -24.324; -330.115; -515.792
619.947;    0.569; -333.114; -448.795
620.222;   20.454; -198.110; -204.801
620.496;   28.520;  -47.121;  -96.782
620.770;   39.760; -187.122;  -93.781
621.044;  314.657;  323.895;  346.190
621.318; 1163.623; -653.120; -614.783
621.592; 1081.195; -430.121; -409.783
621.866;  631.816; -476.112; -572.799
622.140;   74.093; -207.116; -356.791
622.413;   95.871;  138.889;  112.200
622.687;   -9.599; -746.101; -492.817
622.961;   56.102; -130.108; -143.805
623.235;  -18.078; -633.111; -661.800
623.509;  -73.109; -816.105; -848.811
623.783;   22.962;  -12.107;   48.193
624.056;    3.049; -254.120; -280.783
624.330;   80.833;   63.888;   -3.797
624.604;  107.065; -271.116; -355.790
624.877;  128.359;  180.890;   26.198
625.151;  100.087; -249.114; -238.794
625.425;  -21.896; -150.103; -283.814
625.698;  -45.614; -367.119; -374.785
625.972;  -69.263; -799.110; -765.802
626.245;   96.742;  685.884;  484.210
626.519;   -8.521; -426.120; -340.784
626.792;  -11.708; -192.107; -380.807
627.066;  -77.049; -485.122; -662.779
627.339;  -89.818; -736.110; -663.802
627.613;   59.303;  351.880;  148.216
627.886;   90.565;  187.891; -612.803
628.160;   15.998;  312.880; -161.783
628.433;  -68.097; -695.125; -703.775
628.706;  -54.046; -517.120; -615.784
628.979;   40.161;  296.876;  117.223
629.253;  -49.159; -785.119; -833.786
629.526;  626.785; -334.126; -253.772
629.799;  637.145; -641.123; -479.778
630.072;  334.713; -497.128; -516.769
630.346;    4.742;-1115.116;-1080.790
630.619;  762.568; -467.107; -545.808
630.892;  955.523;  709.889;  593.200
631.165;  476.127;  790.896;  679.187
631.438;  -21.738;-1092.112;-1055.798
631.711;   62.374;  453.877;  257.221
631.984;  -29.939; -523.117; -624.789
632.257;  -32.268; -636.117; -681.789
632.530;  -28.864; -412.119; -433.785
632.803;   29.860; -109.115;    7.207
633.076;  -52.684; -360.123; -422.777
633.349;   38.493;  173.872;  121.231
633.622;  -18.366; -187.119; -240.785
633.895; -101.301; -903.120; -823.783
634.167;  -56.713; -496.126; -525.773
634.440;    8.724;  -19.116; -137.792
634.713;   10.490;  -22.119; -120.786
634.986;  106.181;  593.871;  453.233
635.258;  -40.692; -507.115; -597.793
635.531;   94.252;  742.882; -343.788
635.804;  -24.265; -303.117; -318.789
636.077;  -82.405; -830.116; -852.791
636.349;   54.231; -586.115; -474.793
636.622;  480.959; 1695.874; 1392.228
636.894;  443.305; -474.120; -909.784
637.167;  314.902; -836.127; -789.771
637.439;   76.347; -278.128; -213.770
637.712;  -31.064; -312.126; -293.772
637.984;  -41.004; -635.116; -707.791
638.257;  496.616;  515.877;  488.222
638.529;  917.855; -881.125; -924.776
638.802;  406.113; -508.128; -449.769
639.074;  -72.941; -927.122; -952.781
639.346; -100.877; -942.135; -930.757
639.619;   15.469;  -79.142; -319.744
639.891;   -1.349;  -83.122; -168.779
640.163;  -60.272; -689.122; -756.780
640.435;   49.806;  273.878;  103.220
640.708;   24.633;  -72.122; -132.780
640.980;    1.585; -366.122; -362.781
641.252;  252.787;  -25.121;  -71.781
641.524; 2456.914;  580.879;  573.219
641.796; 2657.542;-1094.121; -907.782
642.068;  482.319; -191.121; -300.782
642.340;  -25.829; -486.121; -566.783
642.613;   36.948;  294.880;  323.217
642.885;  -85.675; -787.120; -878.783
643.157;   13.478; -810.120; -658.784
643.428;   83.730;  170.880;  218.216
643.700;  -58.568; -498.120; -425.784
643.972;  -30.991;  -16.119; -133.785
644.244;  -78.339; -474.119; -559.785
644.516;  -35.811; -250.119; -114.786
644.788;   67.441;  662.881;  548.214
645.060;  -18.432;  -12.119; -124.786
645.332;  -86.030; -525.118; -535.787
645.603;   51.297;  479.882;  342.213
645.875;  -62.400; -334.118; -369.787
646.147;  162.877; 1487.882; 1242.212
646.418;    3.479; -931.117; -918.788
646.690;  338.831; -714.117; -715.789
646.962;  112.408; -413.117; -451.789
647.233;    6.236;   15.883;   11.211
647.505;  -96.712; -595.117; -475.790
647.776;   27.865;  328.884;  229.210
648.048;   18.542; -248.116; -418.790
648.320;  -44.581; -752.116; -679.791
648.591; -133.178;-1055.116; -958.791
648.862;  -76.926; -505.116; -577.792
649.134;   11.426;  115.885;  198.208
649.405;   -0.297; -661.115; -618.792
649.677;  -22.070; -475.115; -598.793
649.948;   39.908; -181.115; -296.793
650.219;    0.510;  -37.115; -147.793
650.491;  -84.613; -431.114; -520.794
650.762; -104.786; -705.114; -731.794
651.033;  -81.808; -437.114; -424.795
651.304;  -59.281; -743.114; -728.795
651.576;  -39.954; -680.114; -645.795
651.847;  -30.327; -250.113; -140.796
652.118;  -27.250;  -32.113; -189.796
652.389;  -97.172; -639.113; -722.796
652.660;  -30.020; -147.113;  -89.797
652.931; -126.468; -897.112; -871.797
653.202;  -61.941; -382.112; -541.798
653.473;  -49.089; -633.112; -533.798
653.744;  279.614; -595.112; -590.798
654.015;  272.816; -356.112; -303.799
654.286;  -38.657; -642.111; -663.799
654.557;  -31.330; -586.111; -521.799
654.828; -131.853;-1114.111;-1088.800
655.099;  -71.375; -404.111; -291.800
655.370;  -85.148; -427.111; -543.801
655.641; -107.871; -656.110; -714.801
655.911; -104.294; -618.110; -638.801
656.182;   45.783;  437.890;  387.198
656.453;   98.036;  830.890;  746.198
656.724;  -59.312; -466.110; -426.802
656.994;  -64.285; -553.109; -568.803
657.265;  -75.733; -862.109; -873.803
657.536;  -70.031; -500.109; -377.804
657.806;  -90.678; -561.109; -593.804
658.077; -125.926; -866.109; -950.804
658.347;  -74.574; -523.108; -598.805
658.618; -108.697; -646.108; -694.805
658.888;  -21.570;  -41.108;  112.195
659.159;  -70.567; -432.108; -548.806
659.429;   23.185; -292.108; -349.806
659.700;   56.787; -435.107; -390.807
659.970;   36.814; -370.107; -359.807
660.241;   84.291; -754.107; -921.807
660.511;  804.869; -147.107; -174.808
660.781;  211.446; -793.106; -748.808
661.052;  -37.152; -222.106; -381.808
661.322;  -36.150;   21.894;   -9.809
661.592;   21.503;  257.894;  148.191
661.862;  -63.895; -369.106; -382.810
662.133;  -84.143; -551.105; -502.810
662.403; -102.316; -770.105; -676.810
662.673;  -44.039; -256.105; -213.811
662.943;  -81.836; -612.105; -551.811
663.213;   23.066;  -85.105;  -81.811
663.483;  -65.882; -593.104; -568.812
663.753;  -37.155; -194.104; -152.812
664.023;  -10.653;   68.896;  -32.813
664.293;  -53.300; -319.104; -126.813
664.563;  -93.723; -694.104; -648.813
664.833; -113.796; -743.103; -608.814
665.103; -117.544; -730.103; -793.814
665.373;  -85.217; -766.103; -806.814
665.643;  -39.939; -863.103; -918.815
665.913;  105.338; -534.103; -714.815
666.182;  274.115; -685.102; -719.816
666.452;  442.942;  -22.102;  -89.816
666.722;   40.744; -724.102; -784.816
666.992; -100.678; -948.102; -921.817
667.261;  -63.951; -824.102; -808.817
667.531;  270.176;  134.899;   45.183
667.801;  838.278; -440.101; -412.818
668.070;  306.030;  714.899;  697.182
668.340;  -62.842; -883.101; -840.819
668.609;  112.335;  588.900;  301.181
668.879;  -63.763; -490.100; -558.819
669.149;  -46.336; -539.100; -516.820
669.418;  -93.109; -698.100; -726.820
669.688;   -3.881; -482.100; -666.820
669.957;  163.321; -423.099; -546.821
670.226;    2.973; -268.099; -331.821
670.496;  -77.125; -431.099; -635.822
670.765;  -59.747; -418.099; -501.822
671.034; -122.045; -872.099; -828.822
671.304;   -6.393;   55.902; -111.823
671.573; -132.791;-1085.098; -957.823
671.842;  154.686; -380.098; -294.823
672.112;  119.189; -692.098; -586.824
672.381;   26.041; -239.098; -214.824
672.650; -116.082;-1005.097;-1021.825
672.919;  -81.780; -631.097; -507.825
673.188;  -81.278; -681.097; -878.825
673.457; -107.400;-1101.097;-1143.826
673.726;  -55.223; -579.096; -646.826
673.995;  -21.846; -533.096; -479.826
674.265;   13.356; -263.096; -333.827
674.534;   50.183; -183.096; -235.827
674.802;   49.336; -618.096; -703.828
675.071; 1448.238; -886.095; -801.828
675.340; 6216.140; -464.095; -339.828
675.609; 2024.017;  103.905;   82.171
675.878;  232.494; -949.095; -893.829
676.147;   76.122;  -26.095;   -8.829
676.416;  169.899; -210.094; -294.830
676.685; 1077.176; 1000.906; -622.830
676.953;  228.678; -603.094; -452.831
677.222;   -0.120; -193.094; -273.831
677.491;   -0.592;  -24.094; -127.831
677.759;    3.635;   11.907;  172.168
678.028;   13.937; -279.093; -222.832
678.297;   18.839;   71.907;  197.168
678.565; -133.359; -898.093; -944.833
678.834;  -40.406; -311.093; -268.833
679.102;  -51.954; -411.092; -391.834
679.371; -123.902; -898.092; -727.834
679.639; -114.475; -797.092; -786.834
679.908; -126.898; -794.092; -724.835
680.176; -133.720; -895.091; -941.835
680.445;  -65.168; -346.091; -352.835
680.713;  -12.441;  -58.091;  -23.836
680.982;  -84.739; -523.091; -525.836
681.250;  -96.511; -578.091; -507.837
681.518;  -83.134; -534.090; -751.837
681.787;    8.543; -204.090; -167.837
682.055;  -40.630; -490.090; -422.838
682.323; -111.028; -993.090; -992.838
682.591;   79.425; -216.090; -538.838
682.859;  161.602;    9.911;  -35.839
683.128;   25.479;  232.911;  497.161
683.396; -146.669;-1102.089;-1122.840
683.664;  -30.742; -241.089;   21.160
683.932;   -3.089;  144.911;  -76.840
684.200;  -69.362; -576.088; -320.841
684.468;  -10.935;  -73.088; -124.841
684.736;  -11.983; -214.088; -175.841
685.004;  -91.031;-1024.088; -982.842
685.272;    3.172; -880.088; -774.842
685.540;  -25.151; -499.087; -557.843
685.808;  -61.674; -651.087; -682.843
686.076;  -57.697; -894.087; -969.843
686.343;  -19.720; -601.087; -815.844
686.611;   80.883; -195.087; -224.844
686.879;  648.260; -530.086; -553.844
687.147; 4997.687; -483.086; -480.845
687.414; 1458.839;  -12.086; -169.845
687.682;   74.416; -658.086; -757.846
687.950;  459.519;  259.915;  263.154
688.217;  103.296; -792.085; -760.846
688.485;   46.073; -632.085; -636.847
688.753;  850.125;  -11.085; -102.847
689.020;  371.002; -820.085; -851.847
689.288;  -62.645; -853.084; -787.848
689.555;  -13.643; -195.084; -148.848
689.823;  -25.416; -241.084; -345.849
690.090;  -68.989; -546.084; -651.849
690.358; -121.237; -877.084; -897.849
690.625;   23.266;  120.917;   45.150
690.892;  -61.307; -403.083; -369.850
691.160;   -7.880;   72.917;  -35.850
691.427;    8.447;  141.917;  130.149
691.694; -120.975; -855.083; -929.851
691.962; -103.898;-1177.082;-1060.852
692.229;   24.354;  127.918;   56.148
692.496;  114.931;  130.918;  -49.852
692.763;   39.083; -164.082; -201.853
693.031;  -32.464; -739.082; -716.853
693.298;    5.038; -509.081; -368.853
693.565;  430.890; -155.081; -163.854
693.832; 2039.817;   -5.081;   -9.854
694.099;  293.644; -643.081; -642.855
694.366;  -17.753; -882.081; -896.855
694.633;  -10.101; -920.080; -633.855
694.900;  758.201; 4367.920; -114.856
695.167;  652.228; -214.080; -380.856
695.434;  198.380; -646.080; -623.856
695.701;  240.883;  121.921;  -61.857
695.968;  676.760; -365.079; -361.857
696.234; 1184.812; -415.079; -646.858
696.501;12102.389; -776.079; -614.858
696.768; 6765.841; -554.079; -617.858
697.035;  396.469; -632.078; -667.859
697.302;   84.346; -448.078; -552.859
697.568;   41.348; -458.078; -497.859
697.835;  -17.400; -683.078; -624.860
698.102;   -3.973; -498.078; -407.860
698.368;   97.080;  384.923;  396.139
698.635;  -20.293;  -47.077; -424.861
698.901;   10.809; -240.077; -348.861
699.168;  150.436; -534.077; -456.862
699.435;  134.188;  -72.077;  -13.862
699.701;  -74.634; -868.076; -764.862
699.968;   19.993;  144.924; -441.863
700.234;  -60.505; -783.076; -822.863
700.500;  -40.528; -448.076; -539.864
700.767;   19.399;   -1.075;   26.136
701.033; -116.273;-1015.075; -963.864
701.299;  -38.871; -450.075; -483.865
701.566;  134.031;  950.925;  763.135
701.832;   38.883;  -31.075;  -76.865
702.098;  -71.214;-1054.074;-1034.866
702.365;  -53.287;-1098.074;-1030.866
702.631;   41.040;-1038.074;-1063.867
702.897; 1804.917; -765.074; -676.867
703.163; 3294.169;  348.926;  254.133
703.429;  276.322; -256.073; -273.868
703.695;   16.749; -796.073; -792.868
703.961;   50.901; -214.073; -210.868
704.227;  -22.247; -630.073; -725.869
704.493;  155.880;  613.927;  510.131
704.759;    0.858; -565.072; -540.870
705.025;   52.135; -203.072; -194.870
705.291;   31.662; -666.072; -562.870
705.557;  213.989;  719.928;   34.129
705.823;   68.291; -742.072; -694.871
706.089;  194.444; -307.071; -326.871
706.355;  433.596; -315.071; -244.872
706.620; 6011.348; -776.071; -729.872
706.886; 9928.075; -309.071; -362.873
707.152; 1063.602; -818.070; -973.873
707.418;   61.130;-1153.070;-1186.873
707.683;   40.807; -550.070; -530.874
707.949;  -11.091; -547.070; -578.874
708.215;   25.486; -129.070; -207.874
708.480;   15.363; -520.069; -420.875
708.746;  153.291;   68.931;   28.125
709.011;  -38.232; -578.069; -612.876
709.277;  -51.555; -538.069; -543.876
709.542;  -29.053; -428.069; -387.876
709.808;   15.799;  -59.068;   89.123
710.073;  -55.398; -577.068; -695.877
710.339;  -20.596; -242.068; -228.877
710.604;  132.881; -780.068; -845.878
710.869;  487.608; -277.068; -366.878
711.135;  -31.240; -715.067; -628.879
711.400;  -68.637; -507.067; -608.879
711.665;  -43.210; -404.067; -479.879
711.931;  -87.333; -661.067; -677.880
712.196;  -97.256; -876.067; -954.880
712.461;  191.547; -402.066; -490.880
712.726;  314.024; -727.066; -771.881
712.991;  -47.149; -647.066; -664.881
713.256;  -30.772; -350.066; -332.882
713.521;  -36.520; -417.065; -381.882
713.787;  -52.592; -454.065; -472.882
714.052;   -6.690; -214.065; -400.883
714.317;  -50.438;-1045.065; -981.883
714.581; 1205.639; -374.065; -268.883
714.846; 1971.091; -822.064; -888.884
715.111;  172.994;  261.936;  257.116
715.376;   -6.679;  -86.064; -223.885
715.641;    7.248; -365.064; -367.885
715.906;  475.175;   15.936; -551.885
716.171;  193.727;  221.937;  209.114
716.436;   72.855;  -78.063; -104.886
716.700;  -94.018; -818.063; -692.886
716.965;  -95.616; -794.063; -807.887
717.230;  -62.839; -339.063; -392.887
717.494;   -6.037;  -40.062; -134.888
717.759;  -67.309; -784.062; -640.888
718.024;   23.218;  269.938;  250.112
718.288;   82.895;  685.938;  395.111
718.553; -123.503; -803.062; -977.889
718.817; -113.401; -883.061; -899.889
719.082;  -11.223; -115.061; -125.890
719.346; -126.296;-1000.061; -947.890
719.611;  -30.294; -300.061; -255.891
719.875;  -74.617; -568.060; -537.891
720.140;  -45.865; -453.060; -603.891
720.404;   73.488; -136.060; -249.892
720.668; 1272.790; -475.060; -411.892
720.933;  547.692;  146.940;  137.108
721.197;  -79.756; -667.059; -600.893
721.461; -109.778; -851.059; -826.893
721.725;    0.699;  -21.059; -250.894
721.990;  -47.874; -284.059; -204.894
722.254;   -9.722;  -26.059; -108.894
722.518;  -61.670; -286.058; -442.895
722.782;  -81.367; -743.058; -594.895
723.046;  157.485;  614.942;  570.105
723.310;   29.862;  374.942;  210.104
723.574;  -74.011; -654.058; -614.896
723.838;  -96.359; -576.057; -642.897
724.102;  -35.681; -226.057; -239.897
724.366; -112.354;-1032.057; -978.897
724.630;  -74.377; -749.057; -571.898
724.894;  -47.275; -722.057; -514.898
725.158;    7.402;   38.944; -295.898
725.422;  -23.995; -394.056; -327.899
725.685;  -50.943; -441.056; -349.899
725.949;  -54.616; -566.056; -519.900
726.213;  -56.114; -732.056; -811.900
726.477;  334.863;-1020.055; -933.900
726.740;  248.266; -274.055; -104.901
727.004;  449.418; -384.055; -510.901
727.268; 4186.895; -442.055; -400.901
727.531; 1372.822; -961.055; -775.902
727.795;   -1.801; -713.054; -673.902
728.059;  -26.423; -552.054; -557.903
728.322;  -51.296; -841.054; -669.903
728.586;   92.931; -692.054; -701.903
728.849;  -44.117; -695.053; -756.904
729.112;  -92.390; -812.053; -912.904
729.376; -109.462; -959.053; -905.904
729.639;  -51.210; -536.053; -536.905
729.903;  -91.808; -733.053; -699.905
730.166;  -30.756; -437.052; -399.906
730.429;  -14.429; -317.052; -468.906
730.693;  -55.451; -355.052; -894.906
730.956;  239.401;  810.948;  651.093
731.219; 1057.728; -310.052; -103.907
731.482;  231.580;-1003.051; -894.907
731.745;  273.183; -794.051; -935.908
732.009;   27.535;  -30.051;   50.092
732.272;  -69.138; -904.051; -771.909
732.535;  -28.461; -300.051; -310.909
732.798; -116.559;-1083.050;-1166.909
733.061;  -36.706; -430.050; -456.910
733.324;   20.471;   31.950; -180.910
733.587;   93.748;  290.950;  365.090
733.850;  -31.900; -973.049;-1050.911
734.113;   66.902;   33.951;   32.089
734.376;   53.005; -328.049; -447.912
734.639;  263.732; 1188.951; 1011.088
734.901;  124.584; -180.049; -402.912
735.164;  727.586; -883.048; -837.913
735.427; 2052.888; -166.048; -355.913
735.690;  193.866; -205.048; -234.913
735.952;   43.693; -923.048; -925.914
736.215;   33.870;-1113.048;-1009.914
736.478;  128.747; -771.047; -774.915
736.740;  324.899;   33.953;  129.085
737.003;  897.402; -658.047; -672.915
737.266; 6127.379;  -94.047;   46.084
737.528;  726.731; -682.047; -660.916
737.791;  455.208; -316.046; -327.916
738.053;  988.485;  465.954;  649.083
738.316;13015.863; -162.046; -136.917
738.578;10907.465; -770.046; -736.918
738.841;  637.542; -382.046; -446.918
739.103;  285.294; -875.045; -777.918
739.365;  757.771;   79.955;  -69.919
739.628;   77.274; -884.045; -805.919
739.890;   13.951; -758.045; -710.919
740.152;    2.978; -692.044; -754.920
740.414;   36.205; -408.044; -359.920
740.677;   -6.843; -785.044; -634.921
740.939;   -5.540; -587.044; -487.921
741.201;  433.187; -432.044; -572.921
741.463;  121.264; -689.043; -745.922
741.725;   38.391;  -21.043; -199.922
741.987;   88.669;  220.957;  116.078
742.249;   83.971; -751.043; -859.923
742.511;  379.848; -703.043; -794.923
742.773;   92.825; -546.042; -546.924
743.035;  142.777;  796.958;  533.076
743.297;   10.480; -963.042;-1013.924
743.559; 1060.207; -278.042; -262.925
743.821;  195.909; -735.042; -744.925
744.083;   33.636;  -44.041; -149.925
744.345;  -49.937; -869.041; -892.926
744.607;   71.616;   75.959;  122.074
744.868;  -16.407; -490.041; -554.927
745.130;  -60.630; -994.041;-1008.927
745.392;   71.797;   -1.040;  -44.927
745.653;   34.974; -411.040; -378.928
745.915;  180.477;  896.960;  631.072
746.177;   99.954;   35.960;  -43.928
746.438;   39.281; -428.040; -543.929
746.700;   30.608; -947.039; -988.929
746.961;   78.960; -659.039; -740.930
747.223;  231.488; -190.039;  -74.930
747.484;  179.715; -391.039; -471.930
747.746;  230.417;  -23.038; -106.931
748.007;  234.344; -647.038; -689.931
748.269;  434.796; -468.038; -440.931
748.530;  808.099; -852.038; -638.932
748.791;  423.001; -354.038; -420.932
749.053;  623.728;  286.963;  163.067
749.314;  690.380; -236.037; -169.933
749.575;  823.432; -945.037; -905.933
749.836; 1235.660; -217.037;   86.066
750.098; 3116.512;  -60.037;  -21.934
750.359;49999.264;  414.964;  555.066
750.620;15446.716; -121.036; -220.935
750.881; 1544.568; -585.036; -513.935
751.142; 1938.546; -950.036; -938.936
751.403;21042.348; -789.036; -705.936
751.664;11406.075;-1034.035; -999.936
751.925;  747.627; -175.035; -262.937
752.186;  430.680; -298.035; -278.937
752.447;  237.457; -590.035; -445.937
752.708;  126.784; -532.035; -648.938
752.969;   72.786; -566.034; -576.938
753.230;   56.188; -777.034; -672.939
753.491;   65.441; -650.034; -631.939
753.751;  105.493;  109.966;   19.061
754.012;  145.420;  258.967;  181.060
754.273;  110.172; -174.033;  -71.940
754.534;   73.049; -487.033; -580.940
754.794;  -43.723; -926.033; -911.941
755.055;  178.879; 1051.967;  881.059
755.316;   14.331; -700.032; -566.942
755.576;    8.883; -606.032; -576.942
755.837;   -6.965; -527.032; -695.942
756.097;   10.688; -530.032; -564.943
756.358;  -36.135; -725.032; -770.943
756.618;  -15.233; -705.031; -641.943
756.879;   45.744; -254.031; -349.944
757.139;  -88.504;-1098.031;-1116.944
757.400;  -25.176; -538.031; -553.945
757.660;    8.851; -365.031; -401.945
757.920;   50.703; -266.030; -228.945
758.181;   29.355; -468.030; -351.946
758.441;  -66.518; -870.030; -809.946
758.701;   -1.665; -308.030; -215.946
758.961;   14.712; -220.030; -278.947
759.222;  -31.511; -574.029; -502.947
759.482;  -54.959; -683.029; -723.948
759.742;  -59.582; -706.029; -547.948
760.002;   33.321;  -83.029; -143.948
760.262;   28.898;   50.972;  182.051
760.522;  -16.650; -498.028; -574.949
760.782;  -25.298; -738.028; -612.949
761.042;  -19.071; -618.028; -573.950
761.302;   56.107;   55.972;  -18.950
761.562;   66.359; -164.027; -154.951
761.822;  154.911; -710.027; -551.951
762.082;   -2.562;-1104.027;-1093.951
762.342;   65.491; -328.027; -403.952
762.601;   97.368; -567.027; -506.952
762.861;  464.395; -281.026; -207.952
763.121;  423.372; -406.026; -411.953
763.381; 6569.424; -499.026; -485.953
763.640; 9090.927; -139.026; -307.954
763.900;  407.004; -242.026; -203.954
764.160;  101.656; -458.025; -491.954
764.419;    3.608; -726.025; -782.955
764.679;  -55.315; -795.025; -726.955
764.939;  -17.812; -124.025; -210.955
765.198;  -68.760; -608.025; -563.956
765.458;  -72.808; -710.024; -612.956
765.717;  -77.231; -454.024; -590.957
765.976;  -37.354; -428.024; -411.957
766.236;  -61.026; -475.024; -610.957
766.495;   19.026;  260.977;   73.042
766.755;  -41.222;-1090.023; -987.958
767.014;   64.555; -594.023; -665.958
767.273;  -38.043; -373.023; -397.959
767.533;  -39.565; -228.023; -307.959
767.792;  -15.613; -151.022; -188.960
768.051;  -43.611; -228.022; -276.960
768.310;  -69.384; -546.022; -650.960
768.569;   -4.382; -161.022;    4.039
768.828;  -14.904; -285.022; -363.961
769.088;  -60.327;-1050.021; -942.961
769.347;  -66.450; -755.021; -599.962
769.606;  -66.448; -876.021; -857.962
769.865; -105.496;-1016.021;-1033.963
770.124;   15.257; -411.021; -336.963
770.383;  -20.291; -778.020; -910.963
770.641;   30.761; -398.020; -400.964
770.900;  -45.087; -953.020; -846.964
771.159;  -24.109; -851.020; -951.964
771.418;    1.718; -917.020; -779.965
771.677;  150.095; -224.019; -293.965
771.936;  185.522; -794.019; -865.966
772.194; 1980.399; -465.019; -437.966
772.453;12893.677; -213.019; -391.966
772.712; 1001.529;  416.982;  329.033
772.970;  145.481;   32.982;   63.033
773.229;   92.708;  -22.018;  102.033
773.488;  -69.865; -814.018; -770.968
773.746;   55.488;  296.982;  335.032
774.005;   19.940;  190.983;  -22.969
774.263;   19.492;  243.983;  177.031
774.522;  -39.281; -422.017; -548.969
774.780;  -76.129; -484.017; -417.970
775.039;  -71.501; -551.017; -531.970
775.297;  -28.324; -135.016; -351.970
775.555; -100.697; -489.016; -612.971
775.814; -117.070; -618.016; -570.971
776.072; -123.168; -749.016; -740.971
776.330; -106.165; -630.016; -520.972
776.589; -113.163; -703.015; -721.972
776.847; -111.936; -645.015; -624.973
777.105; -140.409;-1016.015;-1032.973
777.363;  -73.232; -459.015; -454.973
777.621; -119.679; -660.015; -717.974
777.879;  -21.327;  -42.014;   32.026
778.138;  -89.075; -554.014; -717.974
778.396; -100.148; -585.014; -526.975
778.654; -157.671;-1015.014; -970.975
778.912;  -67.668; -269.014; -371.976
779.170; -119.341; -880.013; -803.976
779.427; -126.739; -922.013; -897.976
779.685; -122.762; -880.013; -832.977
779.943;  -51.835; -654.013; -593.977
780.201; -131.407; -964.012; -883.978
780.459;  -99.355; -651.012; -610.978
780.717;  -70.478; -440.012; -390.978
780.974;  -98.726; -449.012; -490.979
781.232;  -68.498; -358.012; -338.979
781.490;  -54.846; -551.011; -472.979
781.747;  -97.819; -555.011; -476.980
782.005;   26.408;  462.989;  254.020
782.263; -149.865; -542.011;-1004.981
782.520;  -88.287; -326.011; -501.981
782.778; -148.110;-1013.010;-1051.981
783.035; -151.733; -962.010; -938.982
783.293;  -62.656; -248.010; -206.982
783.550;  -59.429; -134.010; -198.982
783.808; -118.001; -764.010; -776.983
784.065; -148.474; -745.009; -874.983
784.322;  -40.547;   25.991;  -86.984
784.580; -133.845; -915.009; -771.984
784.837;  -81.793; -392.009; -466.984
785.094; -115.265; -783.009; -762.985
785.352;  -51.938; -304.008; -404.985
785.609;  -59.436; -934.008; -839.985
785.866;  -73.209; -345.008; -401.986
786.123;  -20.582; -639.008; -583.986
786.380;  -72.129; -665.008; -604.987
786.637;  -31.752; -225.007; -380.987
786.895;   25.325; -456.007; -543.987
787.152;  -42.648; -135.007; -267.988
787.409;  -39.221; -123.007; -225.988
787.666;  -76.518; -299.006; -378.988
787.923; -105.891; -616.006; -695.989
788.179;  -94.539; -551.006; -584.989
788.436;  -97.987; -585.006; -585.990
788.693;  -22.685;  -92.006;  -87.990
788.950;  199.918; -125.005; -112.990
789.207;  432.770; -381.005; -372.991
789.464;  -39.878; -161.005; -301.991
789.720;   -6.476;  150.995;  110.009
789.977; -159.474;-1003.005; -671.992
790.234;  -29.596;   44.996;  -66.992
790.490; -131.069; -884.004;-1031.993
790.747;  -15.367;  -85.004;   22.007
791.004;    8.060; -426.004; -348.993
791.260;  -62.387; -430.004; -560.994
791.517;  -91.485; -843.003; -788.994
791.773;  -20.583; -379.003; -342.994
792.030;  -90.831; -596.003; -660.995
792.286;  -88.879; -686.003; -636.995
792.543;  -25.626;  -74.002; -159.995
792.799;  -40.249; -584.002; -382.996
793.055; -140.847;-1179.002;-1210.996
793.312;  -78.870; -827.002; -816.997
793.568;  -34.068; -746.002; -599.997
793.824;   21.610; -226.001; -284.997
794.081;   29.412; -447.001; -508.998
794.337;   78.839; -664.001; -561.998
794.593; 1111.041; -319.001; -271.999
794.849; 7411.843; -746.001; -772.999
795.105;  464.396; -270.000; -261.999
795.361;   32.998; -490.000; -457.000
795.617;  -38.000; -875.000; -945.000
795.873;  -37.675; -360.000; -407.000
796.129;  -12.950; -368.000; -306.000
796.385;  -18.150; -124.000; -156.000
796.641;   59.450;  412.000;  550.000
796.897;  -71.025; -666.000; -635.000
797.153;   81.425;  453.000;  357.000
797.409;  -82.150; -785.000; -868.000
797.665;  -55.150; -625.000; -732.000
797.921;  -56.800; -775.000; -762.000
798.176;  -27.350; -744.000; -747.000
798.432;  -25.575; -824.000; -596.000
798.688;  -49.325;-1174.000;-1078.000
798.943;  103.500; -165.000; -147.000
799.199;   46.475;-1005.000; -959.000
799.455;  267.200;  369.000;  316.000
799.710;  188.675; -813.000; -380.000
799.966;  387.600; -162.000; -160.000
800.221;  571.775; -638.000; -721.000
800.477;11193.675; -743.000; -710.000
800.732;13077.400; -773.000; -800.000
800.988;  782.700;  205.000;  -19.000
801.243; 1450.150; -454.000; -344.000
801.498; 8004.275; -814.000; -739.000
801.754;  568.400; -289.000; -163.000
802.009;  100.950; -257.000; -335.000
802.264;  -15.575; -967.000;-1033.000
802.520;   43.775;  222.000;   -3.000
802.775;  -23.875; -524.000; -359.000
803.030;   42.150;  395.000;  356.000
803.285;  -96.225; -840.000; -903.000
803.540;  -40.225; -686.000; -699.000
803.795;   -6.400; -648.000; -583.000
804.051;  -24.075; -279.000; -346.000
804.306;   30.225;  168.000;  128.000
804.561;  192.800;  451.000;  362.000
804.816;  165.950;  714.000;  861.000
805.071;   21.725; -185.000; -280.000
805.325;  352.725; -257.000; -427.000
805.580;  -66.525; -841.000; -877.000
805.835;   -1.675; -204.000; -297.000
806.090;  -43.050; -760.000; -676.000
806.345;    6.650; -344.000; -264.000
806.600;   -2.675; -549.000; -632.000
806.854;   -9.625; -408.000; -538.000
807.109;    0.075; -493.000; -577.000
807.364;   32.500; -407.000; -328.000
807.618;   25.850; -415.000; -381.000
807.873;  100.550; -470.000; -494.000
808.128;  150.575; -257.000; -518.000
808.382;  155.125; -224.000; -332.000
808.637;  111.925; -440.000; -511.000
808.891;  234.500; -257.000; -180.000
809.146;  161.200; -902.000; -794.000
809.400;  349.750; -848.000; -923.000
809.654;  428.850; -779.000; -551.000
809.909;  606.400; -841.000; -927.000
810.163; 6915.650; -813.000; -651.000
810.418;23985.625; -940.000; -861.000
810.672; 1413.400; -685.000; -690.000
810.926;  755.825; -993.000; -973.000
811.180; 1261.775; -439.000; -372.000
811.434;26943.950;  240.000;  135.000
811.689;14557.675; -231.000; -365.000
811.943;  751.375; -936.000; -953.000
812.197;  338.600; -893.000; -671.000
812.451;  139.275; -379.000; -514.000
812.705;  -10.425; -809.000; -619.000
812.959;   10.825; -263.000; -388.000
813.213;   13.425; -283.000; -209.000
813.467;   69.825;  470.000;  253.000
813.721;  -90.525; -764.000; -792.000
813.975; -102.025; -826.000; -877.000
814.229;   39.725;  430.000;  353.000
814.482;  -58.175; -517.000; -566.000
814.736; -102.175; -766.000; -744.000
814.990; -120.025; -779.000; -872.000
815.244;  -49.150; -228.000; -285.000
815.497;  -86.000; -636.000; -601.000
815.751;  -12.900; -141.000;   82.000
816.005;  -79.925; -470.000; -586.000
816.258;  -52.900; -510.000; -363.000
816.512;  -93.275; -693.000; -610.000
816.766;    7.700;  121.000;  157.000
817.019;   31.850;  148.000;  149.000
817.273;  -84.400;-1000.000; -802.000
817.526;  -25.150; -206.000; -173.000
817.779;   28.550;-1049.000; -960.000
818.033;   -3.150; -693.000; -807.000
818.286; -115.800; -725.000; -792.000
818.540;  -72.775; -403.000; -403.000
818.793;  -63.500; -402.000; -489.000
819.046; -102.750; -582.000; -520.000
819.299;  -41.450; -157.000; -166.000
819.553;  -95.950; -552.000; -592.000
819.806; -139.300;-1016.000; -838.000
820.059;  -50.600; -334.000; -354.000
820.312;   31.550;  152.000;  185.000
820.565;   -2.850;  110.000;  -27.000
820.818;  -53.675;  -59.000; -173.000
821.071; -141.875;-1041.000; -957.000
821.324;  -88.075; -536.000; -540.000
821.577;  -98.125; -457.000; -483.000
821.830;  -70.100; -270.000; -172.000
822.083; -122.675; -733.000; -288.000
822.336;  -54.275; -261.000; -167.000
822.589; -130.500; -805.000; -688.000
822.842; -132.175; -875.000; -770.000
823.094; -170.200;-1076.000;-1114.000
823.347; -118.400; -925.000; -729.000
823.600;   33.350;  402.000;  187.000
823.853;  -45.450; -311.000; -267.000
824.105;  -61.375; -331.000; -575.000
824.358;  -99.350; -617.000; -716.000
824.611;   43.250;  234.000;   40.000
824.863;   -9.775; -612.000; -591.000
825.116;   79.800;  -33.000;   27.000
825.368;  142.150; -366.000; -372.000
825.621;  274.800; -186.000; -240.000
825.873;  147.000; -704.000; -737.000
826.126;  664.400; -669.000; -641.000
826.378;14073.075; -389.000; -505.000
826.630; 4839.225; -890.000; -898.000
826.883;  142.625; -754.000; -693.000
827.135;   93.850; -279.000; -270.000
827.387;  -70.175; -893.000; -839.000
827.639;  -10.450;  -86.000;   32.000
827.892; -109.900; -742.000; -582.000
828.144; -118.050; -848.000; -804.000
828.396;  -28.850;  104.000;  -80.000
828.648;  -89.025; -440.000; -333.000
828.900; -127.800; -702.000; -795.000
829.152;  -93.575; -684.000; -683.000
829.404;  -60.850; -215.000; -267.000
829.656;    3.975;  321.000;  214.000
829.908;  -17.350;  393.000;  229.000
830.160; -158.750;-1064.000;-1047.000
830.412;  -83.400; -481.000; -430.000
830.664; -109.550; -557.000; -665.000
830.916;  -68.100; -268.000; -206.000
831.167; -165.375;-1073.000; -951.000
831.419;  -99.650; -623.000; -566.000
831.671; -133.900; -764.000; -809.000
831.923;  -69.525; -311.000; -447.000
832.174;  -61.725; -273.000; -331.000
832.426; -108.975; -493.000; -582.000
832.678; -168.525;-1043.000;-1091.000
832.929; -140.450; -947.000; -935.000
833.181;  -33.375; -575.000; -677.000
833.432;  -40.350;  -59.000; -186.000
833.684;  -13.725;  112.000;  -27.000
833.935; -103.050; -610.000; -566.000
834.187; -115.675; -829.000; -823.000
834.438;  -40.850;  -58.000;  -25.000
834.689;  -50.975; -255.000; -123.000
834.941;  -42.575; -343.000; -244.000
835.192;  -85.375; -590.000; -533.000
835.443;  -81.075; -419.000; -506.000
835.695;   -6.000;  138.000;  -16.000
835.946;  -78.825; -608.000; -378.000
836.197;  -95.150; -599.000; -622.000
836.448;  -82.500; -528.000; -395.000
836.699;  -39.325; -253.000; -341.000
836.950;    6.200;   72.000;    7.000
837.201; -140.600;-1003.000; -987.000
837.452;  -32.850; -356.000; -170.000
837.703;  -90.925; -791.000; -737.000
837.954;  -28.875; -205.000; -365.000
838.205;  -41.300;-1029.000;-1008.000
838.456;  287.025; -196.000; -282.000
838.707;   53.750; -423.000; -519.000
838.958;   63.225; -634.000; -647.000
839.209;  443.875;   18.000;   40.000
839.460;  183.775; -439.000; -201.000
839.710;  244.325; -135.000; -297.000
839.961;  541.425;  730.000;  612.000
840.212;  462.225; -382.000; -497.000
840.462; 1306.950; -328.000; -277.000
840.713;20729.975; -571.000; -536.000
840.964;11283.450;  -62.000; -143.000
841.214;  751.875; -384.000; -624.000
841.465;  776.250; -214.000; -141.000
841.715;  722.725; -417.000; -380.000
841.966;  881.750; -746.000; -685.000
842.216; 9271.200; -330.000; -431.000
842.466;46112.100; -169.000; -313.000
842.717; 3658.150; -964.000; -952.000
842.967;  454.225; -635.000; -641.000
843.217;  404.325;   20.000;   28.000
843.468;  132.725; -104.000; -132.000
843.718;    5.750; -718.000; -726.000
843.968;  -55.250; -837.000; -765.000
844.218;   49.225; -315.000; -262.000
844.469;   -3.175; -577.000; -561.000
844.719;  -85.750; -537.000; -682.000
844.969;  -89.725; -550.000; -580.000
845.219; -126.300; -814.000; -862.000
845.469;  -65.950; -392.000; -342.000
845.719; -119.950; -792.000; -884.000
845.969;  -11.325;  119.000;  174.000
846.219; -111.000; -738.000; -720.000
846.469;   32.225;  464.000;  432.000
846.718;  -36.775; -115.000;   31.000
846.968; -121.725; -827.000; -827.000
847.218;  -44.175; -224.000; -371.000
847.468;   -1.375; -586.000; -555.000
847.718; -114.350; -827.000; -798.000
847.967; -119.725; -826.000; -915.000
848.217;  -58.600; -449.000; -569.000
848.467;  -65.875; -405.000; -376.000
848.716;  -95.425; -708.000; -725.000
848.966;   44.275; -372.000; -358.000
849.215;  -33.675; -428.000; -419.000
849.465;  -69.725; -785.000; -615.000
849.714; -105.250;-1132.000;-1150.000
849.964;  -34.225; -551.000; -613.000
850.213;    3.850; -393.000; -355.000
850.463;   96.550;  137.000;  340.000
850.712;   52.525; -542.000; -567.000
850.961;   69.100; -739.000; -678.000
851.211;  181.225; -513.000; -504.000
851.460;  257.025; -635.000; -650.000
851.709;  690.350;  -25.000;   18.000
851.958;11447.025; -912.000; -750.000
852.208;19039.600; -859.000; -879.000
852.457;  810.925; -181.000;  -13.000
852.706;  154.200; -791.000; -823.000
852.955;   77.250; -507.000; -528.000
853.204;  -30.175; -521.000; -461.000
853.453;  -60.950; -418.000; -458.000
853.702; -114.475; -660.000; -750.000
853.951;  -94.575; -532.000; -520.000
854.200; -105.200; -613.000; -562.000
854.449; -114.625; -695.000; -661.000
854.698;  -99.800; -340.000; -279.000
854.946;  -67.200; -181.000; -284.000
855.195; -142.125; -843.000; -868.000
855.444;  -94.450; -395.000; -420.000
855.693; -112.425; -345.000; -432.000
855.941;  -93.450; -387.000; -516.000
856.190;  -41.100; -256.000; -382.000
856.439; -113.200; -652.000; -703.000
856.687;  -57.225;  -99.000;  -72.000
856.936; -110.900; -621.000; -323.000
857.184; -180.550;-1067.000;-1020.000
857.433;  -89.700; -423.000; -512.000
857.681; -141.975; -989.000; -953.000
857.930;  -70.375; -282.000; -433.000
858.178; -160.975; -856.000; -929.000
858.427; -145.850; -802.000; -781.000
858.675; -118.100; -377.000; -544.000
858.923; -105.300; -527.000; -819.000
859.172; -166.025;-1094.000;-1070.000
859.420;  -81.350; -339.000; -239.000
859.668; -125.550; -624.000; -628.000
859.916;  -28.200;  109.000;  115.000
860.164; -104.525; -699.000; -603.000
860.413;  445.250; -878.000; -696.000
860.661;  509.850; -709.000; -577.000
860.909;  -62.400; -339.000; -325.000
861.157;  -79.925; -277.000; -444.000
861.405; -118.975; -534.000; -670.000
861.653;   16.450;  310.000;  310.000
861.901;  256.525; -543.000; -613.000
862.149;  151.525; -801.000; -824.000
862.396;  -85.650; -297.000; -187.000
862.644;  -86.900; -368.000; -347.000
862.892;  -40.275;   98.000;  138.000
863.140; -118.725; -549.000; -530.000
863.388; -147.225; -815.000; -759.000
863.635; -128.325; -642.000; -601.000
863.883;  -16.925;  231.000;  190.000
864.131;  -92.925; -288.000; -357.000
864.378; -133.775; -675.000; -540.000
864.626; -100.825; -347.000; -415.000
864.873; -119.750; -556.000; -505.000
865.121; -133.200; -714.000; -799.000
865.368;  -51.625; -173.000;   75.000
865.616;  -27.275;  -33.000;  -40.000
865.863;  -79.200; -462.000; -506.000
866.111;  -91.150; -795.000; -824.000
866.358;   49.225; -426.000; -420.000
866.605; 2188.825;  -64.000; -804.000
866.853; 3019.275; -621.000; -537.000
867.100;   26.800; -728.000; -775.000
867.347;  -74.850; -672.000; -611.000
867.594;  -68.800; -740.000; -714.000
867.841;  158.050;   97.000;   17.000
868.089; -121.925; -746.000; -698.000
868.336; -109.350; -477.000; -420.000
868.583; -140.225; -637.000; -741.000
868.830;  -53.425; -131.000; -170.000
869.077; -147.650; -859.000; -787.000
869.324; -133.750; -502.000; -458.000
869.571; -131.800; -398.000; -430.000
869.818; -106.250; -485.000; -439.000
870.065;  -86.600; -439.000; -513.000
870.311; -100.025; -456.000; -542.000
870.558;  -82.925; -332.000; -311.000
870.805;  -81.100; -320.000; -384.000
871.052; -122.125; -494.000; -369.000
871.298;  -47.350; -204.000; -131.000
871.545;  -52.925; -151.000; -185.000
871.792;  -79.100; -173.000; -222.000
872.038;  -63.975;   43.000; -126.000
872.285; -134.375; -496.000; -387.000
872.532; -100.475; -357.000; -387.000
872.778;    3.925;  556.000;  403.000
873.025;  -87.875; -384.000; -359.000
873.271;   16.200;  501.000;  578.000
873.517;  -17.625; -133.000; -209.000
873.764;   13.300; -193.000;  -80.000
874.010;  -50.375; -143.000; -230.000
874.257;  -45.200;  123.000;   90.000
874.503; -121.650; -579.000; -479.000
874.749;  -77.075;   31.000;  275.000
874.995;  -60.125;  -80.000;  -20.000
875.242; -122.800; -540.000; -478.000
875.488;  -94.450; -414.000; -439.000
875.734;  -48.325; -106.000; -234.000
875.980;  308.675; -872.000;-1032.000
876.226;  721.550; -157.000; -255.000
876.472;    2.800;  343.000;  237.000
876.718;  -40.175;  184.000;  158.000
876.964;  -32.375;   56.000;   55.000
877.210; -121.925; -547.000; -677.000
877.456; -134.575; -630.000; -557.000
877.702; -163.250; -821.000; -832.000
877.948; -107.325; -377.000; -497.000
878.193;   12.450;  361.000;  255.000
878.439;  -61.200; -487.000; -472.000
878.685;  -93.625; -272.000; -343.000
878.931; -133.550; -618.000; -676.000
879.176;  -80.275; -201.000; -201.000
879.422; -164.725; -933.000; -820.000
879.668;   45.325;   10.000;   79.000
879.913;  267.000;   53.000;  137.000
880.159;  -43.900; -112.000;  -17.000
880.404;  -51.575; -152.000; -162.000
880.650;  -46.150;   91.000;  141.000
880.895; -152.275; -670.000; -710.000
881.141; -125.650; -454.000; -428.000
881.386; -151.675; -503.000; -658.000
881.631;  -83.100; -311.000; -166.000
881.877;  -23.375;  112.000;  -13.000
882.122; -129.500; -684.000; -600.000
882.367;  -81.375; -136.000; -186.000
882.612;  -77.675;  -80.000; -176.000
882.858; -160.400; -877.000; -823.000
883.103;  -88.125; -297.000; -267.000
883.348; -162.650; -759.000; -852.000
883.593; -152.075; -677.000; -602.000
883.838;  -50.050; -311.000;  -24.000
884.083;   60.050;  353.000;  288.000
884.328;  -93.350; -564.000; -545.000
884.573;  -39.825; -196.000; -143.000
884.818;  304.400; -694.000; -531.000
885.063;  410.375; -348.000; -315.000
885.308;  -99.375; -475.000; -398.000
885.553;  -16.875;  245.000;  325.000
885.797; -133.200; -545.000; -615.000
886.042;  -48.400;    8.000;   58.000
886.287;  -89.675; -253.000; -211.000
886.532;  -55.875;   26.000;  204.000
886.776; -104.575; -407.000; -525.000
887.021; -124.875; -621.000; -574.000
887.265; -141.025; -685.000; -689.000
887.510; -131.625; -557.000; -496.000
887.755;  -93.125; -194.000; -164.000
887.999; -142.600; -552.000; -575.000
888.244;  -51.500;  -58.000;  161.000
888.488;   -7.900;  371.000;  393.000
888.732; -120.275; -368.000; -520.000
888.977; -132.325; -622.000; -567.000
889.221; -144.825; -683.000; -659.000
889.465; -119.650; -422.000; -566.000
889.710;  -83.025;  -56.000; -299.000
889.954;    6.425;  579.000;  467.000
890.198; -146.250; -584.000; -707.000
890.442; -153.575; -716.000; -712.000
890.687; -160.500; -800.000; -753.000
890.931;  -96.875; -273.000; -210.000
891.175; -131.325; -502.000; -500.000
891.419;  -72.425; -105.000; -110.000
891.663;  -92.450; -239.000; -112.000
891.907; -157.225; -801.000; -545.000
892.151; -164.625; -920.000; -815.000
892.395; -121.750; -274.000; -387.000
892.638;  -15.850;  408.000;  291.000
892.882; -169.000; -780.000; -867.000
893.126;    9.800;  758.000;  558.000
893.370;  -92.875; -167.000; -168.000
893.614; -154.025; -714.000; -715.000
893.857;  -97.075; -183.000; -197.000
894.101; -120.725; -527.000; -631.000
894.345;  -59.275;  300.000;  150.000
894.588;    5.375;  569.000;  380.000
894.832;  -87.875; -178.000;  -84.000
895.075;  -73.800;   15.000;  -92.000
895.319; -128.750; -552.000; -420.000
895.563; -109.500; -413.000; -353.000
895.806; -138.750; -628.000; -741.000
896.049;  -24.975; -576.000; -368.000
896.293;  156.975;  527.000;  405.000
896.536;  -35.450; -465.000; -468.000
896.779;  -40.975; -149.000;   -1.000
897.023; -123.125; -751.000; -714.000
897.266;  -29.700;  325.000;  269.000
897.509; -166.200; -900.000; -901.000
897.752;  -52.800;  149.000;  171.000
897.996; -188.725; -972.000; -864.000
898.239;  -45.775;  168.000;  102.000
898.482; -110.800; -431.000; -453.000
898.725;  -26.625;  101.000;   53.000
898.968; -131.175; -609.000; -744.000
899.211;  -90.575; -513.000; -361.000
899.454; -109.850; -633.000; -539.000
899.697;  -61.150;   90.000;  -43.000
899.940; -164.650; -761.000; -757.000
900.182;  -82.550; -335.000; -405.000
900.425;  -93.975; -150.000; -298.000
900.668;  -24.625;  491.000;  350.000
900.911; -106.225; -292.000; -345.000
901.154;  -57.100;  141.000;   -3.000
901.396; -141.275; -407.000; -412.000
901.639; -121.025; -430.000; -496.000
901.882; -164.800; -790.000; -809.000
902.124;  -81.050;  -29.000; -143.000
902.367; -114.150; -315.000; -361.000
902.609; -130.450; -476.000; -453.000
902.852;  -95.325; -108.000; -260.000
903.094; -115.425; -458.000; -337.000
903.337;  -48.775;  -26.000;   53.000
903.579; -113.725; -228.000; -441.000
903.821; -154.500; -597.000; -744.000
904.064;  -69.350;   85.000;  127.000
904.306;  -78.600; -126.000; -166.000
904.548; -103.525; -152.000; -366.000
904.790;  -94.725; -195.000; -340.000
905.033; -133.825; -625.000; -577.000
905.275; -129.025; -513.000; -524.000
905.517;   51.200;  468.000;  256.000
905.759;    6.425; -667.000; -761.000
906.001;  -74.725; -322.000; -369.000
906.243;  -48.025; -162.000; -224.000
906.485;  171.725; -265.000; -207.000
906.727;  281.400; -499.000; -542.000
906.969;   -3.150;  -30.000; -135.000
907.211;  210.550; -316.000; -382.000
907.453;  466.575; -188.000; -237.000
907.695;  115.025; -158.000; -385.000
907.936;   50.050;  818.000;  706.000
908.178;  -55.275;   92.000; -135.000
908.420;  -72.575; -111.000; -162.000
908.662; -124.325; -633.000; -682.000
908.903;  -85.350; -208.000; -123.000
909.145;  -57.725; -240.000; -305.000
909.386;   -5.525;  315.000;  280.000
909.628;   40.675;  363.000;  397.000
909.870;   -1.425;   29.000;  264.000
910.111;  -84.575; -809.000; -949.000
910.353;   18.075; -123.000; -161.000
910.594;   10.350; -574.000; -606.000
910.835;   90.975; -265.000; -326.000
911.077;  176.300; -503.000; -604.000
911.318;  299.400; -505.000; -471.000
911.559;  486.175; -577.000; -880.000
911.801; 1245.200; -284.000; -280.000
912.042; 9052.925;  -50.000; -159.000
912.283;28614.725;  404.000;  371.000
912.524; 5830.775; -396.000; -457.000
912.765;  590.925; -193.000;   79.000
913.006;  279.375; -307.000; -338.000
913.247;   75.000; -270.000; -290.000
913.488;   19.600;  -43.000;   30.000
913.729;  -75.700; -373.000; -373.000
913.970;  -46.125;  -96.000; -292.000
914.211;  -54.675; -160.000; -198.000
914.452;  -55.550; -118.000;  -11.000
914.693;   23.250;  510.000;  592.000
914.934;   27.325;  510.000;  440.000
915.175;  -63.150;   53.000;  -95.000
915.415;  -76.300; -137.000;   27.000
915.656;  -59.950;  -28.000;  192.000
915.897;  -82.575; -252.000;  -82.000
916.137;  -65.450;   74.000;   -9.000
916.378; -119.375; -573.000; -517.000
916.619;  -79.700; -159.000;  -63.000
916.859;  -25.850;  303.000;  330.000
917.100;  132.950; 1655.000; 1070.000
917.340;   52.175;  930.000;  728.000
917.581;   51.300;  965.000;  789.000
917.821;    3.175; -171.000;  143.000
918.061;   77.950; -199.000;  -72.000
918.302;  -20.150; -152.000; -211.000
918.542;   -8.625;  -22.000;    3.000
918.782;   49.925;  369.000;  377.000
919.023;  169.825;  360.000;  427.000
919.263; 1490.975; 8131.000;  202.000
919.503; 1739.575; -137.000;  -54.000
919.743;  939.100;  390.000;  266.000
919.983;  511.375; -134.000;  -26.000
920.223;  143.500;  135.000;   14.000
920.463;  189.550;  631.000;  554.000
920.703;  180.800;   84.000;   39.000
920.943;  227.025; -110.000;   90.000
921.183;  310.375; -414.000; -405.000
921.423;  623.400;  307.000;  546.000
921.663;  902.925; -174.000; -257.000
921.903; 1810.625;  237.000;  173.000
922.143; 9367.000;  372.000;  389.000
922.383;39333.975;  158.000;  115.000
922.622;17546.375; -120.000;  -15.000
922.862; 1809.150;  796.000;  785.000
923.102;  632.525;  -51.000;   33.000
923.341;  289.675;   59.000;   74.000
923.581;  121.600;  450.000;  360.000
923.821;   47.400;  301.000;  398.000
924.060;   17.075;  351.000;  193.000
924.300;  -31.925;  -16.000; -128.000
924.539;   -0.400;  584.000;  473.000
924.779;   21.550;  812.000;  597.000
925.018;  -29.575;  247.000;  353.000
925.257;  -14.450;  595.000;  666.000
925.497;  -27.525;  447.000;  412.000
925.736;  -57.600;  -35.000;  102.000
925.975;    7.925;  687.000;  669.000
926.214;   42.425;  907.000;  850.000
926.454;   32.175;  706.000;  757.000
926.693;  -25.300;  419.000;  543.000
926.932;   35.350; 1021.000;  825.000
927.171;   54.900; 1107.000; 1044.000
927.410;   59.050; 1144.000;  967.000
927.649;   23.050;  924.000;  742.000
927.888;    5.150;  590.000;  564.000
928.127;   -9.750;  680.000;  678.000
928.366;   49.600;  842.000;  826.000
928.605;   47.500;  831.000;  737.000
928.844;  281.100; 1451.000; 1393.000
929.083;  816.975;  770.000;  613.000
929.321;  518.700; 1335.000; 1359.000
929.560;  101.625; 1158.000; 1122.000
929.799;  -12.450;  574.000;  475.000
930.038;   77.675; 1025.000; 1394.000
930.276;  -50.000;  334.000;  397.000
930.515;    9.500;  827.000;  681.000
930.753;  -14.175;  614.000;  589.000
930.992;  -24.575;  664.000;  717.000
931.230;    0.225;  847.000;  847.000
931.469;  165.100; 2162.000;  892.000
931.707;   64.075;  840.000;  751.000
931.946;   77.775; 1278.000; 1344.000
932.184;   50.725; 1437.000; 1175.000
932.423;   68.025; 1265.000;  963.000
932.661;  106.000; 1296.000; 1428.000
932.899;   49.700;  987.000;  821.000
933.137;    7.900;  754.000;  564.000
933.376;  177.050; 1664.000; 1335.000
933.614;  181.650; 1759.000; 1196.000
933.852;   79.100; 1357.000; 1171.000
934.090;  147.900; 1722.000; 1747.000
934.328;  112.225; 1252.000; 1457.000
934.566;   94.050; 1431.000; 1110.000
934.804;  157.825; 1263.000; 1309.000
935.042;  486.175; 1861.000; 1850.000
935.280; 1966.675; 2088.000; 2063.000
935.518; 2253.675; 2113.000; 2007.000
935.756;  483.000; 2481.000; 2316.000
935.994;  185.650; 1808.000; 1751.000
936.231;  379.425; 2890.000; 2950.000
936.469;  231.575; 2367.000; 2378.000
936.707;  179.825; 2220.000; 2167.000
936.945;  232.500; 2825.000; 2882.000
937.182;  240.400; 2679.000; 2741.000
937.420;  311.275; 3602.000; 3031.000
937.657;  452.700; 3365.000; 3478.000
937.895;  427.775; 3331.000; 3488.000
938.133;  318.675; 3540.000; 3528.000
938.370;  341.925; 3896.000; 4191.000
938.607;  376.250; 4488.000; 4205.000
938.845;  549.000; 5587.000; 5549.000
939.082;  485.500; 5387.000; 5177.000
939.320;  542.850; 5799.000; 5728.000
939.557;  647.875; 6549.000; 6491.000
939.794;  730.950; 7285.000; 7097.000
940.031;  943.275; 8421.000; 8368.000
940.269; 1176.000; 9552.000; 9107.000
940.506; 1128.725;10901.000;10507.000

