
Integration time [ms]: 100.000
Averaging Nr. [scans]: 40
Smoothing Nr. [pixels]: 0
Data measured with spectrometer [name]: 2101013U2
Wave   ;Sample   ;Dark     ;Reference
[nm]   ;[counts] ;[counts] ;[counts] 

394.013;   56.642; -450.257; -315.536
394.305;  165.115; -461.258; -419.536
394.596; 1571.841; -676.269; -527.514
394.887; 4097.461; -796.268; -654.518
395.178; 1495.623;  145.736;   11.476
395.470;   89.086; -210.263; -356.526
395.761;  142.404;  305.734;  394.479
396.052;   98.816; -545.284; -306.489
396.343;   79.624; -557.276; -454.503
396.634;   40.537; -200.279; -290.497
396.926;   32.983; -618.268; -565.517
397.217;   69.805;   11.725;  -17.504
397.508;   27.874; -366.273; -154.507
397.799;    7.637; -555.279; -571.497
398.090;    6.605; -973.280; -902.495
398.381;   65.550;   11.708;  -11.473
398.672;  -29.948; -585.292; -742.473
398.963;   31.844; -348.279; -373.498
399.254;   79.788;   54.709; -209.475
399.545;  -29.850;-1017.266; -883.520
399.836;   38.211; -407.277; -343.501
400.127;   44.422; -205.295; -209.468
400.418;   29.517; -423.274; -392.506
400.709;   22.190; -359.281; -333.493
401.000;   41.517; -268.291; -309.476
401.290;  114.321;  225.698;  115.545
401.581;   67.145; -166.286; -228.485
401.872;   20.663; -542.298; -486.462
402.163;   48.388; -313.296; -252.467
402.454;   86.263; -123.291; -163.475
402.744;   35.577; -844.297; -813.465
403.035;  236.365; -226.293;  -86.471
403.326;  289.055; -366.292; -384.474
403.617;  290.457;  204.701;  165.539
403.907;  345.122; -593.283; -679.490
404.198; 3505.066; -545.307; -599.446
404.489; 9034.803; -618.283; -588.491
404.779; 2526.275; -618.302; -660.456
405.070;  260.274;  -67.304; -174.451
405.360;  484.467; -259.293; -238.472
405.651;  452.988;  125.699;   98.542
405.942;  159.389;  209.714;  127.516
406.232;   69.032; -432.285; -413.487
406.523;  245.159;  641.706;  758.530
406.813;   41.667; -579.286; -644.484
407.104;  192.124;  261.708;  144.527
407.394;   50.283; -604.299; -591.462
407.685;  134.380;  336.715;  222.513
407.975;   66.452; -400.283; -382.490
408.265;  108.706; -134.289; -190.478
408.556;   54.310; -472.291; -459.475
408.846;  179.010;  474.706;  429.530
409.137;   96.541;   -1.288; -216.480
409.427;   64.331; -193.285; -271.487
409.717;   35.653; -776.273; -692.508
410.007;  134.773;    4.715; -170.486
410.298;   96.475; -360.295; -342.469
410.588;   80.003; -495.285; -510.486
410.878;   41.079; -792.287; -873.482
411.168;  112.441; -481.298; -478.463
411.459;  129.520; -295.283; -242.489
411.749;   91.883; -609.292; -507.474
412.039;   82.839; -755.289; -386.480
412.329;  213.328;   40.722;  132.501
412.619;  202.592;  -62.286; -148.485
412.909;  359.034;  639.711;  594.521
413.199;  295.605; -130.280; -251.495
413.490;  382.448;  521.710;  352.523
413.780;  203.760;-1013.279; -913.496
414.070;  386.776;  -46.276;  235.497
414.360;  379.673; -729.278; -666.498
414.650;  538.974; -726.288; -688.482
414.940;  722.434; -538.280; -441.496
415.230; 1214.671;   50.712;   74.519
415.520; 8365.365;  155.730;   66.486
415.809;33791.064; -305.281; -125.493
416.099;25569.539; -388.277; -229.501
416.389; 7676.190;  435.726;  236.494
416.679; 4428.515;   91.738;   85.473
416.969;  765.785; -527.287; -503.483
417.259;  619.112;  341.721;  171.503
417.549;  878.463;  522.718;  318.508
417.838; 2361.810; -205.268; -147.518
418.128; 8177.379;  650.710;  492.522
418.418; 6722.310; -491.272; -579.509
418.708; 4462.040;    9.726;  -48.506
418.997;17426.635; -474.275; -480.505
419.287;17897.998; -733.273; -790.507
419.577;17539.094; -160.283; -123.489
419.866;56312.561; -588.277; -498.501
420.156;54666.110; -242.270;  -55.513
420.446; 9112.131; -112.263;  -26.526
420.735;  867.928; -376.271; -446.512
421.025;  888.997; 1830.722;  315.502
421.314;  540.676; -203.271; -226.512
421.604;  672.752;   89.732;  233.484
421.893;  408.371; -705.271; -602.511
422.183;  273.307; -487.263; -461.526
422.472;  392.073;  -36.271; -107.511
422.762;  383.207; -416.266; -379.521
423.051;  252.476; -916.276; -916.503
423.341;  302.950; -491.273; -439.507
423.630;  408.214; -121.265;   15.477
423.919;  423.584;   58.725;   49.495
424.209;  480.388;  -31.263;   56.473
424.498;  635.332;   68.732;  161.483
424.787; 1429.115; -535.267; -601.518
425.077; 4240.737;   34.735;   29.478
425.366; 4733.170; -734.262; -744.528
425.655;13548.401;  639.727;  259.493
425.945;34724.125; -313.247; -268.554
426.234;18427.797;  117.741;  300.467
426.523; 7181.328;  -86.259; -350.534
426.812; 9733.002;  107.734;  159.480
427.101;14776.197; -127.269; -323.515
427.390;17327.365;  -55.270;  -86.514
427.680; 2519.702; -624.257; -411.538
427.969;  487.590; -330.255; -301.540
428.258;  349.317; -385.257; -477.536
428.547;  508.865;  449.728;  397.490
428.836;  718.309; -421.253; -398.543
429.125;  999.880; -199.259;  -72.534
429.414;  771.537; -330.251; -294.548
429.703; 4448.937; -231.251; -213.548
429.992;13777.891; -938.250; -828.549
430.281; 8774.798; -397.264; -331.524
430.570;  589.100;  -21.252;   32.454
430.859;  416.053;  279.741;  352.466
431.148;  385.770;  636.752;  631.446
431.437;  313.499;  391.748;  367.454
431.725;  210.294; -544.257; -481.536
432.014;  212.368; -845.253; -756.545
432.303;  411.060; -149.239; -105.569
432.592;  552.306; -460.263; -178.525
432.881; 1396.246; -601.248; -437.554
433.169; 9486.566; -343.255;  -61.540
433.458;19185.901;  445.765;  540.424
433.747; 7514.227; -397.261; -289.529
434.036;  923.382; -275.242; -280.564
434.324; 2932.056; -395.249; -379.551
434.613; 5226.449;   40.757;  159.437
434.902; 1485.424;  333.760;  439.433
435.190;  286.809;   75.761;  295.431
435.479;  153.977;  -52.245;   83.441
435.767;   99.262; -411.244; -427.561
436.056;  208.576; -340.242; -294.563
436.345;  469.376; -372.240; -223.568
436.633;  446.650;   60.750;  383.450
436.922;  196.279;  208.760;  414.432
437.210;  204.889; -194.236;    1.426
437.499;  452.049; -583.235; -432.576
437.787;  545.089; -339.236;  -10.574
438.075;  180.891;   56.761;  162.430
438.364;  192.019;  -44.238;  250.429
438.652;  113.869; -286.226; -138.592
438.941;   73.676;    3.770;  269.415
439.229;  -10.003; -665.252; -466.545
439.517;   38.884; -160.234;  -85.577
439.806;   -1.437; -501.225; -290.595
440.094;  139.793;  377.766;  650.421
440.382;   23.948; -653.233; -302.580
440.670;   45.898; -361.235; -285.576
440.959;    9.109; -347.223; -170.599
441.247;   43.090; -151.229; -109.587
441.535;   28.207; -266.235;   31.423
441.823;   -2.135; -497.234; -305.578
442.111;  149.545;  173.771;  327.412
442.400;  290.401; -628.245; -335.559
442.688;  500.168; -111.234; -620.579
442.976;  255.240; -786.213; -450.617
443.264;   46.496; -324.224; -364.597
443.552;   62.621; -258.226;   51.408
443.840;  144.305;  602.765;  876.423
444.128;   92.597;  265.767;  269.420
444.416;   -5.702; -694.228; -312.588
444.704;   18.570; -465.219;  -92.605
444.992;   60.624;   -0.226;  240.407
445.280;   23.202; -517.230;  -94.585
445.568;   -1.781; -694.212; -396.618
445.856;  142.551; -174.221;  357.398
446.143;  208.590;  -54.220;   -7.604
446.431;  232.428;  -25.228;  625.411
446.719;  170.393;  489.783;  675.391
447.007;  149.695;  481.769;  705.416
447.295;  167.731;  597.777;  871.402
447.583;   82.912; -464.229;  -34.587
447.870;   99.097; -434.221; -202.601
448.158;  229.126; -104.230;  129.415
448.446;  148.967; -800.219; -338.604
448.733;  133.123;   13.776;  269.403
449.021;  186.743;   60.788;  341.382
449.309;  159.836; -296.210;  208.379
449.596;  227.063;  128.783;   59.392
449.884;  196.614; -571.222; -325.600
450.172;  271.734; -756.227; -406.590
450.459;  621.119;  645.786;  780.387
450.747; 3755.987; -411.218; -147.608
451.034;12104.279;  493.772;  889.411
451.322; 9790.273; -413.214; -170.614
451.609;  717.600;  292.777;  508.403
451.897;  874.662; -550.203; -183.634
452.184; 2705.956; -622.223; -400.598
452.472; 2389.512;   97.792;  269.375
452.759;  348.242;  512.781;  864.395
453.047;   85.590; -407.212; -125.617
453.334;   41.452; -732.219; -216.606
453.621;   33.976; -438.214; -161.615
453.909;   95.727;   13.796;  384.368
454.196;  105.132; -299.199; -123.641
454.483;  218.577;  317.798;  540.364
454.771;  125.641; -215.208;  196.374
455.058;   57.045; -316.207;  102.374
455.345;  157.773;   71.807;  344.347
455.632;  127.773; -128.207;  235.373
455.919;   60.084;  -82.196;  182.354
456.207;  -53.538; -774.198; -450.642
456.494;    0.392; -475.200;  -66.639
456.781;   13.822; -399.202; -198.635
457.068;   44.531; -253.206;  -29.628
457.355;   -7.792; -698.206; -401.629
457.642;    8.414; -552.205; -290.630
457.929;   18.812; -778.194; -417.651
458.216;  115.716; -575.212; -354.617
458.503;  377.468; -173.193;  -19.652
458.790;  418.188; -864.208; -630.625
459.077;  364.953;  -77.202;  110.364
459.364; 1178.954; -350.195; -210.649
459.651; 2525.004;  -46.206;  220.372
459.938; 1135.551; -864.209; -665.623
460.225;  114.607;  132.799;  276.363
460.512;  -40.120; -836.197; -688.645
460.799;  124.160;  -32.218;  320.392
461.086;   83.222; -370.200; -251.640
461.372;    8.687; -509.198; -279.642
461.659;   64.410; -165.196;  108.354
461.946;   30.166; -445.193;  -54.651
462.233;  195.645;  842.800;  888.361
462.519;  490.866; -814.201; -464.639
462.806; 1505.356; -768.197; -497.645
463.093; 1284.616; -445.191;  -66.656
463.380;   -4.285; -920.186; -824.664
463.666;   54.383; -259.197;  -18.646
463.953;  123.097; -406.195; -243.648
464.239;  299.822; -173.195;  -77.648
464.526;  399.910;  413.806;  743.350
464.813;  329.955; -565.190; -304.658
465.099;  332.117;  606.807;  607.348
465.386;  276.122;  903.807;  921.348
465.672;   13.656; -694.197; -522.645
465.959;   34.451; -598.188; -520.662
466.245;    0.672; -468.193; -359.652
466.532;   33.995; -109.195;   63.352
466.818;   21.340; -357.186; -216.664
467.104;  -25.837; -488.182; -415.672
467.391;  -20.468; -628.189; -459.658
467.677;   14.444; -289.186;    9.335
467.964;   -6.035; -682.189; -471.660
468.250;   56.297; -331.186; -160.665
468.536;   73.158;   90.811;  180.341
468.822;  -21.613; -821.184; -574.668
469.109;  129.635;  351.827;  471.311
469.395;  183.484;  729.808;  787.346
469.681;  232.737;   46.811;  156.341
469.967; 1780.568; -699.188; -382.660
470.254; 3974.977; -494.188; -306.662
470.540; 2482.108; -601.196; -476.646
470.826;  380.476; -488.181; -397.675
471.112;  431.241;  288.816;  113.331
471.398;   83.871; -253.183;  -58.670
471.684;   27.660; -626.177; -447.680
471.970;   21.156; -918.180; -981.675
472.256;   47.832; -521.192; -441.654
472.542;   18.173; -499.171; -434.691
472.828;   18.683; -743.182; -607.672
473.114;   33.150; -380.166; -283.700
473.400;   35.055; -504.175; -293.684
473.686;   39.308; -452.166; -400.701
473.972;   48.298; -230.174; -131.687
474.258;  -14.665; -925.173; -843.689
474.544;  320.975; -183.178;   -2.679
474.830;  499.682;  -65.175;   45.316
475.116;  830.656; -123.190; -196.658
475.401; 1113.034; -558.180; -467.676
475.687;  289.982; -725.180; -718.676
475.973;  -14.832; -673.181; -770.673
476.259;  227.435;  736.825;  764.315
476.544;  545.920; -539.176; -437.682
476.830; 1389.668; -398.172; -322.690
477.116; 1232.843; -430.177; -336.682
477.401;  164.258;  346.820;  358.324
477.687;  -11.595; -289.175; -405.684
477.973;   42.722;   21.819;   28.326
478.258;   -6.768; -448.163; -348.706
478.544;   46.379;   21.815;   61.334
478.829;  -61.720; -818.171; -738.692
479.115;  -42.332; -749.172; -651.690
479.401;  -13.058; -444.174; -449.686
479.686;   59.207; -253.180;  -74.676
479.972;   -3.844; -886.178; -776.680
480.257;   49.852; -258.166;  -65.700
480.542;   22.984; -614.170; -469.693
480.828;  234.828; 1288.824; 1392.317
481.113;  -23.775; -464.176; -426.683
481.399;  -11.764; -236.161; -202.711
481.684;  -42.899; -620.166; -462.700
481.969;   19.452; -158.159;  -73.713
482.255;  -12.928; -439.169; -285.695
482.540;   12.257; -569.178; -441.680
482.825;   31.159; -395.187; -404.663
483.110;  138.301;  -85.169; -105.696
483.396;  366.303; -840.157; -652.718
483.681;  755.423;  543.826;  730.313
483.966;  292.520; -696.160; -700.712
484.251;   -0.228; -404.174; -310.687
484.536;    1.639; -356.165; -378.703
484.822;   35.475; -205.173; -218.687
485.107;   -8.277; -599.152; -502.726
485.392;  123.571;  662.836;  541.296
485.677;   75.513;  354.832;  163.302
485.962;  109.900;  160.843;  270.283
486.247;  104.967;  -14.162;   -8.707
486.532;   61.803; -178.166; -325.701
486.817;  176.504;  381.839;  431.291
487.102;  148.853; -453.154; -514.722
487.387; 1083.805; -637.156; -652.718
487.672; 1972.252; -154.164;  -38.705
487.957; 1224.162; -394.160; -286.711
488.241;  338.593; -290.150; -314.729
488.526; 1203.050; -280.152; -148.726
488.811; 2000.634; -881.177; -818.680
489.096; 1400.806; -666.154; -702.723
489.381;  707.296;    3.847;  162.275
489.666;  657.760; -428.161; -510.710
489.950;  193.135;  558.846;  627.277
490.235;  -29.338; -480.151; -458.728
490.520;  -37.516; -756.161; -723.710
490.804;  -39.793; -827.156; -736.719
491.089;    7.562; -469.149; -299.732
491.374;   38.925; -132.164;  -75.704
491.658;   -5.549; -817.147; -717.735
491.943;  118.505; -657.152; -609.727
492.227;  224.123; -178.155;  -38.721
492.512;   41.499; -294.157; -341.717
492.797;  -56.520; -713.149; -716.731
493.081;  -51.271; -588.147; -598.735
493.366;  -27.564; -751.161; -635.711
493.650;  218.743;  831.859;  917.254
493.935;   81.050; -648.147; -447.734
494.219;  -17.047; -778.142; -687.743
494.503;  -26.876; -585.150; -487.730
494.788;   52.489;   46.842;   74.285
495.072;  108.045;  184.850;  434.271
495.356;  242.566; -463.148; -343.733
495.641;  521.937; -812.146; -736.736
495.925;  456.238; -976.156; -903.719
496.209;   23.987; -599.149; -451.732
496.494;  -35.372; -763.142; -544.744
496.778;    6.428; -364.154; -360.722
497.062;  -38.412; -819.156; -627.719
497.346;    3.165; -869.160; -640.711
497.631;  169.445;  580.852;  560.266
497.915;   80.000;  -64.145;  175.261
498.199;   35.453; -341.157; -277.718
498.483;   44.023; -562.152; -508.725
498.767;  271.046;  301.850;  300.271
499.051;  264.159; -126.149; -100.732
499.335;   78.082; -693.149; -739.731
499.619;  -34.011; -381.129; -423.767
499.903;   14.571; -272.155;  -65.721
500.187;   47.037; -588.153; -316.724
500.471;   17.804; -796.152; -595.727
500.755;   98.110;   62.839;  -96.710
501.039;    8.447; -270.155; -357.721
501.323;   68.320;  -21.141;  264.254
501.607;   15.833; -447.163; -503.706
501.891;   10.404; -607.156; -512.718
502.174;  -27.237; -726.144; -585.741
502.458;   74.809;   89.849;  370.273
502.742;   50.124; -180.138; -191.751
503.026;  187.550; -412.147; -254.734
503.310;  328.125; -437.159; -375.713
503.593;  207.202; -464.147; -325.735
503.877;  129.222; -232.133; -156.760
504.161;  168.215;    2.847;  -50.724
504.444;  185.117; -841.158; -710.716
504.728;  764.524; -487.164; -522.704
505.012; 1101.293; -257.150;  -76.729
505.295;  803.961; -417.161; -212.711
505.579;  825.212; -256.156; -496.719
505.862; 1279.770; -555.145; -333.738
506.146; 1268.478; -681.159; -758.714
506.429;  578.104;  568.841;  461.286
506.713;  135.739; -732.151; -667.728
506.996;  489.802;   90.846;  295.278
507.280;  553.969; -633.165; -474.703
507.563;  401.245; -469.155; -261.721
507.847;  178.563; -423.153; -112.724
508.130;  181.762; -665.161; -456.711
508.413;  235.997; -758.167; -577.700
508.697;  400.822; -151.167;   12.300
508.980;  269.789; -422.153; -312.724
509.263;   15.115; -466.155; -450.720
509.547;   56.192; -124.150;   82.271
509.830;   64.164; -172.160;  140.289
510.113;   98.062;  128.844;  298.281
510.396;   50.946; -530.152; -300.725
510.680;   30.622; -818.145; -812.738
510.963;  188.533;  184.846;  180.277
511.246;  115.452; -493.150; -357.730
511.529;  303.478; -482.145;  -83.739
511.812;  612.618; -250.134;   10.241
512.095;  465.261; -740.151; -396.728
512.378;  107.382; -317.147; -245.736
512.661;   84.308; -703.137; -623.753
512.944;  100.755; -750.142; -637.744
513.227;  103.154; -170.137; -171.752
513.510;   44.988; -479.144; -671.741
513.793;   47.700; -485.140; -435.747
514.076;  151.239;  -43.127;  -39.771
514.359;  166.563; -294.149; -135.732
514.642;  155.809; -442.142; -567.744
514.925; 1144.148;  581.860;  561.253
515.208; 1685.613; -498.134; -443.758
515.491; 1058.030; -276.133; -182.761
515.773;  607.018; -410.143; -337.742
516.056; 3333.790;  249.864;  409.246
516.339; 4309.395; -754.136; -652.755
516.622; 2019.874; -518.150; -488.730
516.904;  556.026;  882.857;  975.257
517.187;  213.328; -730.138; -523.752
517.470;  415.300; -568.143; -510.743
517.752;  705.199; -624.136; -470.756
518.035;  598.288; -708.139; -725.749
518.318;  629.420; -799.136; -744.755
518.600; 4048.509; -300.132; -325.762
518.883; 5549.108;  310.858;   88.256
519.165; 2568.069; -585.138; -426.751
519.448;  440.459;  -61.132;  -19.762
519.730;  209.348; -573.126; -415.773
520.013;  242.400;  588.867;  664.240
520.295;  298.895;  -94.134;  -15.759
520.578;  649.924; -335.131; -305.764
520.860;  875.959; -254.132;   56.238
521.143;  622.151; -763.135; -584.756
521.425;  599.613; -251.125; -279.775
521.707;  990.165; -622.127; -380.771
521.990; 2827.190; -199.127;  167.229
522.272; 3268.602; -116.140;   -4.748
522.554; 1190.268; -237.143; -157.742
522.836;  260.442;  -24.134;   99.241
523.119;  200.723; -496.148; -189.734
523.401;  181.508; -448.130; -314.766
523.683;  169.983; -865.137; -693.753
523.965;  423.175;  408.862;  260.248
524.247;  435.814;   54.878;  170.220
524.529;  322.820; -451.134; -367.759
524.812;  499.135;   -3.130;  191.234
525.094; 1413.975; -773.138; -631.751
525.376; 2199.299; -143.124;   78.223
525.658; 1370.292; -441.136; -339.754
525.940;   85.571; -805.131; -671.764
526.222;   29.521; -188.136;  -88.755
526.504;   63.343; -190.131;   32.237
526.786;   29.898; -960.133; -647.760
527.068;  111.831; -124.123;  -67.778
527.349;   -2.987; -865.137; -774.754
527.631;  128.509; -137.132;   22.238
527.913;  243.789; -664.127; -450.771
528.195;  335.155; -761.125; -639.774
528.477;  383.314;  -93.134;  -30.758
528.759;  269.285; -648.130; -522.766
529.040;  157.704; -569.123; -293.778
529.322;   93.358; -235.125;  -10.774
529.604;   96.312;  -47.130;   93.233
529.886;   46.073; -546.126; -302.773
530.167;   84.103;  232.870;  192.235
530.449;   52.106;    1.853;   63.265
530.731;   91.638; -572.122; -459.779
531.012;  152.838; -513.120; -216.784
531.294;  144.435; -118.116;  -43.792
531.575;  218.938;  290.875;  538.225
531.857;  134.083; -548.135; -266.757
532.138;  123.718; -113.141;   40.254
532.420;  113.103;  294.865;  403.244
532.701;   93.726; -722.133; -751.760
532.983;  193.629;  232.867;  182.239
533.264;   54.770; -243.126;  175.228
533.546;  -47.479; -491.136; -508.755
533.827;   27.321;  173.867;   -1.759
534.109;   13.607; -352.135;  -80.757
534.390;   99.864; -725.132; -582.762
534.671;  313.678; -270.135;  -82.756
534.953;  204.408; -751.123; -611.779
535.234;   61.017; -426.117; -255.789
535.515;  -55.327; -891.119; -735.785
535.796;   21.559; -431.128; -193.770
536.078;  -96.076;-1050.124; -904.777
536.359;    5.584;  -22.123;    3.221
536.640;  -11.318; -480.125; -197.774
536.921;  195.144;  225.871;  143.232
537.202;  544.146;  -87.138;  -16.751
537.483;  688.949;  251.869;  377.236
537.764;  279.478;   17.870;   98.235
538.045;  -21.937; -543.134; -371.758
538.326;  -20.579; -596.129; -447.768
538.607;   76.616; -686.127; -476.771
538.888;  270.127;   98.879;    5.218
539.169;  321.271; -704.122; -535.781
539.450;  427.343;  236.871;   16.233
539.731;  265.132; -361.121; -182.783
540.012;  162.463;  199.880;  412.216
540.293;   88.193;   82.876;  158.224
540.574;    7.184; -895.113; -717.796
540.855;  500.680;  435.879;  377.218
541.136;  681.517;   47.878;  139.220
541.416;  403.461; -161.130; -220.766
541.697;  314.719; -274.131; -170.763
541.978; 1675.955; -270.135; -315.757
542.259; 2106.815; -211.127; -236.771
542.539;  988.502; -191.116; -186.790
542.820;  205.413;  461.875;  480.225
543.101;  134.124;  -52.145;  -77.738
543.381;   49.315; -638.127; -591.771
543.662;  364.412;  159.873; -254.771
543.942;  956.335; -751.127; -830.770
544.223; 1657.769;  193.878;  161.219
544.504; 1105.824; -275.124; -182.777
544.784;  899.748; -592.126; -408.773
545.065; 2524.482;  104.884; -254.791
545.345; 2953.748;  227.881;   14.215
545.626; 1967.883;  -14.113; -108.796
545.906; 1432.952;   77.869;   98.235
546.186;  604.278;   92.874;  -95.773
546.467;  311.827;   99.877;  -95.778
546.747;  511.127;  264.884;  327.210
547.027;  573.547;   91.876;  111.223
547.308;  536.834; -376.127; -530.770
547.588;  577.022;  299.871;  371.232
547.868;  257.553;  458.870;  588.235
548.149;  262.791;  609.885;  593.207
548.429;  240.063; -347.127; -299.771
548.709;  374.787; -645.120; -461.784
548.989;  769.534;   84.882;   88.213
549.269; 3354.332;   10.868;  139.239
549.550; 7834.607;  215.877;  117.222
549.830; 6981.180; -758.111; -556.799
550.110; 1388.989; -468.110; -320.801
550.390; 1338.038; -128.122;  -56.779
550.670; 1915.053; -868.114; -783.795
550.950; 1351.304; -509.121; -471.782
551.230;  253.850;  549.879;  460.218
551.510;   38.878; -381.121; -326.782
551.790;   64.773; -173.109; -127.803
552.070;  345.802;  940.877; 1181.223
552.350;  715.228; -492.119; -377.786
552.630;  952.047;   -2.121;   77.219
552.909;  585.082;  181.884;   73.209
553.189;  391.890;  -49.132;   33.237
553.469;  385.177; -703.119; -514.786
553.749;  384.217; -469.127; -357.772
554.029;  290.572;   33.883;  -24.790
554.308;  265.646; -154.115;  -37.794
554.588;  138.258; -196.128; -204.770
554.868;  152.130; -366.121;  -47.782
555.147;  271.242; -114.115;  -46.793
555.427;  970.435; -260.116; -250.792
555.707; 6287.815; -284.115; -200.793
555.986; 7719.784; -719.111; -538.800
556.266; 3957.225;   23.884;   72.210
556.546;  253.978; -888.121; -675.782
556.825;  436.076; -657.114; -556.794
557.105; 2951.255; -125.128;   17.230
557.384; 3469.456;  122.884;  187.209
557.664; 1339.609; -717.116; -508.792
557.943;  230.705; -557.121; -411.782
558.222;  340.413; -345.118; -344.788
558.502;  427.644; -116.115;  -76.793
558.781;  749.313;  194.885;  499.208
559.061;  698.638; -232.118; -227.788
559.340;  467.844;  302.883;  353.211
559.619; 1176.100;   93.884;  148.210
559.899; 1754.246; -239.117; -266.789
560.178; 1567.493; -778.115; -593.793
560.457; 4865.973; -623.117; -562.790
560.736; 6876.110; -472.111; -482.800
561.015; 4505.977; -500.128; -502.769
561.295;  549.797;  180.893;  215.193
561.574;  442.515;  119.885;  116.207
561.853;  682.553;  274.891;  303.197
562.132;  793.521;  -45.114;  182.206
562.411;  689.398;  396.879;  553.219
562.690;  293.788; -592.115; -458.792
562.969;  185.167;  472.888;  630.203
563.248;  532.395; 2966.878; 2487.219
563.527;  469.084; -290.111; -408.800
563.806;  700.838; -650.127; -521.771
564.085;  718.590; -297.105; -206.810
564.364;  446.725; -594.117; -405.790
564.643;  837.673; -276.121; -223.781
564.922; 3048.971;  221.890;  397.198
565.201; 3153.600; -640.109; -700.803
565.479; 1340.837; -297.115; -219.792
565.758;  574.080; -810.128; -712.770
566.037;  780.177; -155.109; -100.803
566.316;  372.481; -286.116;  -28.791
566.595;   82.090;  -17.115;  -12.793
566.873;  119.912; -166.111;  -79.801
567.152;  -18.834; -490.113; -590.797
567.431;   19.376; -113.116;    6.210
567.709;   53.547; -344.107; -212.807
567.988;  479.100; -810.114; -769.794
568.266;  898.915; -160.115;  -68.793
568.545;  665.171; -644.100; -514.819
568.824;  953.011;  160.885;  356.208
569.102;  988.350; -351.114; -235.794
569.381;  445.860; -492.116; -407.792
569.659;   -1.863; -553.113; -553.796
569.938;  134.468; -743.122; -465.780
570.216;  209.305; -225.109; -225.804
570.494;   35.379; -632.114; -572.795
570.773;   49.578;  202.879;  114.218
571.051;   52.905; -373.123; -357.778
571.330;  131.634; -221.113; -174.796
571.608;   98.393; -181.098; -173.823
571.886;  -27.497; -671.111; -581.799
572.164;  -23.620; -739.121; -621.782
572.443;   -9.880; -562.105; -512.811
572.721;  -17.077; -399.117; -289.790
572.999;    4.740; -280.117; -168.788
573.277;  129.212;  379.894;  620.191
573.555;  488.564;   94.894;   37.190
573.834; 2270.690;  -86.117; -114.788
574.112; 2551.450;  880.893;  811.193
574.390;  805.086; -143.111;  -96.801
574.668;   43.993;  -91.112;  -61.797
574.946;   19.540; -165.106; -187.810
575.224;   36.700;   71.891;  -16.803
575.502;   -8.446; -200.116; -204.791
575.780;  -61.756; -767.112; -829.798
576.058;  245.460; 1589.889; 1004.200
576.336;    1.591; -210.110; -129.801
576.614;  -37.856; -511.112; -340.798
576.891;  151.270; -711.115; -823.794
577.169;  857.340; -158.108; -285.805
577.447;  924.899;  169.893;  202.193
577.725;  366.725;  629.888;  854.201
578.003;   42.622;  -71.112; -371.798
578.280;  160.605; -208.104; -242.812
578.558;  112.919; -450.115; -422.793
578.836;  168.454; -210.114; -145.795
579.114;   85.067; -630.112; -670.797
579.391;   77.992;   -6.117;  -18.789
579.669;  -42.154; -595.114; -704.794
579.947;  287.846; -326.107; -127.806
580.224;  583.095; -692.107; -524.806
580.502;  526.125;  127.893;   76.193
580.779;   47.899;  -42.117;   75.210
581.057;  -37.195; -584.109; -470.804
581.334;  -80.052; -726.102; -695.815
581.612;   44.266;   54.895;  511.190
581.889;   -3.711;  -83.101; -129.818
582.167;  -13.294; -298.099; -190.821
582.444;  -88.818; -845.102; -814.817
582.721;  109.208;  657.899;  715.183
582.999;  110.528; -326.100; -167.821
583.276;  953.510; -812.123; -713.779
583.553; 1231.502; -364.102; -294.816
583.831;  459.601; -607.104; -631.812
584.108;   85.212;  349.892;  174.195
584.385;   53.472; -122.102;  -98.815
584.662;  -36.913; -651.111; -828.801
584.940;   50.661;  204.889;  204.199
585.217;   -8.913;  -73.113; -303.796
585.494;   66.322;   71.890;  118.198
585.771;  328.931; -250.109; -354.804
586.048;  807.461; -196.113;  -76.796
586.325;  523.465; -721.110; -773.801
586.602;  127.631;  230.896;  213.188
586.879;   34.924; -499.100; -580.820
587.156;  113.042; -156.105; -331.810
587.433;   -0.620; -701.102; -667.817
587.710;  111.195;  152.888;  234.202
587.987;  454.623; -264.105; -236.811
588.264; 1157.972;  315.888;  387.202
588.541; 1955.709;  -61.104;   26.187
588.818; 4021.109;   72.892;  171.196
589.095; 3462.653; -163.104; -174.812
589.371;  585.329; -459.109; -414.804
589.648;   76.750; -581.107; -437.807
589.925;   87.955; -517.114; -621.795
590.202;  104.644; -741.112; -607.798
590.478;  148.000; -166.105;  -73.811
590.755;  418.191; -241.108; -132.806
591.032; 3874.143; -741.110; -699.802
591.308; 5440.116; -732.094; -790.831
591.585; 2763.042; -573.110; -560.802
591.862;  323.057;-1056.102; -950.817
592.138;  152.613; -475.108; -474.805
592.415;  259.682; -486.104; -495.813
592.691; 2113.179;  460.896;  518.188
592.968; 2846.070; -208.098; -123.824
593.244; 1397.727; -695.116; -595.790
593.521;  136.982; -105.102;  -42.817
593.797;   46.790; -810.122; -720.780
594.074;  557.735; -611.096; -588.826
594.350;  960.323;  828.905;  729.172
594.626;  487.338; -303.111; -283.801
594.903;  255.733; -643.101; -645.817
595.179;  292.736;  243.896;  418.187
595.455;   31.227; -136.107; -150.807
595.731;   21.863;  -19.103;  -38.814
596.008;  -16.294; -464.111; -434.800
596.284;  100.726; -187.100; -242.820
596.560;  153.823; -501.093; -493.833
596.836;  336.094; -173.105;  -70.810
597.112;  575.364; -582.108; -437.805
597.388;  457.558;  -49.097;  -48.826
597.665;  151.965;  437.887;  530.203
597.941;  -26.141; -572.089; -658.839
598.217;   66.622; -323.110; -293.802
598.493;  427.058;   61.891; -204.804
598.769;  842.970; -175.100;  -50.819
599.045;  528.243; -490.108; -562.806
599.321;  129.150; -193.100; -261.820
599.597;  275.807; -355.109; -476.804
599.872;  749.359;  409.896;  429.187
600.148;  620.009;  -61.097; -172.826
600.424;  476.773;   91.893;  202.193
600.700;  412.876; -170.107; -280.807
600.976;  230.803; -442.097; -464.825
601.252;  434.578; -226.109; -272.803
601.527;  405.985; -833.104; -840.813
601.803;  276.976; -453.105; -404.812
602.079;  294.570; -124.100; -118.819
602.354;  909.685; -620.092; -531.835
602.630; 1328.887; -140.113; -482.796
602.906; 3557.889; -910.101; -863.818
603.181;10639.602; -627.119; -534.786
603.457; 8946.582;   98.903; -278.826
603.733; 1368.858; -605.120; -626.783
604.008; 1466.865; -245.106; -164.810
604.284; 4808.260; -636.101; -580.817
604.559; 4146.049;   -3.112;  -42.799
604.835;  792.594; -163.105; -225.810
605.110;  720.432; -732.099; -892.821
605.385; 1071.002;  224.907;  267.167
605.661; 1082.902; -625.095; -729.829
605.936; 1959.368; -664.108; -737.806
606.211; 1607.071;  -17.103; -170.815
606.487;  362.074; -329.114; -376.794
606.762;  106.478; -791.119; -745.786
607.037;   21.519; -501.105; -433.810
607.313;  -15.756; -589.096; -574.828
607.588;   31.140; -375.106; -137.810
607.863;   98.013;  -28.101; -143.818
608.138;  272.320;  513.890;  516.198
608.413;  110.111; -576.099; -592.822
608.688;  116.088; -203.108; -267.805
608.964;  368.933; -509.106; -218.809
609.239;  431.516; -107.105; -212.810
609.514;  403.600;  281.895;  240.188
609.789; 1060.105; -187.104; -716.812
610.064; 1359.792; -435.096; -609.827
610.339; 1444.604; -855.109; -799.804
610.614; 1986.426; -131.100; -315.820
610.889; 1081.500;  215.895;  107.188
611.163;  125.376; -407.104; -591.812
611.438;  160.925;   81.886; -167.794
611.713;   58.560; -467.101; -499.817
611.988;  122.887; -144.101; -328.818
612.263;   53.323; -771.102; -717.815
612.538;  328.561;  385.887;  251.204
612.812;  382.852; -832.100; -911.820
613.087;  274.417; -358.098; -338.823
613.362;   -8.974; -497.107; -557.807
613.637;   69.666;  261.897;  138.186
613.911;   15.611; -256.092; -345.835
614.186;  244.324; -249.107; -292.807
614.460; 1188.673; -842.081; -758.854
614.735; 1307.311;  -55.087;  -17.843
615.010;  293.924;   43.912;  -82.841
615.284;  355.413;  360.892;  246.195
615.559;  634.734; -792.092; -955.835
615.833;  470.984;  -76.099;  -87.822
616.108;   39.649; -225.090; -390.837
616.382;  207.663;  274.913;  402.156
616.656;  276.549; -241.090; -232.837
616.931;  837.935; -785.099; -700.822
617.205; 1713.260; -973.104; -979.813
617.480; 1580.411;  -91.125;    6.225
617.754;  319.133; -396.125; -128.774
618.028;   84.048; -369.129; -382.768
618.302;  114.661;   73.892;  -25.805
618.577;   -4.382; -371.103; -518.815
618.851;  -33.425; -399.109; -600.803
619.125;  -25.680; -335.134; -378.759
619.399;  -13.814; -244.104; -374.813
619.673;  -24.339; -330.115; -515.792
619.947;  -16.796; -333.114; -448.795
620.222;   11.764; -198.110; -204.801
620.496;   22.180;  -47.121;  -96.782
620.770;   57.195; -187.122;  -93.781
621.044;  293.667;  323.895;  346.190
621.318; 1145.533; -653.120; -614.783
621.592; 1095.531; -430.121; -409.783
621.866;  660.576; -476.112; -572.799
622.140;   74.354; -207.116; -356.791
622.413;  110.631;  138.889;  112.200
622.687;  -13.765; -746.101; -492.817
622.961;   35.461; -130.108; -143.805
623.235;  -10.918; -633.111; -661.800
623.509;  -89.000; -816.105; -848.811
623.783;   31.021;  -12.107;   48.193
624.056;   16.360; -254.120; -280.783
624.330;   89.268;   63.888;   -3.797
624.604;  118.350; -271.116; -355.790
624.877;  124.594;  180.890;   26.198
625.151;  109.447; -249.114; -238.794
625.425;  -18.837; -150.103; -283.814
625.698;  -34.529; -367.119; -374.785
625.972;  -74.853; -799.110; -765.802
626.245;   88.902;  685.884;  484.210
626.519;  -31.410; -426.120; -340.784
626.792;  -14.774; -192.107; -380.807
627.066;  -78.513; -485.122; -662.779
627.339;  -86.083; -736.110; -663.802
627.613;   52.788;  351.880;  148.216
627.886;   81.349;  187.891; -612.803
628.160;   20.533;  312.880; -161.783
628.433;  -83.586; -695.125; -703.775
628.706;  -58.135; -517.120; -615.784
628.979;   36.147;  296.876;  117.223
629.253;  -43.423; -785.119; -833.786
629.526;  621.796; -334.126; -253.772
629.799;  630.031; -641.123; -479.778
630.072;  319.099; -497.128; -516.769
630.346;   17.802;-1115.116;-1080.790
630.619;  759.177; -467.107; -545.808
630.892;  950.332;  709.889;  593.200
631.165;  491.686;  790.896;  679.187
631.438;  -18.878;-1092.112;-1055.798
631.711;   57.809;  453.877;  257.221
631.984;  -17.904; -523.117; -624.789
632.257;  -46.933; -636.117; -681.789
632.530;  -29.804; -412.119; -433.785
632.803;   39.620; -109.115;    7.207
633.076;  -49.123; -360.123; -422.777
633.349;   21.754;  173.872;  121.231
633.622;  -28.830; -187.119; -240.785
633.895;  -93.415; -903.120; -823.783
634.167;  -49.677; -496.126; -525.773
634.440;   16.884;  -19.116; -137.792
634.713;   17.650;  -22.119; -120.786
634.986;   95.517;  593.871;  453.233
635.258;  -67.182; -507.115; -597.793
635.531;  102.537;  742.882; -343.788
635.804;  -31.380; -303.117; -318.789
636.077;  -69.470; -830.116; -852.791
636.349;   45.766; -586.115; -474.793
636.622;  451.420; 1695.874; 1392.228
636.894;  405.815; -474.120; -909.784
637.167;  315.438; -836.127; -789.771
637.439;   66.133; -278.128; -213.770
637.712;  -40.003; -312.126; -293.772
637.984;  -73.394; -635.116; -707.791
638.257;  499.877;  515.877;  488.222
638.529;  897.815; -881.125; -924.776
638.802;  394.024; -508.128; -449.769
639.074;  -92.931; -927.122; -952.781
639.346; -112.040; -942.135; -930.757
639.619;   20.532;  -79.142; -319.744
639.891;    9.312;  -83.122; -168.779
640.163;  -71.661; -689.122; -756.780
640.435;   58.066;  273.878;  103.220
640.708;   25.793;  -72.122; -132.780
640.980;   -5.880; -366.122; -362.781
641.252;  249.573;  -25.121;  -71.781
641.524; 2449.425;  580.879;  573.219
641.796; 2602.277;-1094.121; -907.782
642.068;  485.729; -191.121; -300.782
642.340;  -43.144; -486.121; -566.783
642.613;   56.959;  294.880;  323.217
642.885;  -83.114; -787.120; -878.783
643.157;   -0.687; -810.120; -658.784
643.428;   77.090;  170.880;  218.216
643.700;  -67.133; -498.120; -425.784
643.972;  -40.881;  -16.119; -133.785
644.244;  -71.978; -474.119; -559.785
644.516;  -44.376; -250.119; -114.786
644.788;   55.326;  662.881;  548.214
645.060;  -17.147;  -12.119; -124.786
645.332;  -86.870; -525.118; -535.787
645.603;   34.683;  479.882;  342.213
645.875;  -62.265; -334.118; -369.787
646.147;  152.437; 1487.882; 1242.212
646.418;    9.564; -931.117; -918.788
646.690;  309.866; -714.117; -715.789
646.962;  110.519; -413.117; -451.789
647.233;   -3.254;   15.883;   11.211
647.505;  -90.477; -595.117; -475.790
647.776;   40.200;  328.884;  229.210
648.048;   46.002; -248.116; -418.790
648.320;  -28.821; -752.116; -679.791
648.591; -126.518;-1055.116; -958.791
648.862;  -86.191; -505.116; -577.792
649.134;   32.911;  115.885;  198.208
649.405;   -8.412; -661.115; -618.792
649.677;  -32.160; -475.115; -598.793
649.948;   26.468; -181.115; -296.793
650.219;    6.145;  -37.115; -147.793
650.491;  -77.478; -431.114; -520.794
650.762; -119.476; -705.114; -731.794
651.033;  -60.349; -437.114; -424.795
651.304;  -48.571; -743.114; -728.795
651.576;  -43.519; -680.114; -645.795
651.847;  -48.492; -250.113; -140.796
652.118;  -26.615;  -32.113; -189.796
652.389; -104.488; -639.113; -722.796
652.660;  -19.736; -147.113;  -89.797
652.931; -141.683; -897.112; -871.797
653.202;  -82.881; -382.112; -541.798
653.473;  -53.104; -633.112; -533.798
653.744;  289.923; -595.112; -590.798
654.015;  265.650; -356.112; -303.799
654.286;  -38.347; -642.111; -663.799
654.557;   -3.020; -586.111; -521.799
654.828; -131.293;-1114.111;-1088.800
655.099;  -81.016; -404.111; -291.800
655.370;  -77.039; -427.111; -543.801
655.641; -120.411; -656.110; -714.801
655.911; -106.834; -618.110; -638.801
656.182;   50.218;  437.890;  387.198
656.453;   96.595;  830.890;  746.198
656.724;  -70.728; -466.110; -426.802
656.994;  -66.476; -553.109; -568.803
657.265;  -80.423; -862.109; -873.803
657.536;  -77.471; -500.109; -377.804
657.806;  -84.219; -561.109; -593.804
658.077; -123.767; -866.109; -950.804
658.347;  -73.590; -523.108; -598.805
658.618; -102.912; -646.108; -694.805
658.888;  -12.035;  -41.108;  112.195
659.159;  -70.158; -432.108; -548.806
659.429;   13.969; -292.108; -349.806
659.700;   72.796; -435.107; -390.807
659.970;   32.124; -370.107; -359.807
660.241;   91.151; -754.107; -921.807
660.511;  804.753; -147.107; -174.808
660.781;  190.805; -793.106; -748.808
661.052;  -31.218; -222.106; -381.808
661.322;  -28.466;   21.894;   -9.809
661.592;   13.737;  257.894;  148.191
661.862;  -70.311; -369.106; -382.810
662.133;  -83.134; -551.105; -502.810
662.403; -107.082; -770.105; -676.810
662.673;  -44.230; -256.105; -213.811
662.943;  -91.877; -612.105; -551.811
663.213;   13.550;  -85.105;  -81.811
663.483;  -77.973; -593.104; -568.812
663.753;  -50.421; -194.104; -152.812
664.023;  -12.869;   68.896;  -32.813
664.293;  -47.391; -319.104; -126.813
664.563;  -99.664; -694.104; -648.813
664.833; -107.187; -743.103; -608.814
665.103; -124.635; -730.103; -793.814
665.373;  -95.833; -766.103; -806.814
665.643;  -34.781; -863.103; -918.815
665.913;  107.522; -534.103; -714.815
666.182;  264.324; -685.102; -719.816
666.452;  433.801;  -22.102;  -89.816
666.722;   44.328; -724.102; -784.816
666.992; -113.620; -948.102; -921.817
667.261;  -63.667; -824.102; -808.817
667.531;  275.885;  134.899;   45.183
667.801;  798.662; -440.101; -412.818
668.070;  318.539;  714.899;  697.182
668.340;  -67.509; -883.101; -840.819
668.609;  123.144;  588.900;  301.181
668.879;  -58.929; -490.100; -558.819
669.149;  -47.052; -539.100; -516.820
669.418;  -85.325; -698.100; -726.820
669.688;   10.727; -482.100; -666.820
669.957;  169.254; -423.099; -546.821
670.226;   -2.293; -268.099; -331.821
670.496;  -85.966; -431.099; -635.822
670.765;  -75.489; -418.099; -501.822
671.034; -127.512; -872.099; -828.822
671.304;    1.065;   55.902; -111.823
671.573; -135.957;-1085.098; -957.823
671.842;  168.245; -380.098; -294.823
672.112;  103.547; -692.098; -586.824
672.381;   36.774; -239.098; -214.824
672.650; -119.249;-1005.097;-1021.825
672.919;  -67.096; -631.097; -507.825
673.188;  -73.169; -681.097; -878.825
673.457; -123.142;-1101.097;-1143.826
673.726;  -62.765; -579.096; -646.826
673.995;  -10.938; -533.096; -479.826
674.265;   14.864; -263.096; -333.827
674.534;   40.992; -183.096; -235.827
674.802;   66.694; -618.096; -703.828
675.071; 1496.821; -886.095; -801.828
675.340; 6217.248; -464.095; -339.828
675.609; 2040.125;  103.905;   82.171
675.878;  213.778; -949.095; -893.829
676.147;   72.705;  -26.095;   -8.829
676.416;  157.282; -210.094; -294.830
676.685; 1073.534; 1000.906; -622.830
676.953;  230.561; -603.094; -452.831
677.222;  -10.036; -193.094; -273.831
677.491;  -28.634;  -24.094; -127.831
677.759;   13.543;   11.907;  172.168
678.028;   13.020; -279.093; -222.832
678.297;   12.622;   71.907;  197.168
678.565; -128.851; -898.093; -944.833
678.834;  -33.998; -311.093; -268.833
679.102;  -61.546; -411.092; -391.834
679.371; -115.094; -898.092; -727.834
679.639; -129.567; -797.092; -786.834
679.908; -108.915; -794.092; -724.835
680.176; -140.787; -895.091; -941.835
680.445;  -59.335; -346.091; -352.835
680.713;   -7.458;  -58.091;  -23.836
680.982;  -83.081; -523.091; -525.836
681.250;  -98.029; -578.091; -507.837
681.518;  -84.851; -534.090; -751.837
681.787;   -5.024; -204.090; -167.837
682.055;  -32.872; -490.090; -422.838
682.323; -132.820; -993.090; -992.838
682.591;   70.282; -216.090; -538.838
682.859;  173.034;    9.911;  -35.839
683.128;   30.912;  232.911;  497.161
683.396; -151.586;-1102.089;-1122.840
683.664;  -28.134; -241.089;   21.160
683.932;   14.193;  144.911;  -76.840
684.200;  -57.805; -576.088; -320.841
684.468;  -11.952;  -73.088; -124.841
684.736;  -13.975; -214.088; -175.841
685.004;  -89.673;-1024.088; -982.842
685.272;   11.904; -880.088; -774.842
685.540;  -31.469; -499.087; -557.843
685.808;  -55.316; -651.087; -682.843
686.076;  -72.689; -894.087; -969.843
686.343;  -30.862; -601.087; -815.844
686.611;   91.315; -195.087; -224.844
686.879;  646.317; -530.086; -553.844
687.147; 4950.269; -483.086; -480.845
687.414; 1454.522;  -12.086; -169.845
687.682;   81.874; -658.086; -757.846
687.950;  471.776;  259.915;  263.154
688.217;  105.003; -792.085; -760.846
688.485;   54.480; -632.085; -636.847
688.753;  840.133;  -11.085; -102.847
689.020;  385.610; -820.085; -851.847
689.288;  -68.638; -853.084; -787.848
689.555;  -15.836; -195.084; -148.848
689.823;  -37.784; -241.084; -345.849
690.090;  -67.331; -546.084; -651.849
690.358; -121.279; -877.084; -897.849
690.625;   20.623;  120.917;   45.150
690.892;  -64.075; -403.083; -369.850
691.160;   -3.998;   72.917;  -35.850
691.427;    8.004;  141.917;  130.149
691.694;  -95.943; -855.083; -929.851
691.962; -127.741;-1177.082;-1060.852
692.229;   22.361;  127.918;   56.148
692.496;  127.988;  130.918;  -49.852
692.763;   42.265; -164.082; -201.853
693.031;  -38.057; -739.082; -716.853
693.298;   -5.430; -509.081; -368.853
693.565;  458.072; -155.081; -163.854
693.832; 2005.324;   -5.081;   -9.854
694.099;  275.401; -643.081; -642.855
694.366;  -20.021; -882.081; -896.855
694.633;  -11.669; -920.080; -633.855
694.900;  759.933; 4367.920; -114.856
695.167;  674.960; -214.080; -380.856
695.434;  191.412; -646.080; -623.856
695.701;  251.789;  121.921;  -61.857
695.968;  680.292; -365.079; -361.857
696.234; 1193.594; -415.079; -646.858
696.501;12055.596; -776.079; -614.858
696.768; 6533.598; -554.079; -617.858
697.035;  402.425; -632.078; -667.859
697.302;   80.028; -448.078; -552.859
697.568;   34.930; -458.078; -497.859
697.835;  -20.593; -683.078; -624.860
698.102;  -13.891; -498.078; -407.860
698.368;  103.536;  384.923;  396.139
698.635;   -9.236;  -47.077; -424.861
698.901;    5.441; -240.077; -348.861
699.168;  156.943; -534.077; -456.862
699.435;  127.870;  -72.077;  -13.862
699.701;  -68.103; -868.076; -764.862
699.968;   14.899;  144.924; -441.863
700.234;  -70.223; -783.076; -822.863
700.500;  -49.971; -448.076; -539.864
700.767;   13.806;   -1.075;   26.136
701.033; -100.692;-1015.075; -963.864
701.299;  -24.890; -450.075; -483.865
701.566;  128.938;  950.925;  763.135
701.832;   44.865;  -31.075;  -76.865
702.098;  -58.233;-1054.074;-1034.866
702.365;  -43.106;-1098.074;-1030.866
702.631;   39.246;-1038.074;-1063.867
702.897; 1837.824; -765.074; -676.867
703.163; 3251.376;  348.926;  254.133
703.429;  257.778; -256.073; -273.868
703.695;    8.580; -796.073; -792.868
703.961;   41.182; -214.073; -210.868
704.227;  -44.241; -630.073; -725.869
704.493;  146.862;  613.927;  510.131
704.759;    4.689; -565.072; -540.870
705.025;   71.316; -203.072; -194.870
705.291;   16.568; -666.072; -562.870
705.557;  229.570;  719.928;   34.129
705.823;   68.073; -742.072; -694.871
706.089;  194.125; -307.071; -326.871
706.355;  411.752; -315.071; -244.872
706.620; 6015.279; -776.071; -729.872
706.886; 9707.256; -309.071; -362.873
707.152; 1049.259; -818.070; -973.873
707.418;   42.261;-1153.070;-1186.873
707.683;   36.788; -550.070; -530.874
707.949;  -23.760; -547.070; -578.874
708.215;   12.692; -129.070; -207.874
708.480;    4.719; -520.069; -420.875
708.746;  164.547;   68.931;   28.125
709.011;  -33.076; -578.069; -612.876
709.277;  -62.024; -538.069; -543.876
709.542;  -39.897; -428.069; -387.876
709.808;    7.605;  -59.068;   89.123
710.073;  -59.417; -577.068; -695.877
710.339;   -6.265; -242.068; -228.877
710.604;  150.412; -780.068; -845.878
710.869;  510.614; -277.068; -366.878
711.135;  -46.134; -715.067; -628.879
711.400;  -67.606; -507.067; -608.879
711.665;  -45.779; -404.067; -479.879
711.931;  -73.127; -661.067; -677.880
712.196;  -98.150; -876.067; -954.880
712.461;  189.727; -402.066; -490.880
712.726;  299.804; -727.066; -771.881
712.991;  -47.918; -647.066; -664.881
713.256;  -28.441; -350.066; -332.882
713.521;  -44.589; -417.065; -381.882
713.787;  -41.837; -454.065; -472.882
714.052;  -21.685; -214.065; -400.883
714.317;  -69.032;-1045.065; -981.883
714.581; 1204.895; -374.065; -268.883
714.846; 1865.322; -822.064; -888.884
715.111;  173.049;  261.936;  257.116
715.376;   -6.549;  -86.064; -223.885
715.641;   24.679; -365.064; -367.885
715.906;  477.806;   15.936; -551.885
716.171;  192.683;  221.937;  209.114
716.436;   83.960;  -78.063; -104.886
716.700;  -87.563; -818.063; -692.886
716.965; -113.361; -794.063; -807.887
717.230;  -60.408; -339.063; -392.887
717.494;    2.469;  -40.062; -134.888
717.759;  -70.929; -784.062; -640.888
718.024;   27.723;  269.938;  250.112
718.288;   75.625;  685.938;  395.111
718.553; -132.297; -803.062; -977.889
718.817; -121.095; -883.061; -899.889
719.082;  -24.293; -115.061; -125.890
719.346; -122.116;-1000.061; -947.890
719.611;  -31.889; -300.061; -255.891
719.875;  -80.511; -568.060; -537.891
720.140;  -56.459; -453.060; -603.891
720.404;   81.868; -136.060; -249.892
720.668; 1270.995; -475.060; -411.892
720.933;  551.572;  146.940;  137.108
721.197;  -70.451; -667.059; -600.893
721.461; -102.548; -851.059; -826.893
721.725;   15.504;  -21.059; -250.894
721.990;  -45.169; -284.059; -204.894
722.254;  -25.817;  -26.059; -108.894
722.518;  -50.365; -286.058; -442.895
722.782;  -72.637; -743.058; -594.895
723.046;  162.090;  614.942;  570.105
723.310;   23.392;  374.942;  210.104
723.574;  -91.956; -654.058; -614.896
723.838;  -93.204; -576.057; -642.897
724.102;  -39.827; -226.057; -239.897
724.366; -121.649;-1032.057; -978.897
724.630;  -66.947; -749.057; -571.898
724.894;  -61.295; -722.057; -514.898
725.158;   -4.693;   38.944; -295.898
725.422;  -46.466; -394.056; -327.899
725.685;  -58.838; -441.056; -349.899
725.949;  -65.611; -566.056; -519.900
726.213;  -35.309; -732.056; -811.900
726.477;  338.793;-1020.055; -933.900
726.740;  259.320; -274.055; -104.901
727.004;  448.323; -384.055; -510.901
727.268; 4129.900; -442.055; -400.901
727.531; 1315.027; -961.055; -775.902
727.795;  -11.821; -713.054; -673.902
728.059;  -30.669; -552.054; -557.903
728.322;  -42.317; -841.054; -669.903
728.586;   97.386; -692.054; -701.903
728.849;  -57.987; -695.053; -756.904
729.112;  -92.135; -812.053; -912.904
729.376;  -98.158; -959.053; -905.904
729.639;  -62.681; -536.053; -536.905
729.903;  -90.803; -733.053; -699.905
730.166;  -27.026; -437.052; -399.906
730.429;   -3.324; -317.052; -468.906
730.693;  -47.247; -355.052; -894.906
730.956;  235.430;  810.948;  651.093
731.219; 1028.458; -310.052; -103.907
731.482;  240.535;-1003.051; -894.907
731.745;  252.812; -794.051; -935.908
732.009;   38.589;  -30.051;   50.092
732.272;  -73.334; -904.051; -771.909
732.535;  -22.032; -300.051; -310.909
732.798; -126.879;-1083.050;-1166.909
733.061;  -34.102; -430.050; -456.910
733.324;    9.750;   31.950; -180.910
733.587;   80.802;  290.950;  365.090
733.850;  -46.021; -973.049;-1050.911
734.113;   57.357;   33.951;   32.089
734.376;   38.059; -328.049; -447.912
734.639;  247.136; 1188.951; 1011.088
734.901;  133.088; -180.049; -402.912
735.164;  724.565; -883.048; -837.913
735.427; 2008.068; -166.048; -355.913
735.690;  192.995; -205.048; -234.913
735.952;   34.547; -923.048; -925.914
736.215;   29.574;-1113.048;-1009.914
736.478;  116.026; -771.047; -774.915
736.740;  313.378;   33.953;  129.085
737.003;  939.806; -658.047; -672.915
737.266; 6105.708;  -94.047;   46.084
737.528;  685.010; -682.047; -660.916
737.791;  437.862; -316.046; -327.916
738.053;  963.614;  465.954;  649.083
738.316;12914.692; -162.046; -136.917
738.578;10540.869; -770.046; -736.918
738.841;  624.171; -382.046; -446.918
739.103;  295.773; -875.045; -777.918
739.365;  738.675;   79.955;  -69.919
739.628;   88.278; -884.045; -805.919
739.890;   23.755; -758.045; -710.919
740.152;  -10.143; -692.044; -754.920
740.414;   24.459; -408.044; -359.920
740.677;  -11.564; -785.044; -634.921
740.939;  -17.687; -587.044; -487.921
741.201;  441.691; -432.044; -572.921
741.463;  133.718; -689.043; -745.922
741.725;   45.795;  -21.043; -199.922
741.987;   88.222;  220.957;  116.078
742.249;   70.899; -751.043; -859.923
742.511;  384.352; -703.043; -794.923
742.773;   88.904; -546.042; -546.924
743.035;  163.456;  796.958;  533.076
743.297;    7.458; -963.042;-1013.924
743.559; 1046.935; -278.042; -262.925
743.821;  177.638; -735.042; -744.925
744.083;   45.515;  -44.041; -149.925
744.345;  -58.658; -869.041; -892.926
744.607;   64.794;   75.959;  122.074
744.868;  -13.679; -490.041; -554.927
745.130;  -80.402; -994.041;-1008.927
745.392;   59.351;   -1.040;  -44.927
745.653;   36.628; -411.040; -378.928
745.915;  197.780;  896.960;  631.072
746.177;   95.432;   35.960;  -43.928
746.438;   35.984; -428.040; -543.929
746.700;   12.662; -947.039; -988.929
746.961;   68.389; -659.039; -740.930
747.223;  217.591; -190.039;  -74.930
747.484;  169.743; -391.039; -471.930
747.746;  230.595;  -23.038; -106.931
748.007;  218.748; -647.038; -689.931
748.269;  459.325; -468.038; -440.931
748.530;  782.552; -852.038; -638.932
748.791;  426.229; -354.038; -420.932
749.053;  609.081;  286.963;  163.067
749.314;  701.058; -236.037; -169.933
749.575;  808.661; -945.037; -905.933
749.836; 1223.038; -217.037;   86.066
750.098; 3156.990;  -60.037;  -21.934
750.359;49938.392;  414.964;  555.066
750.620;14970.344; -121.036; -220.935
750.881; 1509.597; -585.036; -513.935
751.142; 1934.649; -950.036; -938.936
751.403;21201.151; -789.036; -705.936
751.664;11006.878;-1034.035; -999.936
751.925;  722.930; -175.035; -262.937
752.186;  422.308; -298.035; -278.937
752.447;  233.235; -590.035; -445.937
752.708;  129.812; -532.035; -648.938
752.969;   84.264; -566.034; -576.938
753.230;   69.391; -777.034; -672.939
753.491;   50.768; -650.034; -631.939
753.751;  109.371;  109.966;   19.061
754.012;  133.098;  258.967;  181.060
754.273;  123.875; -174.033;  -71.940
754.534;   73.352; -487.033; -580.940
754.794;  -51.871; -926.033; -911.941
755.055;  170.132; 1051.967;  881.059
755.316;    2.059; -700.032; -566.942
755.576;   17.736; -606.032; -576.942
755.837;   -7.787; -527.032; -695.942
756.097;  -16.735; -530.032; -564.943
756.358;  -31.457; -725.032; -770.943
756.618;   -7.355; -705.031; -641.943
756.879;   46.447; -254.031; -349.944
757.139;  -86.001;-1098.031;-1116.944
757.400;  -20.924; -538.031; -553.945
757.660;   -2.022; -365.031; -401.945
757.920;   47.056; -266.030; -228.945
758.181;   14.458; -468.030; -351.946
758.441;  -62.115; -870.030; -809.946
758.701;  -16.238; -308.030; -215.946
758.961;   -7.486; -220.030; -278.947
759.222;  -18.533; -574.029; -502.947
759.482;  -60.381; -683.029; -723.948
759.742;  -64.679; -706.029; -547.948
760.002;   26.823;  -83.029; -143.948
760.262;   38.800;   50.972;  182.051
760.522;  -34.597; -498.028; -574.949
760.782;  -40.370; -738.028; -612.949
761.042;  -11.418; -618.028; -573.950
761.302;   64.134;   55.972;  -18.950
761.562;   58.011; -164.027; -154.951
761.822;  134.238; -710.027; -551.951
762.082;   -2.809;-1104.027;-1093.951
762.342;   92.268; -328.027; -403.952
762.601;   94.020; -567.027; -506.952
762.861;  491.347; -281.026; -207.952
763.121;  405.274; -406.026; -411.953
763.381; 6779.927; -499.026; -485.953
763.640; 8896.004; -139.026; -307.954
763.900;  377.381; -242.026; -203.954
764.160;   93.358; -458.025; -491.954
764.419;    8.310; -726.025; -782.955
764.679;  -62.137; -795.025; -726.955
764.939;   -7.110; -124.025; -210.955
765.198;  -59.733; -608.025; -563.956
765.458;  -74.581; -710.024; -612.956
765.717;  -74.979; -454.024; -590.957
765.976;  -35.902; -428.024; -411.957
766.236;  -56.349; -475.024; -610.957
766.495;   17.878;  260.977;   73.042
766.755;  -43.345;-1090.023; -987.958
767.014;   60.357; -594.023; -665.958
767.273;  -31.191; -373.023; -397.959
767.533;  -31.063; -228.023; -307.959
767.792;  -12.261; -151.022; -188.960
768.051;  -51.559; -228.022; -276.960
768.310;  -67.782; -546.022; -650.960
768.569;   16.545; -161.022;    4.039
768.828;  -17.402; -285.022; -363.961
769.088;  -88.450;-1050.021; -942.961
769.347;  -55.848; -755.021; -599.962
769.606;  -69.796; -876.021; -857.962
769.865;  -94.169;-1016.021;-1033.963
770.124;   10.408; -411.021; -336.963
770.383;  -17.714; -778.020; -910.963
770.641;   29.188; -398.020; -400.964
770.900;  -47.035; -953.020; -846.964
771.159;  -15.183; -851.020; -951.964
771.418;    8.444; -917.020; -779.965
771.677;  143.247; -224.019; -293.965
771.936;  178.699; -794.019; -865.966
772.194; 2026.226; -465.019; -437.966
772.453;12664.028; -213.019; -391.966
772.712;  954.880;  416.982;  329.033
772.970;  147.408;   32.982;   63.033
773.229;   97.610;  -22.018;  102.033
773.488;  -59.938; -814.018; -770.968
773.746;   60.714;  296.982;  335.032
774.005;   13.966;  190.983;  -22.969
774.263;   13.193;  243.983;  177.031
774.522;  -35.504; -422.017; -548.969
774.780;  -57.927; -484.017; -417.970
775.039;  -74.350; -551.017; -531.970
775.297;  -12.448; -135.016; -351.970
775.555;  -95.771; -489.016; -612.971
775.814; -100.443; -618.016; -570.971
776.072; -117.216; -749.016; -740.971
776.330;  -90.639; -630.016; -520.972
776.589; -113.337; -703.015; -721.972
776.847; -103.360; -645.015; -624.973
777.105; -148.132;-1016.015;-1032.973
777.363;  -76.005; -459.015; -454.973
777.621; -130.003; -660.015; -717.974
777.879;  -17.451;  -42.014;   32.026
778.138;  -89.649; -554.014; -717.974
778.396;  -91.247; -585.014; -526.975
778.654; -147.944;-1015.014; -970.975
778.912;  -57.992; -269.014; -371.976
779.170; -133.940; -880.013; -803.976
779.427; -130.013; -922.013; -897.976
779.685; -121.861; -880.013; -832.977
779.943;  -50.583; -654.013; -593.977
780.201; -147.431; -964.012; -883.978
780.459; -100.454; -651.012; -610.978
780.717;  -69.502; -440.012; -390.978
780.974;  -87.050; -449.012; -490.979
781.232;  -64.647; -358.012; -338.979
781.490;  -56.545; -551.011; -472.979
781.747;  -84.118; -555.011; -476.980
782.005;   17.434;  462.989;  254.020
782.263; -162.989; -542.011;-1004.981
782.520;  -71.337; -326.011; -501.981
782.778; -152.584;-1013.010;-1051.981
783.035; -161.807; -962.010; -938.982
783.293;  -57.080; -248.010; -206.982
783.550;  -54.103; -134.010; -198.982
783.808; -124.026; -764.010; -776.983
784.065; -143.823; -745.009; -874.983
784.322;  -51.921;   25.991;  -86.984
784.580; -135.269; -915.009; -771.984
784.837;  -73.517; -392.009; -466.984
785.094; -123.390; -783.009; -762.985
785.352;  -55.637; -304.008; -404.985
785.609;  -63.810; -934.008; -839.985
785.866;  -63.233; -345.008; -401.986
786.123;  -30.356; -639.008; -583.986
786.380;  -71.929; -665.008; -604.987
786.637;  -25.677; -225.007; -380.987
786.895;   36.051; -456.007; -543.987
787.152;  -32.697; -135.007; -267.988
787.409;  -40.370; -123.007; -225.988
787.666;  -71.318; -299.006; -378.988
787.923; -104.441; -616.006; -695.989
788.179;  -95.063; -551.006; -584.989
788.436;  -95.261; -585.006; -585.990
788.693;  -22.109;  -92.006;  -87.990
788.950;  215.418; -125.005; -112.990
789.207;  435.645; -381.005; -372.991
789.464;  -35.402; -161.005; -301.991
789.720;   10.375;  150.995;  110.009
789.977; -147.148;-1003.005; -671.992
790.234;  -30.421;   44.996;  -66.992
790.490; -144.569; -884.004;-1031.993
790.747;    3.808;  -85.004;   22.007
791.004;   14.861; -426.004; -348.993
791.260;  -62.512; -430.004; -560.994
791.517;  -78.060; -843.003; -788.994
791.773;  -20.983; -379.003; -342.994
792.030;  -81.481; -596.003; -660.995
792.286;  -81.953; -686.003; -636.995
792.543;  -11.451;  -74.002; -159.995
792.799;  -40.124; -584.002; -382.996
793.055; -150.397;-1179.002;-1210.996
793.312;  -63.770; -827.002; -816.997
793.568;  -50.742; -746.002; -599.997
793.824;   42.960; -226.001; -284.997
794.081;   28.062; -447.001; -508.998
794.337;   85.689; -664.001; -561.998
794.593; 1165.441; -319.001; -271.999
794.849; 7489.168; -746.001; -772.999
795.105;  447.971; -270.000; -261.999
795.361;   30.123; -490.000; -457.000
795.617;  -40.475; -875.000; -945.000
795.873;  -31.000; -360.000; -407.000
796.129;  -18.475; -368.000; -306.000
796.385;  -11.125; -124.000; -156.000
796.641;   65.300;  412.000;  550.000
796.897;  -75.475; -666.000; -635.000
797.153;   70.100;  453.000;  357.000
797.409;  -86.975; -785.000; -868.000
797.665;  -55.250; -625.000; -732.000
797.921;  -47.425; -775.000; -762.000
798.176;  -25.900; -744.000; -747.000
798.432;  -16.475; -824.000; -596.000
798.688;  -63.325;-1174.000;-1078.000
798.943;  114.900; -165.000; -147.000
799.199;   35.850;-1005.000; -959.000
799.455;  272.675;  369.000;  316.000
799.710;  170.450; -813.000; -380.000
799.966;  374.150; -162.000; -160.000
800.221;  575.650; -638.000; -721.000
800.477;11222.125; -743.000; -710.000
800.732;12451.850; -773.000; -800.000
800.988;  751.600;  205.000;  -19.000
801.243; 1468.575; -454.000; -344.000
801.498; 7839.050; -814.000; -739.000
801.754;  527.425; -289.000; -163.000
802.009;   97.375; -257.000; -335.000
802.264;  -30.275; -967.000;-1033.000
802.520;   29.775;  222.000;   -3.000
802.775;  -36.550; -524.000; -359.000
803.030;   66.900;  395.000;  356.000
803.285; -104.550; -840.000; -903.000
803.540;  -29.200; -686.000; -699.000
803.795;    0.150; -648.000; -583.000
804.051;  -16.400; -279.000; -346.000
804.306;   32.175;  168.000;  128.000
804.561;  200.725;  451.000;  362.000
804.816;  162.600;  714.000;  861.000
805.071;   20.425; -185.000; -280.000
805.325;  349.225; -257.000; -427.000
805.580;  -65.475; -841.000; -877.000
805.835;  -13.300; -204.000; -297.000
806.090;  -57.900; -760.000; -676.000
806.345;  -10.375; -344.000; -264.000
806.600;   -5.125; -549.000; -632.000
806.854;    1.125; -408.000; -538.000
807.109;    9.325; -493.000; -577.000
807.364;   16.000; -407.000; -328.000
807.618;   15.175; -415.000; -381.000
807.873;  109.000; -470.000; -494.000
808.128;  150.475; -257.000; -518.000
808.382;  152.300; -224.000; -332.000
808.637;  107.200; -440.000; -511.000
808.891;  217.900; -257.000; -180.000
809.146;  149.725; -902.000; -794.000
809.400;  338.925; -848.000; -923.000
809.654;  435.275; -779.000; -551.000
809.909;  603.550; -841.000; -927.000
810.163; 7188.750; -813.000; -651.000
810.418;23722.125; -940.000; -861.000
810.672; 1409.075; -685.000; -690.000
810.926;  753.025; -993.000; -973.000
811.180; 1263.600; -439.000; -372.000
811.434;26776.100;  240.000;  135.000
811.689;13875.000; -231.000; -365.000
811.943;  730.075; -936.000; -953.000
812.197;  335.300; -893.000; -671.000
812.451;  136.500; -379.000; -514.000
812.705;   -0.575; -809.000; -619.000
812.959;    5.600; -263.000; -388.000
813.213;    0.275; -283.000; -209.000
813.467;   73.700;  470.000;  253.000
813.721;  -75.900; -764.000; -792.000
813.975; -101.100; -826.000; -877.000
814.229;   54.375;  430.000;  353.000
814.482;  -58.150; -517.000; -566.000
814.736; -102.950; -766.000; -744.000
814.990; -117.750; -779.000; -872.000
815.244;  -38.600; -228.000; -285.000
815.497;  -88.050; -636.000; -601.000
815.751;   -7.700; -141.000;   82.000
816.005;  -77.725; -470.000; -586.000
816.258;  -55.050; -510.000; -363.000
816.512; -102.050; -693.000; -610.000
816.766;    8.000;  121.000;  157.000
817.019;   27.950;  148.000;  149.000
817.273;  -85.650;-1000.000; -802.000
817.526;  -24.100; -206.000; -173.000
817.779;   10.775;-1049.000; -960.000
818.033;  -15.625; -693.000; -807.000
818.286; -114.175; -725.000; -792.000
818.540;  -78.275; -403.000; -403.000
818.793;  -71.200; -402.000; -489.000
819.046;  -96.650; -582.000; -520.000
819.299;  -36.375; -157.000; -166.000
819.553; -111.450; -552.000; -592.000
819.806; -143.150;-1016.000; -838.000
820.059;  -52.875; -334.000; -354.000
820.312;   42.625;  152.000;  185.000
820.565;   -0.600;  110.000;  -27.000
820.818;  -35.725;  -59.000; -173.000
821.071; -152.025;-1041.000; -957.000
821.324;  -95.975; -536.000; -540.000
821.577;  -98.000; -457.000; -483.000
821.830;  -62.925; -270.000; -172.000
822.083; -109.925; -733.000; -288.000
822.336;  -55.900; -261.000; -167.000
822.589; -125.175; -805.000; -688.000
822.842; -131.175; -875.000; -770.000
823.094; -162.025;-1076.000;-1114.000
823.347; -117.500; -925.000; -729.000
823.600;   21.050;  402.000;  187.000
823.853;  -32.450; -311.000; -267.000
824.105;  -63.425; -331.000; -575.000
824.358;  -89.500; -617.000; -716.000
824.611;   52.350;  234.000;   40.000
824.863;  -16.425; -612.000; -591.000
825.116;   78.725;  -33.000;   27.000
825.368;  149.425; -366.000; -372.000
825.621;  245.775; -186.000; -240.000
825.873;  147.800; -704.000; -737.000
826.126;  678.475; -669.000; -641.000
826.378;13929.675; -389.000; -505.000
826.630; 4624.425; -890.000; -898.000
826.883;  142.100; -754.000; -693.000
827.135;   95.400; -279.000; -270.000
827.387;  -81.025; -893.000; -839.000
827.639;   -8.425;  -86.000;   32.000
827.892; -105.925; -742.000; -582.000
828.144; -125.125; -848.000; -804.000
828.396;  -21.525;  104.000;  -80.000
828.648;  -82.900; -440.000; -333.000
828.900; -129.650; -702.000; -795.000
829.152;  -97.300; -684.000; -683.000
829.404;  -56.650; -215.000; -267.000
829.656;   -4.400;  321.000;  214.000
829.908;  -11.825;  393.000;  229.000
830.160; -167.075;-1064.000;-1047.000
830.412;  -74.425; -481.000; -430.000
830.664; -117.200; -557.000; -665.000
830.916;  -74.900; -268.000; -206.000
831.167; -166.575;-1073.000; -951.000
831.419;  -95.950; -623.000; -566.000
831.671; -132.575; -764.000; -809.000
831.923;  -79.425; -311.000; -447.000
832.174;  -73.900; -273.000; -331.000
832.426; -105.200; -493.000; -582.000
832.678; -156.900;-1043.000;-1091.000
832.929; -150.175; -947.000; -935.000
833.181;  -27.850; -575.000; -677.000
833.432;  -39.950;  -59.000; -186.000
833.684;  -19.225;  112.000;  -27.000
833.935;  -94.075; -610.000; -566.000
834.187; -116.500; -829.000; -823.000
834.438;  -27.400;  -58.000;  -25.000
834.689;  -42.950; -255.000; -123.000
834.941;  -34.925; -343.000; -244.000
835.192;  -95.425; -590.000; -533.000
835.443;  -72.900; -419.000; -506.000
835.695;  -12.950;  138.000;  -16.000
835.946;  -75.900; -608.000; -378.000
836.197;  -90.300; -599.000; -622.000
836.448;  -76.300; -528.000; -395.000
836.699;  -38.825; -253.000; -341.000
836.950;    8.675;   72.000;    7.000
837.201; -120.150;-1003.000; -987.000
837.452;  -26.525; -356.000; -170.000
837.703;  -82.925; -791.000; -737.000
837.954;   -8.300; -205.000; -365.000
838.205;  -54.700;-1029.000;-1008.000
838.456;  298.700; -196.000; -282.000
838.707;   43.375; -423.000; -519.000
838.958;   71.725; -634.000; -647.000
839.209;  435.075;   18.000;   40.000
839.460;  183.450; -439.000; -201.000
839.710;  245.275; -135.000; -297.000
839.961;  533.550;  730.000;  612.000
840.212;  464.800; -382.000; -497.000
840.462; 1346.700; -328.000; -277.000
840.713;20859.050; -571.000; -536.000
840.964;10907.875;  -62.000; -143.000
841.214;  729.800; -384.000; -624.000
841.465;  770.350; -214.000; -141.000
841.715;  718.325; -417.000; -380.000
841.966;  893.025; -746.000; -685.000
842.216; 9751.600; -330.000; -431.000
842.466;46243.800; -169.000; -313.000
842.717; 3445.525; -964.000; -952.000
842.967;  456.525; -635.000; -641.000
843.217;  387.825;   20.000;   28.000
843.468;  132.125; -104.000; -132.000
843.718;    2.500; -718.000; -726.000
843.968;  -51.050; -837.000; -765.000
844.218;   66.050; -315.000; -262.000
844.469;  -17.400; -577.000; -561.000
844.719;  -86.150; -537.000; -682.000
844.969;  -69.050; -550.000; -580.000
845.219; -124.575; -814.000; -862.000
845.469;  -63.000; -392.000; -342.000
845.719; -125.625; -792.000; -884.000
845.969;    6.000;  119.000;  174.000
846.219; -103.225; -738.000; -720.000
846.469;   20.950;  464.000;  432.000
846.718;  -44.625; -115.000;   31.000
846.968; -122.375; -827.000; -827.000
847.218;  -31.675; -224.000; -371.000
847.468;   24.200; -586.000; -555.000
847.718; -136.875; -827.000; -798.000
847.967; -133.350; -826.000; -915.000
848.217;  -72.575; -449.000; -569.000
848.467;  -53.800; -405.000; -376.000
848.716;  -86.950; -708.000; -725.000
848.966;   39.825; -372.000; -358.000
849.215;  -30.950; -428.000; -419.000
849.465;  -64.100; -785.000; -615.000
849.714; -106.050;-1132.000;-1150.000
849.964;  -35.775; -551.000; -613.000
850.213;    0.425; -393.000; -355.000
850.463;  103.075;  137.000;  340.000
850.712;   49.150; -542.000; -567.000
850.961;   62.375; -739.000; -678.000
851.211;  166.200; -513.000; -504.000
851.460;  261.950; -635.000; -650.000
851.709;  708.150;  -25.000;   18.000
851.958;11536.100; -912.000; -750.000
852.208;18280.300; -859.000; -879.000
852.457;  772.225; -181.000;  -13.000
852.706;  142.800; -791.000; -823.000
852.955;   76.200; -507.000; -528.000
853.204;  -40.675; -521.000; -461.000
853.453;  -57.150; -418.000; -458.000
853.702; -106.750; -660.000; -750.000
853.951;  -88.250; -532.000; -520.000
854.200; -104.975; -613.000; -562.000
854.449; -108.325; -695.000; -661.000
854.698;  -84.575; -340.000; -279.000
854.946;  -63.025; -181.000; -284.000
855.195; -142.200; -843.000; -868.000
855.444;  -89.250; -395.000; -420.000
855.693; -118.650; -345.000; -432.000
855.941;  -98.350; -387.000; -516.000
856.190;  -36.600; -256.000; -382.000
856.439; -116.025; -652.000; -703.000
856.687;  -59.100;  -99.000;  -72.000
856.936; -105.925; -621.000; -323.000
857.184; -172.000;-1067.000;-1020.000
857.433; -108.225; -423.000; -512.000
857.681; -135.375; -989.000; -953.000
857.930;  -73.400; -282.000; -433.000
858.178; -157.075; -856.000; -929.000
858.427; -140.375; -802.000; -781.000
858.675; -117.125; -377.000; -544.000
858.923; -106.725; -527.000; -819.000
859.172; -167.475;-1094.000;-1070.000
859.420;  -68.400; -339.000; -239.000
859.668; -118.100; -624.000; -628.000
859.916;   -8.600;  109.000;  115.000
860.164;  -96.700; -699.000; -603.000
860.413;  460.625; -878.000; -696.000
860.661;  512.550; -709.000; -577.000
860.909;  -68.550; -339.000; -325.000
861.157;  -86.050; -277.000; -444.000
861.405; -109.075; -534.000; -670.000
861.653;   32.525;  310.000;  310.000
861.901;  281.350; -543.000; -613.000
862.149;  122.975; -801.000; -824.000
862.396;  -70.300; -297.000; -187.000
862.644;  -84.950; -368.000; -347.000
862.892;  -24.550;   98.000;  138.000
863.140; -107.625; -549.000; -530.000
863.388; -140.075; -815.000; -759.000
863.635; -126.325; -642.000; -601.000
863.883;   -9.775;  231.000;  190.000
864.131;  -84.600; -288.000; -357.000
864.378; -121.225; -675.000; -540.000
864.626;  -88.225; -347.000; -415.000
864.873; -106.250; -556.000; -505.000
865.121; -124.650; -714.000; -799.000
865.368;  -52.350; -173.000;   75.000
865.616;  -33.175;  -33.000;  -40.000
865.863;  -77.500; -462.000; -506.000
866.111; -101.175; -795.000; -824.000
866.358;   37.575; -426.000; -420.000
866.605; 2146.950;  -64.000; -804.000
866.853; 2892.350; -621.000; -537.000
867.100;    7.000; -728.000; -775.000
867.347;  -90.325; -672.000; -611.000
867.594;  -62.175; -740.000; -714.000
867.841;  153.000;   97.000;   17.000
868.089; -142.075; -746.000; -698.000
868.336; -108.550; -477.000; -420.000
868.583; -137.650; -637.000; -741.000
868.830;  -38.000; -131.000; -170.000
869.077; -152.100; -859.000; -787.000
869.324; -129.675; -502.000; -458.000
869.571; -128.600; -398.000; -430.000
869.818; -109.575; -485.000; -439.000
870.065; -106.175; -439.000; -513.000
870.311;  -96.675; -456.000; -542.000
870.558;  -92.850; -332.000; -311.000
870.805;  -74.600; -320.000; -384.000
871.052;  -97.550; -494.000; -369.000
871.298;  -41.175; -204.000; -131.000
871.545;  -57.900; -151.000; -185.000
871.792;  -89.575; -173.000; -222.000
872.038;  -63.825;   43.000; -126.000
872.285; -108.750; -496.000; -387.000
872.532;  -83.700; -357.000; -387.000
872.778;   14.300;  556.000;  403.000
873.025;  -91.600; -384.000; -359.000
873.271;    9.475;  501.000;  578.000
873.517;   -2.075; -133.000; -209.000
873.764;   11.200; -193.000;  -80.000
874.010;  -68.625; -143.000; -230.000
874.257;  -28.800;  123.000;   90.000
874.503; -127.125; -579.000; -479.000
874.749;  -52.550;   31.000;  275.000
874.995;  -62.425;  -80.000;  -20.000
875.242; -111.550; -540.000; -478.000
875.488; -113.225; -414.000; -439.000
875.734;  -46.100; -106.000; -234.000
875.980;  330.950; -872.000;-1032.000
876.226;  691.350; -157.000; -255.000
876.472;   14.450;  343.000;  237.000
876.718;  -32.350;  184.000;  158.000
876.964;  -45.075;   56.000;   55.000
877.210; -130.350; -547.000; -677.000
877.456; -132.025; -630.000; -557.000
877.702; -162.225; -821.000; -832.000
877.948; -107.100; -377.000; -497.000
878.193;   22.250;  361.000;  255.000
878.439;  -65.075; -487.000; -472.000
878.685;  -83.800; -272.000; -343.000
878.931; -113.350; -618.000; -676.000
879.176;  -68.675; -201.000; -201.000
879.422; -166.525; -933.000; -820.000
879.668;   92.450;   10.000;   79.000
879.913;  257.750;   53.000;  137.000
880.159;  -33.850; -112.000;  -17.000
880.404;  -45.500; -152.000; -162.000
880.650;  -35.400;   91.000;  141.000
880.895; -149.050; -670.000; -710.000
881.141; -105.950; -454.000; -428.000
881.386; -138.025; -503.000; -658.000
881.631;  -69.950; -311.000; -166.000
881.877;  -37.425;  112.000;  -13.000
882.122; -134.375; -684.000; -600.000
882.367;  -88.300; -136.000; -186.000
882.612;  -63.525;  -80.000; -176.000
882.858; -166.450; -877.000; -823.000
883.103;  -83.875; -297.000; -267.000
883.348; -141.025; -759.000; -852.000
883.593; -144.450; -677.000; -602.000
883.838;  -51.375; -311.000;  -24.000
884.083;   54.025;  353.000;  288.000
884.328;  -71.975; -564.000; -545.000
884.573;  -36.125; -196.000; -143.000
884.818;  310.450; -694.000; -531.000
885.063;  389.075; -348.000; -315.000
885.308;  -80.250; -475.000; -398.000
885.553;   -6.150;  245.000;  325.000
885.797; -129.325; -545.000; -615.000
886.042;  -46.825;    8.000;   58.000
886.287;  -86.075; -253.000; -211.000
886.532;  -44.675;   26.000;  204.000
886.776; -114.300; -407.000; -525.000
887.021; -131.925; -621.000; -574.000
887.265; -145.400; -685.000; -689.000
887.510; -125.625; -557.000; -496.000
887.755;  -79.025; -194.000; -164.000
887.999; -133.375; -552.000; -575.000
888.244;  -61.800;  -58.000;  161.000
888.488;   -2.000;  371.000;  393.000
888.732; -118.875; -368.000; -520.000
888.977; -122.325; -622.000; -567.000
889.221; -132.225; -683.000; -659.000
889.465; -115.575; -422.000; -566.000
889.710;  -74.800;  -56.000; -299.000
889.954;    3.175;  579.000;  467.000
890.198; -135.850; -584.000; -707.000
890.442; -154.925; -716.000; -712.000
890.687; -162.350; -800.000; -753.000
890.931;  -89.125; -273.000; -210.000
891.175; -138.825; -502.000; -500.000
891.419;  -66.550; -105.000; -110.000
891.663;  -90.250; -239.000; -112.000
891.907; -148.025; -801.000; -545.000
892.151; -169.750; -920.000; -815.000
892.395; -109.425; -274.000; -387.000
892.638;  -19.200;  408.000;  291.000
892.882; -167.750; -780.000; -867.000
893.126;   31.475;  758.000;  558.000
893.370;  -87.300; -167.000; -168.000
893.614; -136.250; -714.000; -715.000
893.857;  -99.950; -183.000; -197.000
894.101; -119.125; -527.000; -631.000
894.345;  -58.500;  300.000;  150.000
894.588;    3.250;  569.000;  380.000
894.832;  -88.975; -178.000;  -84.000
895.075;  -64.600;   15.000;  -92.000
895.319; -123.725; -552.000; -420.000
895.563; -102.500; -413.000; -353.000
895.806; -124.700; -628.000; -741.000
896.049;  -35.400; -576.000; -368.000
896.293;  154.450;  527.000;  405.000
896.536;  -25.175; -465.000; -468.000
896.779;  -23.675; -149.000;   -1.000
897.023; -119.600; -751.000; -714.000
897.266;  -31.175;  325.000;  269.000
897.509; -161.925; -900.000; -901.000
897.752;  -41.600;  149.000;  171.000
897.996; -173.600; -972.000; -864.000
898.239;  -38.275;  168.000;  102.000
898.482; -122.825; -431.000; -453.000
898.725;  -14.775;  101.000;   53.000
898.968; -129.575; -609.000; -744.000
899.211; -103.650; -513.000; -361.000
899.454;  -92.650; -633.000; -539.000
899.697;  -60.075;   90.000;  -43.000
899.940; -172.125; -761.000; -757.000
900.182;  -93.875; -335.000; -405.000
900.425;  -86.175; -150.000; -298.000
900.668;  -26.350;  491.000;  350.000
900.911; -103.250; -292.000; -345.000
901.154;  -46.125;  141.000;   -3.000
901.396; -122.350; -407.000; -412.000
901.639; -131.725; -430.000; -496.000
901.882; -162.050; -790.000; -809.000
902.124;  -74.400;  -29.000; -143.000
902.367; -122.925; -315.000; -361.000
902.609; -120.925; -476.000; -453.000
902.852;  -90.925; -108.000; -260.000
903.094; -110.025; -458.000; -337.000
903.337;  -64.550;  -26.000;   53.000
903.579; -106.325; -228.000; -441.000
903.821; -144.250; -597.000; -744.000
904.064;  -49.100;   85.000;  127.000
904.306;  -76.725; -126.000; -166.000
904.548;  -89.200; -152.000; -366.000
904.790;  -87.200; -195.000; -340.000
905.033; -131.875; -625.000; -577.000
905.275; -123.050; -513.000; -524.000
905.517;   52.500;  468.000;  256.000
905.759;   -7.325; -667.000; -761.000
906.001;  -86.250; -322.000; -369.000
906.243;  -41.950; -162.000; -224.000
906.485;  205.625; -265.000; -207.000
906.727;  284.775; -499.000; -542.000
906.969;   -8.800;  -30.000; -135.000
907.211;  213.750; -316.000; -382.000
907.453;  474.625; -188.000; -237.000
907.695;   87.875; -158.000; -385.000
907.936;   45.750;  818.000;  706.000
908.178;  -40.050;   92.000; -135.000
908.420;  -71.575; -111.000; -162.000
908.662; -120.600; -633.000; -682.000
908.903;  -82.175; -208.000; -123.000
909.145;  -56.350; -240.000; -305.000
909.386;    1.525;  315.000;  280.000
909.628;   39.175;  363.000;  397.000
909.870;   12.125;   29.000;  264.000
910.111;  -70.625; -809.000; -949.000
910.353;   17.375; -123.000; -161.000
910.594;   11.725; -574.000; -606.000
910.835;  100.875; -265.000; -326.000
911.077;  181.475; -503.000; -604.000
911.318;  299.425; -505.000; -471.000
911.559;  493.275; -577.000; -880.000
911.801; 1295.475; -284.000; -280.000
912.042; 9335.000;  -50.000; -159.000
912.283;28623.775;  404.000;  371.000
912.524; 5536.950; -396.000; -457.000
912.765;  575.725; -193.000;   79.000
913.006;  283.250; -307.000; -338.000
913.247;   76.625; -270.000; -290.000
913.488;    3.950;  -43.000;   30.000
913.729;  -63.875; -373.000; -373.000
913.970;  -44.925;  -96.000; -292.000
914.211;  -62.500; -160.000; -198.000
914.452;  -45.900; -118.000;  -11.000
914.693;   26.450;  510.000;  592.000
914.934;    8.225;  510.000;  440.000
915.175;  -63.750;   53.000;  -95.000
915.415;  -63.575; -137.000;   27.000
915.656;  -63.575;  -28.000;  192.000
915.897;  -78.425; -252.000;  -82.000
916.137;  -50.675;   74.000;   -9.000
916.378; -128.575; -573.000; -517.000
916.619;  -72.225; -159.000;  -63.000
916.859;  -14.325;  303.000;  330.000
917.100;  122.975; 1655.000; 1070.000
917.340;   54.500;  930.000;  728.000
917.581;   56.675;  965.000;  789.000
917.821;  -10.900; -171.000;  143.000
918.061;   53.700; -199.000;  -72.000
918.302;  -27.500; -152.000; -211.000
918.542;  -14.500;  -22.000;    3.000
918.782;   65.250;  369.000;  377.000
919.023;  174.800;  360.000;  427.000
919.263; 1903.675; 8131.000;  202.000
919.503; 1714.375; -137.000;  -54.000
919.743;  930.300;  390.000;  266.000
919.983;  480.600; -134.000;  -26.000
920.223;  120.600;  135.000;   14.000
920.463;  179.325;  631.000;  554.000
920.703;  173.100;   84.000;   39.000
920.943;  223.075; -110.000;   90.000
921.183;  287.450; -414.000; -405.000
921.423;  593.275;  307.000;  546.000
921.663;  845.875; -174.000; -257.000
921.903; 1787.875;  237.000;  173.000
922.143; 9301.225;  372.000;  389.000
922.383;38377.975;  158.000;  115.000
922.622;16307.450; -120.000;  -15.000
922.862; 1693.125;  796.000;  785.000
923.102;  617.750;  -51.000;   33.000
923.341;  277.425;   59.000;   74.000
923.581;  137.500;  450.000;  360.000
923.821;   50.125;  301.000;  398.000
924.060;   11.775;  351.000;  193.000
924.300;  -37.575;  -16.000; -128.000
924.539;    3.650;  584.000;  473.000
924.779;   31.150;  812.000;  597.000
925.018;  -30.425;  247.000;  353.000
925.257;   -8.300;  595.000;  666.000
925.497;  -23.100;  447.000;  412.000
925.736;  -74.850;  -35.000;  102.000
925.975;   16.375;  687.000;  669.000
926.214;   22.600;  907.000;  850.000
926.454;   24.100;  706.000;  757.000
926.693;  -17.750;  419.000;  543.000
926.932;   36.075; 1021.000;  825.000
927.171;   67.600; 1107.000; 1044.000
927.410;   54.425; 1144.000;  967.000
927.649;   27.425;  924.000;  742.000
927.888;    2.600;  590.000;  564.000
928.127;   15.825;  680.000;  678.000
928.366;   37.900;  842.000;  826.000
928.605;   40.100;  831.000;  737.000
928.844;  277.050; 1451.000; 1393.000
929.083;  799.050;  770.000;  613.000
929.321;  480.825; 1335.000; 1359.000
929.560;  104.050; 1158.000; 1122.000
929.799;   -7.550;  574.000;  475.000
930.038;   85.900; 1025.000; 1394.000
930.276;  -34.925;  334.000;  397.000
930.515;    6.475;  827.000;  681.000
930.753;  -13.025;  614.000;  589.000
930.992;    2.300;  664.000;  717.000
931.230;    6.450;  847.000;  847.000
931.469;  169.225; 2162.000;  892.000
931.707;   67.075;  840.000;  751.000
931.946;   83.450; 1278.000; 1344.000
932.184;   76.900; 1437.000; 1175.000
932.423;   61.025; 1265.000;  963.000
932.661;  104.250; 1296.000; 1428.000
932.899;   59.175;  987.000;  821.000
933.137;   19.575;  754.000;  564.000
933.376;  195.925; 1664.000; 1335.000
933.614;  190.500; 1759.000; 1196.000
933.852;   70.775; 1357.000; 1171.000
934.090;  145.950; 1722.000; 1747.000
934.328;  119.975; 1252.000; 1457.000
934.566;   94.500; 1431.000; 1110.000
934.804;  149.075; 1263.000; 1309.000
935.042;  494.775; 1861.000; 1850.000
935.280; 1927.950; 2088.000; 2063.000
935.518; 2144.800; 2113.000; 2007.000
935.756;  473.950; 2481.000; 2316.000
935.994;  204.950; 1808.000; 1751.000
936.231;  388.750; 2890.000; 2950.000
936.469;  218.200; 2367.000; 2378.000
936.707;  179.375; 2220.000; 2167.000
936.945;  242.350; 2825.000; 2882.000
937.182;  218.175; 2679.000; 2741.000
937.420;  332.450; 3602.000; 3031.000
937.657;  481.675; 3365.000; 3478.000
937.895;  412.125; 3331.000; 3488.000
938.133;  344.650; 3540.000; 3528.000
938.370;  348.925; 3896.000; 4191.000
938.607;  412.700; 4488.000; 4205.000
938.845;  545.700; 5587.000; 5549.000
939.082;  492.975; 5387.000; 5177.000
939.320;  540.800; 5799.000; 5728.000
939.557;  651.400; 6549.000; 6491.000
939.794;  725.900; 7285.000; 7097.000
940.031;  923.300; 8421.000; 8368.000
940.269; 1202.575; 9552.000; 9107.000
940.506; 1154.825;10901.000;10507.000

