
Integration time [ms]: 100.000
Averaging Nr. [scans]: 40
Smoothing Nr. [pixels]: 0
Data measured with spectrometer [name]: 2101013U2
Wave   ;Sample   ;Dark     ;Reference
[nm]   ;[counts] ;[counts] ;[counts] 

394.013;   55.777; -450.257; -315.536
394.305;  281.875; -461.258; -419.536
394.596; 1117.145; -676.269; -527.514
394.887; 2635.787; -796.268; -654.518
395.178; 1012.393;  145.736;   11.476
395.470;   95.629; -210.263; -356.526
395.761;  231.727;  305.734;  394.479
396.052;  411.242; -545.284; -306.489
396.343;  385.064; -557.276; -454.503
396.634;  135.632; -200.279; -290.497
396.926;  130.334; -618.268; -565.517
397.217;  132.918;   11.725;  -17.504
397.508;   62.509; -366.273; -154.507
397.799;   65.882; -555.279; -571.497
398.090;    9.826; -973.280; -902.495
398.381;  134.791;   11.708;  -11.473
398.672;   -0.133; -585.292; -742.473
398.963;   86.563; -348.279; -373.498
399.254;  105.376;   54.709; -209.475
399.545;  -11.476;-1017.266; -883.520
399.836;   70.827; -407.277; -343.501
400.127;   55.567; -205.295; -209.468
400.418;   67.929; -423.274; -392.506
400.709;   88.713; -359.281; -333.493
401.000;   57.780; -268.291; -309.476
401.290;  109.827;  225.698;  115.545
401.581;   70.475; -166.286; -228.485
401.872;   45.938; -542.298; -486.462
402.163;   56.734; -313.296; -252.467
402.454;  110.502; -123.291; -163.475
402.744;   87.050; -844.297; -813.465
403.035;  512.782; -226.293;  -86.471
403.326;  625.245; -366.292; -384.474
403.617;  433.507;  204.701;  165.539
403.907;  262.898; -593.283; -679.490
404.198; 2389.630; -545.307; -599.446
404.489; 6251.078; -618.283; -588.491
404.779; 2092.931; -618.302; -660.456
405.070;  222.484;  -67.304; -174.451
405.360;  347.734; -259.293; -238.472
405.651;  370.092;  125.699;   98.542
405.942;  204.545;  209.714;  127.516
406.232;  311.910; -432.285; -413.487
406.523;  535.627;  641.706;  758.530
406.813;  113.622; -579.286; -644.484
407.104;  400.140;  261.708;  144.527
407.394;  226.109; -604.299; -591.462
407.685;  168.234;  336.715;  222.513
407.975;   68.327; -400.283; -382.490
408.265;  139.617; -134.289; -190.478
408.556;   75.649; -472.291; -459.475
408.846;  165.478;  474.706;  429.530
409.137;   80.375;   -1.288; -216.480
409.427;   69.059; -193.285; -271.487
409.717;   53.263; -776.273; -692.508
410.007;  154.853;    4.715; -170.486
410.298;   96.344; -360.295; -342.469
410.588;   92.157; -495.285; -510.486
410.878;   44.212; -792.287; -873.482
411.168;  129.116; -481.298; -478.463
411.459;  121.246; -295.283; -242.489
411.749;   91.872; -609.292; -507.474
412.039;   63.874; -755.289; -386.480
412.329;  218.795;   40.722;  132.501
412.619;  219.898;  -62.286; -148.485
412.909;  394.820;  639.711;  594.521
413.199;  370.826; -130.280; -251.495
413.490;  445.635;  521.710;  352.523
413.780;  151.930;-1013.279; -913.496
414.070;  343.115;  -46.276;  235.497
414.360;  395.416; -729.278; -666.498
414.650;  458.983; -726.288; -688.482
414.940;  548.830; -538.280; -441.496
415.230;  962.954;   50.712;   74.519
415.520; 6023.944;  155.730;   66.486
415.809;24095.812; -305.281; -125.493
416.099;18130.380; -388.277; -229.501
416.389; 5073.776;  435.726;  236.494
416.679; 2954.233;   91.738;   85.473
416.969;  553.316; -527.287; -503.483
417.259;  486.032;  341.721;  171.503
417.549;  697.861;  522.718;  318.508
417.838; 1625.036; -205.268; -147.518
418.128; 5389.390;  650.710;  492.522
418.418; 4401.644; -491.272; -579.509
418.708; 3041.577;    9.726;  -48.506
418.997;11418.322; -474.275; -480.505
419.287;11667.934; -733.273; -790.507
419.577;10968.621; -160.283; -123.489
419.866;36763.328; -588.277; -498.501
420.156;37820.915; -242.270;  -55.513
420.446; 6680.475; -112.263;  -26.526
420.735;  887.209; -376.271; -446.512
421.025;  865.115; 1830.722;  315.502
421.314;  737.332; -203.271; -226.512
421.604; 1618.354;   89.732;  233.484
421.893;  947.378; -705.271; -602.511
422.183;  247.126; -487.263; -461.526
422.472;  403.205;  -36.271; -107.511
422.762;  499.630; -416.266; -379.521
423.051;  263.090; -916.276; -916.503
423.341;  342.910; -491.273; -439.507
423.630;  444.086; -121.265;   15.477
423.919;  401.322;   58.725;   49.495
424.209;  368.656;  -31.263;   56.473
424.498;  511.684;   68.732;  161.483
424.787; 1091.415; -535.267; -601.518
425.077; 3360.759;   34.735;   29.478
425.366; 4872.262; -734.262; -744.528
425.655; 9652.686;  639.727;  259.493
425.945;20498.668; -313.247; -268.554
426.234;11173.085;  117.741;  300.467
426.523; 5089.440;  -86.259; -350.534
426.812; 6874.725;  107.734;  159.480
427.101;10090.375; -127.269; -323.515
427.390;12715.594;  -55.270;  -86.514
427.680; 3002.585; -624.257; -411.538
427.969;  505.322; -330.255; -301.540
428.258;  335.902; -385.257; -477.536
428.547;  573.223;  449.728;  397.490
428.836; 1395.763; -421.253; -398.543
429.125; 1990.817; -199.259;  -72.534
429.414;  857.636; -330.251; -294.548
429.703; 3142.411; -231.251; -213.548
429.992; 9224.365; -938.250; -828.549
430.281; 5936.643; -397.264; -331.524
430.570;  597.201;  -21.252;   32.454
430.859;  621.740;  279.741;  352.466
431.148;  463.564;  636.752;  631.446
431.437;  309.401;  391.748;  367.454
431.725;  170.728; -544.257; -481.536
432.014;  158.495; -845.253; -756.545
432.303;  408.616; -149.239; -105.569
432.592;  685.425; -460.263; -178.525
432.881; 1065.015; -601.248; -437.554
433.169; 6019.172; -343.255;  -61.540
433.458;12268.076;  445.765;  540.424
433.747; 5076.143; -397.261; -289.529
434.036;  958.317; -275.242; -280.564
434.324; 2110.627; -395.249; -379.551
434.613; 3558.485;   40.757;  159.437
434.902; 1210.056;  333.760;  439.433
435.190;  654.690;   75.761;  295.431
435.479;  376.867;  -52.245;   83.441
435.767;  131.850; -411.244; -427.561
436.056;  258.887; -340.242; -294.563
436.345;  371.184; -372.240; -223.568
436.633;  404.672;   60.750;  383.450
436.922;  286.811;  208.760;  414.432
437.210;  697.765; -194.236;    1.426
437.499; 2281.574; -583.235; -432.576
437.787; 2481.715; -339.236;  -10.574
438.075;  620.996;   56.761;  162.430
438.364;  875.673;  -44.238;  250.429
438.652;  500.480; -286.226; -138.592
438.941;  163.968;    3.770;  269.415
439.229;   38.073; -665.252; -466.545
439.517;   43.682; -160.234;  -85.577
439.806;    2.446; -501.225; -290.595
440.094;  196.590;  377.766;  650.421
440.382;  230.094; -653.233; -302.580
440.670;  263.548; -361.235; -285.576
440.959;   38.989; -347.223; -170.599
441.247;   93.655; -151.229; -109.587
441.535;  125.781; -266.235;   31.423
441.823;   75.237; -497.234; -305.578
442.111;  204.984;  173.771;  327.412
442.400;  594.066; -628.245; -335.559
442.688; 1616.140; -111.234; -620.579
442.976; 1186.203; -786.213; -450.617
443.264;  132.803; -324.224; -364.597
443.552;  108.906; -258.226;   51.408
443.840;  161.679;  602.765;  876.423
444.128;  116.418;  265.767;  269.420
444.416;   20.412; -694.228; -312.588
444.704;   40.044; -465.219;  -92.605
444.992;   69.609;   -0.226;  240.407
445.280;   77.719; -517.230;  -94.585
445.568;   63.682; -694.212; -396.618
445.856;  398.178; -174.221;  357.398
446.143;  890.765;  -54.220;   -7.604
446.431;  718.341;  -25.228;  625.411
446.719;  271.913;  489.783;  675.391
447.007;  200.463;  481.769;  705.416
447.295;  188.411;  597.777;  871.402
447.583;  115.453; -464.229;  -34.587
447.870;  145.849; -434.221; -202.601
448.158;  476.868; -104.230;  129.415
448.446;  332.016; -800.219; -338.604
448.733;  173.554;   13.776;  269.403
449.021;  265.256;   60.788;  341.382
449.309;  192.971; -296.210;  208.379
449.596;  218.460;  128.783;   59.392
449.884;  171.593; -571.222; -325.600
450.172;  164.496; -756.227; -406.590
450.459;  455.961;  645.786;  780.387
450.747; 2278.033; -411.218; -147.608
451.034; 7353.967;  493.772;  889.411
451.322; 5932.164; -413.214; -170.614
451.609;  513.156;  292.777;  508.403
451.897;  568.611; -550.203; -183.634
452.184; 1801.911; -622.223; -400.598
452.472; 1629.643;   97.792;  269.375
452.759;  357.967;  512.781;  864.395
453.047;  114.804; -407.212; -125.617
453.334;  110.875; -732.219; -216.606
453.621;  101.466; -438.214; -161.615
453.909;  133.802;   13.796;  384.368
454.196;  132.324; -299.199; -123.641
454.483;  225.599;  317.798;  540.364
454.771;  136.671; -215.208;  196.374
455.058;   58.450; -316.207;  102.374
455.345;  106.855;   71.807;  344.347
455.632;   98.553; -128.207;  235.373
455.919;   45.646;  -82.196;  182.354
456.207;  -45.372; -774.198; -450.642
456.494;  -13.464; -475.200;  -66.639
456.781;   28.744; -399.202; -198.635
457.068;   70.910; -253.206;  -29.628
457.355;   11.361; -698.206; -401.629
457.642;    3.316; -552.205; -290.630
457.929;   33.171; -778.194; -417.651
458.216;   66.779; -575.212; -354.617
458.503;  234.775; -173.193;  -19.652
458.790;  211.044; -864.208; -630.625
459.077;  282.324;  -77.202;  110.364
459.364;  767.713; -350.195; -210.649
459.651; 1666.858;  -46.206;  220.372
459.938;  750.984; -864.209; -665.623
460.225;  170.503;  132.799;  276.363
460.512;  -40.131; -836.197; -688.645
460.799;  112.007;  -32.218;  320.392
461.086;   90.816; -370.200; -251.640
461.372;   66.804; -509.198; -279.642
461.659;  117.123; -165.196;  108.354
461.946;   84.824; -445.193;  -54.651
462.233;  253.063;  842.800;  888.361
462.519;  359.760; -814.201; -464.639
462.806; 1009.869; -768.197; -497.645
463.093;  862.620; -445.191;  -66.656
463.380;  -20.513; -920.186; -824.664
463.666;   74.646; -259.197;  -18.646
463.953;   91.158; -406.195; -243.648
464.239;  222.683; -173.195;  -77.648
464.526;  381.344;  413.806;  743.350
464.813;  369.232; -565.190; -304.658
465.099;  370.675;  606.807;  607.348
465.386;  364.354;  903.807;  921.348
465.672;   55.544; -694.197; -522.645
465.959;   41.600; -598.188; -520.662
466.245;   26.154; -468.193; -359.652
466.532;  122.381; -109.195;   63.352
466.818;   75.662; -357.186; -216.664
467.104;    4.753; -488.182; -415.672
467.391;  -13.641; -628.189; -459.658
467.677;   57.065; -289.186;    9.335
467.964;   19.790; -682.189; -471.660
468.250;   88.618; -331.186; -160.665
468.536;   85.785;   90.811;  180.341
468.822;  -14.245; -821.184; -574.668
469.109;  132.835;  351.827;  471.311
469.395;  213.139;  729.808;  787.346
469.681;  199.663;   46.811;  156.341
469.967; 1236.068; -699.188; -382.660
470.254; 2659.001; -494.188; -306.662
470.540; 1669.446; -601.196; -476.646
470.826;  246.014; -488.181; -397.675
471.112;  290.159;  288.816;  113.331
471.398;   85.688; -253.183;  -58.670
471.684;   68.943; -626.177; -447.680
471.970;    8.268; -918.180; -981.675
472.256;   38.638; -521.192; -441.654
472.542;   15.621; -499.171; -434.691
472.828;   29.823; -743.182; -607.672
473.114;   28.565; -380.166; -283.700
473.400;   20.109; -504.175; -293.684
473.686;   38.796; -452.166; -400.701
473.972;   67.674; -230.174; -131.687
474.258;  -42.890; -925.173; -843.689
474.544;  199.759; -183.178;   -2.679
474.830;  281.586;  -65.175;   45.316
475.116;  459.858; -123.190; -196.658
475.401;  618.845; -558.180; -467.676
475.687;  195.844; -725.180; -718.676
475.973;   19.132; -673.181; -770.673
476.259;  271.838;  736.825;  764.315
476.544;  354.051; -539.176; -437.682
476.830;  805.992; -398.172; -322.690
477.116;  656.949; -430.177; -336.682
477.401;  140.195;  346.820;  358.324
477.687;  -20.090; -289.175; -405.684
477.973;   44.910;   21.819;   28.326
478.258;  -11.533; -448.163; -348.706
478.544;   65.698;   21.815;   61.334
478.829;  -36.949; -818.171; -738.692
479.115;  -23.734; -749.172; -651.690
479.401;  -13.005; -444.174; -449.686
479.686;   31.093; -253.180;  -74.676
479.972;  -24.911; -886.178; -776.680
480.257;   46.717; -258.166;  -65.700
480.542;   -5.895; -614.170; -469.693
480.828;  216.383; 1288.824; 1392.317
481.113;  -25.094; -464.176; -426.683
481.399;   11.641; -236.161; -202.711
481.684;  -56.084; -620.166; -462.700
481.969;   22.755; -158.159;  -73.713
482.255;   -4.359; -439.169; -285.695
482.540;   12.140; -569.178; -441.680
482.825;    7.857; -395.187; -404.663
483.110;  103.945;  -85.169; -105.696
483.396;  163.627; -840.157; -652.718
483.681;  487.599;  543.826;  730.313
483.966;  146.024; -696.160; -700.712
484.251;    7.973; -404.174; -310.687
484.536;    4.652; -356.165; -378.703
484.822;   22.401; -205.173; -218.687
485.107;   -8.659; -599.152; -502.726
485.392;  112.683;  662.836;  541.296
485.677;   68.005;  354.832;  163.302
485.962;  111.550;  160.843;  270.283
486.247;   89.525;  -14.162;   -8.707
486.532;   57.593; -178.166; -325.701
486.817;  158.386;  381.839;  431.291
487.102;  143.724; -453.154; -514.722
487.387;  632.279; -637.156; -652.718
487.672; 1094.263; -154.164;  -38.705
487.957;  670.468; -394.160; -286.711
488.241;  189.883; -290.150; -314.729
488.526;  678.367; -280.152; -148.726
488.811; 1155.517; -881.177; -818.680
489.096;  815.076; -666.154; -702.723
489.381;  489.414;    3.847;  162.275
489.666;  361.916; -428.161; -510.710
489.950;  166.629;  558.846;  627.277
490.235;  -20.697; -480.151; -458.728
490.520;  -23.560; -756.161; -723.710
490.804;  -54.969; -827.156; -736.719
491.089;   11.849; -469.149; -299.732
491.374;   28.462; -132.164;  -75.704
491.658;   -6.364; -817.147; -717.735
491.943;  167.547; -657.152; -609.727
492.227;  276.844; -178.155;  -38.721
492.512;   48.124; -294.157; -341.717
492.797;  -67.382; -713.149; -716.731
493.081;  -39.087; -588.147; -598.735
493.366;  -22.033; -751.161; -635.711
493.650;  209.142;  831.859;  917.254
493.935;   35.110; -648.147; -447.734
494.219;  -42.771; -778.142; -687.743
494.503;  -39.662; -585.150; -487.730
494.788;   47.141;   46.842;   74.285
495.072;  106.434;  184.850;  434.271
495.356;  169.552; -463.148; -343.733
495.641;  478.920; -812.146; -736.736
495.925;  453.361; -976.156; -903.719
496.209;   37.948; -599.149; -451.732
496.494;  -49.545; -763.142; -544.744
496.778;   31.524; -364.154; -360.722
497.062;  -55.414; -819.156; -627.719
497.346;  -18.530; -869.160; -640.711
497.631;  127.831;  580.852;  560.266
497.915;   86.856;  -64.145;  175.261
498.199;   55.977; -341.157; -277.718
498.483;   55.966; -562.152; -508.725
498.767;  187.685;  301.850;  300.271
499.051;  174.946; -126.149; -100.732
499.335;   22.619; -693.149; -739.731
499.619;  -13.205; -381.129; -423.767
499.903;   34.268; -272.155;  -65.721
500.187;   37.856; -588.153; -316.724
500.471;   30.296; -796.152; -595.727
500.755;  116.465;   62.839;  -96.710
501.039;   26.844; -270.155; -357.721
501.323;  100.094;  -21.141;  264.254
501.607;   31.843; -447.163; -503.706
501.891;    7.654; -607.156; -512.718
502.174;  -27.658; -726.144; -585.741
502.458;   83.075;   89.849;  370.273
502.742;   30.518; -180.138; -191.751
503.026;  114.809; -412.147; -254.734
503.310;  160.579; -437.159; -375.713
503.593;  124.236; -464.147; -325.735
503.877;  119.109; -232.133; -156.760
504.161;  181.083;    2.847;  -50.724
504.444;  136.468; -841.158; -710.716
504.728;  438.136; -487.164; -522.704
505.012;  693.082; -257.150;  -76.729
505.295;  522.192; -417.161; -212.711
505.579;  498.185; -256.156; -496.719
505.862;  712.802; -555.145; -333.738
506.146;  677.556; -681.159; -758.714
506.429;  392.532;  568.841;  461.286
506.713;   67.954; -732.151; -667.728
506.996;  306.748;   90.846;  295.278
507.280;  315.631; -633.165; -474.703
507.563;  230.242; -469.155; -261.721
507.847;   98.582; -423.153; -112.724
508.130;   97.867; -665.161; -456.711
508.413;   98.887; -758.167; -577.700
508.697;  231.262; -151.167;   12.300
508.980;  136.683; -422.153; -312.724
509.263;   -6.412; -466.155; -450.720
509.547;   33.932; -124.150;   82.271
509.830;   61.244; -172.160;  140.289
510.113;   82.385;  128.844;  298.281
510.396;   37.864; -530.152; -300.725
510.680;  189.878; -818.145; -812.738
510.963;  735.703;  184.846;  180.277
511.246;  644.740; -493.150; -357.730
511.529;  295.033; -482.145;  -83.739
511.812;  350.081; -250.134;   10.241
512.095;  247.301; -740.151; -396.728
512.378;   75.340; -317.147; -245.736
512.661;   22.926; -703.137; -623.753
512.944;   31.181; -750.142; -637.744
513.227;   67.848; -170.137; -171.752
513.510;   22.317; -479.144; -671.741
513.793;   25.098; -485.140; -435.747
514.076;  127.441;  -43.127;  -39.771
514.359;  123.449; -294.149; -135.732
514.642;   67.334; -442.142; -567.744
514.925;  717.822;  581.860;  561.253
515.208;  932.002; -498.134; -443.758
515.491;  614.291; -276.133; -182.761
515.773;  329.996; -410.143; -337.742
516.056; 1955.733;  249.864;  409.246
516.339; 2695.037; -754.136; -652.755
516.622; 1963.387; -518.150; -488.730
516.904; 1444.328;  882.857;  975.257
517.187;  645.497; -730.138; -523.752
517.470;  402.327; -568.143; -510.743
517.752;  420.914; -624.136; -470.756
518.035;  322.259; -708.139; -725.749
518.318;  337.337; -799.136; -744.755
518.600; 2290.095; -300.132; -325.762
518.883; 3113.334;  310.858;   88.256
519.165; 1498.715; -585.138; -426.751
519.448;  410.669;  -61.132;  -19.762
519.730;  225.374; -573.126; -415.773
520.013;  334.787;  588.867;  664.240
520.295;  947.158;  -94.134;  -15.759
520.578; 2142.033; -335.131; -305.764
520.860; 2381.420; -254.132;   56.238
521.143; 1223.917; -763.135; -584.756
521.425;  481.712; -251.125; -279.775
521.707;  652.967; -622.127; -380.771
521.990; 1687.667; -199.127;  167.229
522.272; 1932.075; -116.140;   -4.748
522.554;  874.147; -237.143; -157.742
522.836;  402.880;  -24.134;   99.241
523.119;  231.733; -496.148; -189.734
523.401;  170.990; -448.130; -314.766
523.683;  105.602; -865.137; -693.753
523.965;  273.920;  408.862;  260.248
524.247;  254.284;   54.878;  170.220
524.529;  200.482; -451.134; -367.759
524.812;  327.842;   -3.130;  191.234
525.094;  796.594; -773.138; -631.751
525.376; 1281.146; -143.124;   78.223
525.658;  777.234; -441.136; -339.754
525.940;    9.379; -805.131; -671.764
526.222;   71.287; -188.136;  -88.755
526.504;  131.827; -190.131;   32.237
526.786;  239.235; -960.133; -647.760
527.068;  348.727; -124.123;  -67.778
527.349;  160.730; -865.137; -774.754
527.631;  129.894; -137.132;   22.238
527.913;  133.841; -664.127; -450.771
528.195;  152.705; -761.125; -639.774
528.477;  243.627;  -93.134;  -30.758
528.759;  114.566; -648.130; -522.766
529.040;   58.051; -569.123; -293.778
529.322;   36.908; -235.125;  -10.774
529.604;  143.994;  -47.130;   93.233
529.886;  154.974; -546.126; -302.773
530.167;  142.960;  232.870;  192.235
530.449;   51.615;    1.853;   63.265
530.731;   26.883; -572.122; -459.779
531.012;   41.579; -513.120; -216.784
531.294;   71.744; -118.116;  -43.792
531.575;  134.662;  290.875;  538.225
531.857;   53.072; -548.135; -266.757
532.138;   84.418; -113.141;   40.254
532.420;  180.218;  294.865;  403.244
532.701;  235.362; -722.133; -751.760
532.983;  378.215;  232.867;  182.239
533.264;  114.897; -243.126;  175.228
533.546;  -20.188; -491.136; -508.755
533.827;   52.509;  173.867;   -1.759
534.109;   42.072; -352.135;  -80.757
534.390;  101.448; -725.132; -582.762
534.671;  267.068; -270.135;  -82.756
534.953;  132.153; -751.123; -611.779
535.234;   27.103; -426.117; -255.789
535.515;  -68.913; -891.119; -735.785
535.796;   -5.288; -431.128; -193.770
536.078; -124.354;-1050.124; -904.777
536.359;   19.779;  -22.123;    3.221
536.640;  -14.693; -480.125; -197.774
536.921;  167.949;  225.871;  143.232
537.202;  344.191;  -87.138;  -16.751
537.483;  439.157;  251.869;  377.236
537.764;  154.735;   17.870;   98.235
538.045;  -18.249; -543.134; -371.758
538.326;  -32.499; -596.129; -447.768
538.607;   20.543; -686.127; -476.771
538.888;  153.545;   98.879;    5.218
539.169;  173.464; -704.122; -535.781
539.450;  320.148;  236.871;   16.233
539.731;  222.424; -361.121; -182.783
540.012;  119.429;  199.880;  412.216
540.293;   97.765;   82.876;  158.224
540.574;   22.940; -895.113; -717.796
540.855;  465.072;  435.879;  377.218
541.136;  527.487;   47.878;  139.220
541.416;  282.192; -161.130; -220.766
541.697;  182.903; -274.131; -170.763
541.978;  989.220; -270.135; -315.757
542.259; 1265.467; -211.127; -236.771
542.539;  597.262; -191.116; -186.790
542.820;  183.262;  461.875;  480.225
543.101;  143.080;  -52.145;  -77.738
543.381;   31.717; -638.127; -591.771
543.662;  258.290;  159.873; -254.771
543.942;  558.413; -751.127; -830.770
544.223; 1022.263;  193.878;  161.219
544.504;  644.821; -275.124; -182.777
544.784;  552.874; -592.126; -408.773
545.065; 1575.291;  104.884; -254.791
545.345; 1872.312;  227.881;   14.215
545.626; 1211.264;  -14.113; -108.796
545.906;  832.185;   77.869;   98.235
546.186;  338.528;   92.874;  -95.773
546.467;  181.048;   99.877;  -95.778
546.747;  299.612;  264.884;  327.210
547.027;  351.369;   91.876;  111.223
547.308;  308.112; -376.127; -530.770
547.588;  401.577;  299.871;  371.232
547.868;  193.311;  458.870;  588.235
548.149;  182.499;  609.885;  593.207
548.429;  116.316; -347.127; -299.771
548.709;  171.379; -645.120; -461.784
548.989;  451.097;   84.882;   88.213
549.269; 1973.368;   10.868;  139.239
549.550; 4554.703;  215.877;  117.222
549.830; 4036.932; -758.111; -556.799
550.110;  782.040; -468.110; -320.801
550.390;  761.333; -128.122;  -56.779
550.670; 1098.135; -868.114; -783.795
550.950;  769.597; -509.121; -471.782
551.230;  174.343;  549.879;  460.218
551.510;    4.496; -381.121; -326.782
551.790;   36.648; -173.109; -127.803
552.070;  261.798;  940.877; 1181.223
552.350;  364.716; -492.119; -377.786
552.630;  551.866;   -2.121;   77.219
552.909;  337.417;  181.884;   73.209
553.189;  241.875;  -49.132;   33.237
553.469;  163.941; -703.119; -514.786
553.749;  182.819; -469.127; -357.772
554.029;  148.208;   33.883;  -24.790
554.308;  162.828; -154.115;  -37.794
554.588;   50.186; -196.128; -204.770
554.868;   67.023; -366.121;  -47.782
555.147;  133.600; -114.115;  -46.793
555.427;  547.644; -260.116; -250.792
555.707; 3664.223; -284.115; -200.793
555.986; 4444.110; -719.111; -538.800
556.266; 2259.786;   23.884;   72.210
556.546;   99.221; -888.121; -675.782
556.825;  226.807; -657.114; -556.794
557.105; 1692.184; -125.128;   17.230
557.384; 1974.265;  122.884;  187.209
557.664;  727.268; -717.116; -508.792
557.943;  108.172; -557.121; -411.782
558.222;  175.500; -345.118; -344.788
558.502;  241.026; -116.115;  -76.793
558.781;  486.972;  194.885;  499.208
559.061;  383.400; -232.118; -227.788
559.340;  285.455;  302.883;  353.211
559.619;  642.511;   93.884;  148.210
559.899;  941.132; -239.117; -266.789
560.178;  845.676; -778.115; -593.793
560.457; 2933.334; -623.117; -562.790
560.736; 4143.937; -472.111; -482.800
561.015; 2713.681; -500.128; -502.769
561.295;  362.518;  180.893;  215.193
561.574;  346.098;  119.885;  116.207
561.853;  465.677;  274.891;  303.197
562.132;  461.329;  -45.114;  182.206
562.411;  408.916;  396.879;  553.219
562.690;  127.897; -592.115; -458.792
562.969;  134.021;  472.888;  630.203
563.248;  457.289; 2966.878; 2487.219
563.527;  258.011; -290.111; -408.800
563.806;  367.516; -650.127; -521.771
564.085;  379.583; -297.105; -206.810
564.364;  227.735; -594.117; -405.790
564.643;  456.717; -276.121; -223.781
564.922; 1745.146;  221.890;  397.198
565.201; 1763.924; -640.109; -700.803
565.479;  743.295; -297.115; -219.792
565.758;  298.309; -810.128; -712.770
566.037;  461.926; -155.109; -100.803
566.316;  213.516; -286.116;  -28.791
566.595;   42.223;  -17.115;  -12.793
566.873;   85.613; -166.111;  -79.801
567.152;  -43.004; -490.113; -590.797
567.431;   10.912; -113.116;    6.210
567.709;   21.168; -344.107; -212.807
567.988;  241.557; -810.114; -769.794
568.266;  514.723; -160.115;  -68.793
568.545;  333.031; -644.100; -514.819
568.824;  528.170;  160.885;  356.208
569.102;  514.507; -351.114; -235.794
569.381;  199.569; -492.116; -407.792
569.659;  -43.733; -553.113; -553.796
569.938;   44.612; -743.122; -465.780
570.216;   94.878; -225.109; -225.804
570.494;  -16.965; -632.114; -572.795
570.773;   21.121;  202.879;  114.218
571.051;   10.226; -373.123; -357.778
571.330;   55.314; -221.113; -174.796
571.608;   34.124; -181.098; -173.823
571.886;  -73.170; -671.111; -581.799
572.164;  -52.352; -739.121; -621.782
572.443;  -53.163; -562.105; -512.811
572.721;  -30.666; -399.117; -289.790
572.999;  -31.948; -280.117; -168.788
573.277;   94.580;  379.894;  620.191
573.555;  254.707;   94.894;   37.190
573.834; 1260.202;  -86.117; -114.788
574.112; 1448.470;  880.893;  811.193
574.390;  437.637; -143.111;  -96.801
574.668;    5.947;  -91.112;  -61.797
574.946;  -10.092; -165.106; -187.810
575.224;   19.599;   71.891;  -16.803
575.502;   -8.486; -200.116; -204.791
575.780;  -85.927; -767.112; -829.798
576.058;  215.561; 1589.889; 1004.200
576.336;  -24.583; -210.110; -129.801
576.614;  -43.452; -511.112; -340.798
576.891;   41.478; -711.115; -823.794
577.169;  456.786; -158.108; -285.805
577.447;  530.970;  169.893;  202.193
577.725;  250.578;  629.888;  854.201
578.003;    2.051;  -71.112; -371.798
578.280;   79.846; -208.104; -242.812
578.558;   66.101; -450.115; -422.793
578.836;  119.710; -210.114; -145.795
579.114;   60.821; -630.112; -670.797
579.391;   74.529;   -6.117;  -18.789
579.669;  -61.947; -595.114; -704.794
579.947;  158.767; -326.107; -127.806
580.224;  302.241; -692.107; -524.806
580.502;  301.646;  127.893;   76.193
580.779;   21.960;  -42.117;   75.210
581.057;  -54.221; -584.109; -470.804
581.334; -114.214; -726.102; -695.815
581.612;   42.784;   54.895;  511.190
581.889;  -35.725;  -83.101; -129.818
582.167;  -20.686; -298.099; -190.821
582.444; -103.256; -845.102; -814.817
582.721;   93.645;  657.899;  715.183
582.999;   39.211; -326.100; -167.821
583.276;  471.680; -812.123; -713.779
583.553;  674.814; -364.102; -294.816
583.831;  214.418; -607.104; -631.812
584.108;   54.434;  349.892;  174.195
584.385;   19.411; -122.102;  -98.815
584.662;  -77.936; -651.111; -828.801
584.940;   35.213;  204.889;  204.199
585.217;  -25.609;  -73.113; -303.796
585.494;   36.697;   71.890;  118.198
585.771;  182.229; -250.109; -354.804
586.048;  479.416; -196.113;  -76.796
586.325;  283.241; -721.110; -773.801
586.602;   94.421;  230.896;  213.188
586.879;  -31.467; -499.100; -580.820
587.156;   51.034; -156.105; -331.810
587.433;  -48.408; -701.102; -667.817
587.710;   62.799;  152.888;  234.202
587.987;  294.090; -264.105; -236.811
588.264;  756.075;  315.888;  387.202
588.541; 1273.399;  -61.104;   26.187
588.818; 2561.932;   72.892;  171.196
589.095; 2211.619; -163.104; -174.812
589.371;  355.527; -459.109; -414.804
589.648;    4.170; -581.107; -437.807
589.925;   30.411; -517.114; -621.795
590.202;    4.573; -741.112; -607.798
590.478;   71.391; -166.105;  -73.811
590.755;  230.888; -241.108; -132.806
591.032; 2276.843; -741.110; -699.802
591.308; 3238.490; -732.094; -790.831
591.585; 1643.218; -573.110; -560.802
591.862;  107.294;-1056.102; -950.817
592.138;   56.335; -475.108; -474.805
592.415;  117.272; -486.104; -495.813
592.691; 1390.595;  460.896;  518.188
592.968; 1770.376; -208.098; -123.824
593.244;  836.737; -695.116; -595.790
593.521;   68.394; -105.102;  -42.817
593.797;  -18.841; -810.122; -720.780
594.074;  298.189; -611.096; -588.826
594.350;  624.550;  828.905;  729.172
594.626;  276.889; -303.111; -283.801
594.903;   90.344; -643.101; -645.817
595.179;  169.001;  243.896;  418.187
595.455;   17.847; -136.107; -150.807
595.731;    8.153;  -19.103;  -38.814
596.008;  -33.942; -464.111; -434.800
596.284;   13.935; -187.100; -242.820
596.560;   50.896; -501.093; -493.833
596.836;  186.386; -173.105;  -70.810
597.112;  305.611; -582.108; -437.805
597.388;  270.737;  -49.097;  -48.826
597.665;  117.119;  437.887;  530.203
597.941;  -67.174; -572.089; -658.839
598.217;   15.871; -323.110; -293.802
598.493;  229.431;   61.891; -204.804
598.769;  499.254; -175.100;  -50.819
599.045;  281.389; -490.108; -562.806
599.321;   57.959; -193.100; -261.820
599.597;  116.205; -355.109; -476.804
599.872;  451.999;  409.896;  429.187
600.148;  341.713;  -61.097; -172.826
600.424;  258.469;   91.893;  202.193
600.700;  216.571; -170.107; -280.807
600.976;  113.657; -442.097; -464.825
601.252;  221.052; -226.109; -272.803
601.527;  204.325; -833.104; -840.813
601.803;  133.642; -453.105; -404.812
602.079;  174.754; -124.100; -118.819
602.354;  510.906; -620.092; -531.835
602.630;  783.366; -140.113; -482.796
602.906; 2092.175; -910.101; -863.818
603.181; 6284.666; -627.119; -534.786
603.457; 5343.611;   98.903; -278.826
603.733;  742.550; -605.120; -626.783
604.008;  870.608; -245.106; -164.810
604.284; 2874.671; -636.101; -580.817
604.559; 2482.077;   -3.112;  -42.799
604.835;  464.561; -163.105; -225.810
605.110;  369.415; -732.099; -892.821
605.385;  668.299;  224.907;  267.167
605.661;  589.028; -625.095; -729.829
605.936; 1088.739; -664.108; -737.806
606.211;  920.809;  -17.103; -170.815
606.487;  190.006; -329.114; -376.794
606.762;   13.192; -791.119; -745.786
607.037;  -17.064; -501.105; -433.810
607.313;  -68.954; -589.096; -574.828
607.588;   -4.142; -375.106; -137.810
607.863;   22.249;  -28.101; -143.818
608.138;  153.070;  513.890;  516.198
608.413;   22.694; -576.099; -592.822
608.688;   46.161; -203.108; -267.805
608.964;  183.977; -509.106; -218.809
609.239;  222.584; -107.105; -212.810
609.514;  233.117;  281.895;  240.188
609.789;  632.846; -187.104; -716.812
610.064;  843.120; -435.096; -609.827
610.339;  790.852; -855.109; -799.804
610.614; 1046.860; -131.100; -315.820
610.889;  596.192;  215.895;  107.188
611.163;   23.543; -407.104; -591.812
611.438;   67.707;   81.886; -167.794
611.713;   -6.029; -467.101; -499.817
611.988;   45.823; -144.101; -328.818
612.263;  -38.814; -771.102; -717.815
612.538;  200.666;  385.887;  251.204
612.812;  134.111; -832.100; -911.820
613.087;  122.499; -358.098; -338.823
613.362;  -71.179; -497.107; -557.807
613.637;   37.805;  261.897;  138.186
613.911;  -16.143; -256.092; -345.835
614.186;  114.520; -249.107; -292.807
614.460;  598.202; -842.081; -758.854
614.735;  713.325;  -55.087;  -17.843
615.010;  152.290;   43.912;  -82.841
615.284;  226.260;  360.892;  246.195
615.559;  336.856; -792.092; -955.835
615.833;  289.842;  -76.099;  -87.822
616.108;  -10.507; -225.090; -390.837
616.382;  138.176;  274.913;  402.156
616.656;  143.118; -241.090; -232.837
616.931;  476.442; -785.099; -700.822
617.205;  973.475; -973.104; -979.813
617.480;  909.735;  -91.125;    6.225
617.754;  146.532; -396.125; -128.774
618.028;   14.427; -369.129; -382.768
618.302;   51.159;   73.892;  -25.805
618.577;  -53.593; -371.103; -518.815
618.851;  -60.351; -399.109; -600.803
619.125;  -45.993; -335.134; -378.759
619.399;  -45.674; -244.104; -374.813
619.673;  -57.530; -330.115; -515.792
619.947;  -43.665; -333.114; -448.795
620.222;  -14.611; -198.110; -204.801
620.496;  -15.078;  -47.121;  -96.782
620.770;    9.514; -187.122;  -93.781
621.044;  186.859;  323.895;  346.190
621.318;  692.850; -653.120; -614.783
621.592;  616.648; -430.121; -409.783
621.866;  325.128; -476.112; -572.799
622.140;   19.538; -207.116; -356.791
622.413;   66.758;  138.889;  112.200
622.687;  -36.654; -746.101; -492.817
622.961;   -5.466; -130.108; -143.805
623.235;  -66.842; -633.111; -661.800
623.509; -101.834; -816.105; -848.811
623.783;   -7.983;  -12.107;   48.193
624.056;  -20.024; -254.120; -280.783
624.330;   33.872;   63.888;   -3.797
624.604;   47.910; -271.116; -355.790
624.877;   50.969;  180.890;   26.198
625.151;   41.029; -249.114; -238.794
625.425;  -37.697; -150.103; -283.814
625.698;  -59.864; -367.119; -374.785
625.972;  -88.179; -799.110; -765.802
626.245;   72.362;  685.884;  484.210
626.519;  -54.170; -426.120; -340.784
626.792;  -41.079; -192.107; -380.807
627.066;  -89.118; -485.122; -662.779
627.339;  -95.883; -736.110; -663.802
627.613;   34.354;  351.880;  148.216
627.886;   52.523;  187.891; -612.803
628.160;  -25.375;  312.880; -161.783
628.433;  -85.212; -695.125; -703.775
628.706;  -74.695; -517.120; -615.784
628.979;   25.644;  296.876;  117.223
629.253;  -92.059; -785.119; -833.786
629.526;  327.497; -334.126; -253.772
629.799;  299.527; -641.123; -479.778
630.072;  148.329; -497.128; -516.769
630.346;  -70.713;-1115.116;-1080.790
630.619;  411.047; -467.107; -545.808
630.892;  563.009;  709.889;  593.200
631.165;  293.826;  790.896;  679.187
631.438;  -88.875;-1092.112;-1055.798
631.711;   42.980;  453.877;  257.221
631.984;  -66.043; -523.117; -624.789
632.257;  -59.746; -636.117; -681.789
632.530;  -58.064; -412.119; -433.785
632.803;   28.077; -109.115;    7.207
633.076;  -90.177; -360.123; -422.777
633.349;    0.733;  173.872;  121.231
633.622;  -48.165; -187.119; -240.785
633.895; -105.324; -903.120; -823.783
634.167;  -63.776; -496.126; -525.773
634.440;  -23.782;  -19.116; -137.792
634.713;  -26.985;  -22.119; -120.786
634.986;   69.223;  593.871;  453.233
635.258;  -88.925; -507.115; -597.793
635.531;   98.325;  742.882; -343.788
635.804;  -36.319; -303.117; -318.789
636.077;  -81.035; -830.116; -852.791
636.349;  -22.026; -586.115; -474.793
636.622;  379.821; 1695.874; 1392.228
636.894;  198.956; -474.120; -909.784
637.167;  156.665; -836.127; -789.771
637.439;   17.686; -278.128; -213.770
637.712;  -42.327; -312.126; -293.772
637.984;  -96.685; -635.116; -707.791
638.257;  361.499;  515.877;  488.222
638.529;  559.864; -881.125; -924.776
638.802;  242.529; -508.128; -449.769
639.074; -120.112; -927.122; -952.781
639.346; -102.701; -942.135; -930.757
639.619;   -3.917;  -79.142; -319.744
639.891;    0.957;  -83.122; -168.779
640.163;  -84.716; -689.122; -756.780
640.435;   23.135;  273.878;  103.220
640.708;   11.437;  -72.122; -132.780
640.980;  -31.136; -366.122; -362.781
641.252;  174.766;  -25.121;  -71.781
641.524; 1707.293;  580.879;  573.219
641.796; 1780.520;-1094.121; -907.782
642.068;  317.047; -191.121; -300.782
642.340;  -60.552; -486.121; -566.783
642.613;   36.175;  294.880;  323.217
642.885; -108.598; -787.120; -878.783
643.157;  -33.046; -810.120; -658.784
643.428;   44.356;  170.880;  218.216
643.700;  -64.767; -498.120; -425.784
643.972;  -51.665;  -16.119; -133.785
644.244;  -85.014; -474.119; -559.785
644.516;  -52.837; -250.119; -114.786
644.788;   62.090;  662.881;  548.214
645.060;  -33.683;  -12.119; -124.786
645.332;  -85.006; -525.118; -535.787
645.603;   17.771;  479.882;  342.213
645.875;  -69.002; -334.118; -369.787
646.147;  149.224; 1487.882; 1242.212
646.418;  -72.649; -931.117; -918.788
646.690;  102.528; -714.117; -715.789
646.962;   34.755; -413.117; -451.789
647.233;  -13.268;   15.883;   11.211
647.505; -104.616; -595.117; -475.790
647.776;   11.411;  328.884;  229.210
648.048;   -5.238; -248.116; -418.790
648.320;  -84.436; -752.116; -679.791
648.591; -134.459;-1055.116; -958.791
648.862;  -92.882; -505.116; -577.792
649.134;   11.345;  115.885;  198.208
649.405;  -64.503; -661.115; -618.792
649.677;  -54.226; -475.115; -598.793
649.948;   -9.200; -181.115; -296.793
650.219;  -10.523;  -37.115; -147.793
650.491;  -83.396; -431.114; -520.794
650.762; -120.194; -705.114; -731.794
651.033;  -98.342; -437.114; -424.795
651.304;  -85.065; -743.114; -728.795
651.576;  -65.838; -680.114; -645.795
651.847;  -32.962; -250.113; -140.796
652.118;  -33.185;  -32.113; -189.796
652.389;  -97.908; -639.113; -722.796
652.660;  -42.681; -147.113;  -89.797
652.931; -137.404; -897.112; -871.797
653.202;  -85.127; -382.112; -541.798
653.473;  -60.175; -633.112; -533.798
653.744;  130.901; -595.112; -590.798
654.015;  137.953; -356.112; -303.799
654.286;  -83.370; -642.111; -663.799
654.557;  -45.893; -586.111; -521.799
654.828; -156.241;-1114.111;-1088.800
655.099;  -73.139; -404.111; -291.800
655.370; -104.537; -427.111; -543.801
655.641; -126.111; -656.110; -714.801
655.911; -116.434; -618.110; -638.801
656.182;   51.168;  437.890;  387.198
656.453;   79.695;  830.890;  746.198
656.724;  -77.853; -466.110; -426.802
656.994; -107.701; -553.109; -568.803
657.265;  -99.424; -862.109; -873.803
657.536;  -84.573; -500.109; -377.804
657.806;  -97.621; -561.109; -593.804
658.077; -142.594; -866.109; -950.804
658.347;  -78.967; -523.108; -598.805
658.618; -112.840; -646.108; -694.805
658.888;  -10.463;  -41.108;  112.195
659.159;  -84.686; -432.108; -548.806
659.429;   -2.935; -292.108; -349.806
659.700;   -0.558; -435.107; -390.807
659.970;  -13.106; -370.107; -359.807
660.241;    2.546; -754.107; -921.807
660.511;  462.823; -147.107; -174.808
660.781;   69.500; -793.106; -748.808
661.052;  -40.498; -222.106; -381.808
661.322;  -33.697;   21.894;   -9.809
661.592;   15.505;  257.894;  148.191
661.862;  -73.843; -369.106; -382.810
662.133;  -93.116; -551.105; -502.810
662.403; -127.939; -770.105; -676.810
662.673;  -52.437; -256.105; -213.811
662.943; -110.110; -612.105; -551.811
663.213;  -17.784;  -85.105;  -81.811
663.483;  -87.107; -593.104; -568.812
663.753;  -43.230; -194.104; -152.812
664.023;  -20.703;   68.896;  -32.813
664.293;  -59.501; -319.104; -126.813
664.563; -124.399; -694.104; -648.813
664.833; -114.572; -743.103; -608.814
665.103; -132.646; -730.103; -793.814
665.373; -113.344; -766.103; -806.814
665.643; -104.067; -863.103; -918.815
665.913;   24.535; -534.103; -714.815
666.182;  107.212; -685.102; -719.816
666.452;  245.639;  -22.102;  -89.816
666.722;  -34.609; -724.102; -784.816
666.992; -130.433; -948.102; -921.817
667.261;  -94.281; -824.102; -808.817
667.531;  186.921;  134.899;   45.183
667.801;  547.648; -440.101; -412.818
668.070;  239.200;  714.899;  697.182
668.340; -118.998; -883.101; -840.819
668.609;   83.678;  588.900;  301.181
668.879;  -84.695; -490.100; -558.819
669.149;  -89.418; -539.100; -516.820
669.418; -105.716; -698.100; -726.820
669.688;  -37.589; -482.100; -666.820
669.957;   46.288; -423.099; -546.821
670.226;  -27.110; -268.099; -331.821
670.496;  -90.459; -431.099; -635.822
670.765;  -70.982; -418.099; -501.822
671.034; -126.630; -872.099; -828.822
671.304;  -16.253;   55.902; -111.823
671.573; -145.526;-1085.098; -957.823
671.842;   83.476; -380.098; -294.823
672.112;   14.128; -692.098; -586.824
672.381;   -1.196; -239.098; -214.824
672.650; -130.669;-1005.097;-1021.825
672.919;  -83.942; -631.097; -507.825
673.188; -106.940; -681.097; -878.825
673.457; -136.713;-1101.097;-1143.826
673.726;  -78.386; -579.096; -646.826
673.995;  -42.459; -533.096; -479.826
674.265;  -18.633; -263.096; -333.827
674.534;    4.244; -183.096; -235.827
674.802;    1.046; -618.096; -703.828
675.071;  844.548; -886.095; -801.828
675.340; 3669.100; -464.095; -339.828
675.609; 1214.377;  103.905;   82.171
675.878;   55.554; -949.095; -893.829
676.147;   49.130;  -26.095;   -8.829
676.416;   64.832; -210.094; -294.830
676.685;  693.759; 1000.906; -622.830
676.953;   91.586; -603.094; -452.831
677.222;  -20.812; -193.094; -273.831
677.491;  -35.135;  -24.094; -127.831
677.759;  -11.208;   11.907;  172.168
678.028;  -23.007; -279.093; -222.832
678.297;    8.870;   71.907;  197.168
678.565; -158.628; -898.093; -944.833
678.834;  -57.926; -311.093; -268.833
679.102;  -84.624; -411.092; -391.834
679.371; -128.497; -898.092; -727.834
679.639; -132.520; -797.092; -786.834
679.908; -126.169; -794.092; -724.835
680.176; -149.142; -895.091; -941.835
680.445;  -71.915; -346.091; -352.835
680.713;  -28.863;  -58.091;  -23.836
680.982;  -85.311; -523.091; -525.836
681.250; -111.659; -578.091; -507.837
681.518; -102.557; -534.090; -751.837
681.787;  -29.606; -204.090; -167.837
682.055;  -60.304; -490.090; -422.838
682.323; -160.902; -993.090; -992.838
682.591;    2.925; -216.090; -538.838
682.859;   68.302;    9.911;  -35.839
683.128;   12.279;  232.911;  497.161
683.396; -159.344;-1102.089;-1122.840
683.664;  -36.918; -241.089;   21.160
683.932;   -1.591;  144.911;  -76.840
684.200;  -83.514; -576.088; -320.841
684.468;  -43.462;  -73.088; -124.841
684.736;  -37.685; -214.088; -175.841
685.004; -138.833;-1024.088; -982.842
685.272;  -60.281; -880.088; -774.842
685.540;  -56.730; -499.087; -557.843
685.808;  -65.903; -651.087; -682.843
686.076;  -99.276; -894.087; -969.843
686.343;  -55.549; -601.087; -815.844
686.611;   32.728; -195.087; -224.844
686.879;  380.480; -530.086; -553.844
687.147; 3104.632; -483.086; -480.845
687.414;  905.808;  -12.086; -169.845
687.682;  -18.415; -658.086; -757.846
687.950;  289.412;  259.915;  263.154
688.217;    9.589; -792.085; -760.846
688.485;  -19.009; -632.085; -636.847
688.753;  475.843;  -11.085; -102.847
689.020;  155.345; -820.085; -851.847
689.288; -114.229; -853.084; -787.848
689.555;  -36.052; -195.084; -148.848
689.823;  -40.925; -241.084; -345.849
690.090;  -83.198; -546.084; -651.849
690.358; -151.396; -877.084; -897.849
690.625;    9.281;  120.917;   45.150
690.892;  -84.217; -403.083; -369.850
691.160;   -6.291;   72.917;  -35.850
691.427;  -10.989;  141.917;  130.149
691.694; -130.287; -855.083; -929.851
691.962; -147.385;-1177.082;-1060.852
692.229;   14.617;  127.918;   56.148
692.496;   73.944;  130.918;  -49.852
692.763;   13.196; -164.082; -201.853
693.031;  -70.603; -739.082; -716.853
693.298;  -36.226; -509.081; -368.853
693.565;  249.976; -155.081; -163.854
693.832; 1183.728;   -5.081;   -9.854
694.099;  130.055; -643.081; -642.855
694.366;  -55.993; -882.081; -896.855
694.633;  -62.591; -920.080; -633.855
694.900;  720.360; 4367.920; -114.856
695.167;  392.212; -214.080; -380.856
695.434;   99.964; -646.080; -623.856
695.701;  198.116;  121.921;  -61.857
695.968;  453.293; -365.079; -361.857
696.234;  927.195; -415.079; -646.858
696.501;10459.922; -776.079; -614.858
696.768; 5625.023; -554.079; -617.858
697.035;  343.175; -632.078; -667.859
697.302;   29.927; -448.078; -552.859
697.568;   24.604; -458.078; -497.859
697.835;  -33.244; -683.078; -624.860
698.102;  -11.617; -498.078; -407.860
698.368;   70.735;  384.923;  396.139
698.635;  -25.489;  -47.077; -424.861
698.901;  -20.962; -240.077; -348.861
699.168;   63.115; -534.077; -456.862
699.435;   71.342;  -72.077;  -13.862
699.701;  -94.881; -868.076; -764.862
699.968;   -4.154;  144.924; -441.863
700.234; -101.577; -783.076; -822.863
700.500;  -62.701; -448.076; -539.864
700.767;   -8.149;   -1.075;   26.136
701.033; -133.422;-1015.075; -963.864
701.299;  -44.045; -450.075; -483.865
701.566;   93.032;  950.925;  763.135
701.832;   22.284;  -31.075;  -76.865
702.098; -114.889;-1054.074;-1034.866
702.365;  -90.138;-1098.074;-1030.866
702.631;  -36.386;-1038.074;-1063.867
702.897; 1252.191; -765.074; -676.867
703.163; 2206.343;  348.926;  254.133
703.429;  157.645; -256.073; -273.868
703.695;  -43.578; -796.073; -792.868
703.961;   21.724; -214.073; -210.868
704.227;  -58.575; -630.073; -725.869
704.493;  128.277;  613.927;  510.131
704.759;  -23.846; -565.072; -540.870
705.025;   36.606; -203.072; -194.870
705.291;  -25.067; -666.072; -562.870
705.557;  201.710;  719.928;   34.129
705.823;   49.386; -742.072; -694.871
706.089;  144.963; -307.071; -326.871
706.355;  368.240; -315.071; -244.872
706.620; 5603.542; -776.071; -729.872
706.886; 8328.269; -309.071; -362.873
707.152;  772.846; -818.070; -973.873
707.418;  -13.602;-1153.070;-1186.873
707.683;   12.949; -550.070; -530.874
707.949;  -33.624; -547.070; -578.874
708.215;   -0.572; -129.070; -207.874
708.480;  -34.945; -520.069; -420.875
708.746;  100.782;   68.931;   28.125
709.011;  -75.891; -578.069; -612.876
709.277;  -70.564; -538.069; -543.876
709.542;  -45.338; -428.069; -387.876
709.808;    2.889;  -59.068;   89.123
710.073;  -75.184; -577.068; -695.877
710.339;  -20.432; -242.068; -228.877
710.604;   45.970; -780.068; -845.878
710.869;  324.847; -277.068; -366.878
711.135;  -72.401; -715.067; -628.879
711.400;  -87.925; -507.067; -608.879
711.665;  -74.623; -404.067; -479.879
711.931;  -88.096; -661.067; -677.880
712.196; -131.019; -876.067; -954.880
712.461;   83.683; -402.066; -490.880
712.726;  124.110; -727.066; -771.881
712.991;  -75.013; -647.066; -664.881
713.256;  -40.537; -350.066; -332.882
713.521;  -61.385; -417.065; -381.882
713.787;  -74.858; -454.065; -472.882
714.052;  -11.531; -214.065; -400.883
714.317;  -93.879;-1045.065; -981.883
714.581; 1006.398; -374.065; -268.883
714.846; 1573.550; -822.064; -888.884
715.111;  144.076;  261.936;  257.116
715.376;  -29.947;  -86.064; -223.885
715.641;  -13.470; -365.064; -367.885
715.906;  271.757;   15.936; -551.885
716.171;  125.159;  221.937;  209.114
716.436;   25.211;  -78.063; -104.886
716.700;  -94.012; -818.063; -692.886
716.965; -125.036; -794.063; -807.887
717.230;  -72.484; -339.063; -392.887
717.494;  -22.932;  -40.062; -134.888
717.759;  -73.830; -784.062; -640.888
718.024;   -5.153;  269.938;  250.112
718.288;   77.174;  685.938;  395.111
718.553; -146.049; -803.062; -977.889
718.817; -135.923; -883.061; -899.889
719.082;  -43.521; -115.061; -125.890
719.346; -130.619;-1000.061; -947.890
719.611;  -55.192; -300.061; -255.891
719.875;  -86.365; -568.060; -537.891
720.140;  -72.438; -453.060; -603.891
720.404;   28.339; -136.060; -249.892
720.668;  760.690; -475.060; -411.892
720.933;  326.892;  146.940;  137.108
721.197;  -92.481; -667.059; -600.893
721.461; -123.479; -851.059; -826.893
721.725;  -18.702;  -21.059; -250.894
721.990;  -55.300; -284.059; -204.894
722.254;  -33.898;  -26.059; -108.894
722.518;  -69.372; -286.058; -442.895
722.782; -103.170; -743.058; -594.895
723.046;  121.957;  614.942;  570.105
723.310;   17.009;  374.942;  210.104
723.574;  -95.089; -654.058; -614.896
723.838; -107.687; -576.057; -642.897
724.102;  -36.535; -226.057; -239.897
724.366; -140.884;-1032.057; -978.897
724.630;  -75.807; -749.057; -571.898
724.894;  -79.655; -722.057; -514.898
725.158;   -9.853;   38.944; -295.898
725.422;  -55.076; -394.056; -327.899
725.685;  -65.824; -441.056; -349.899
725.949;  -93.622; -566.056; -519.900
726.213;  -58.346; -732.056; -811.900
726.477;  137.856;-1020.055; -933.900
726.740;  154.908; -274.055; -104.901
727.004;  287.735; -384.055; -510.901
727.268; 3388.112; -442.055; -400.901
727.531; 1023.414; -961.055; -775.902
727.795;  -32.484; -713.054; -673.902
728.059;  -73.608; -552.054; -557.903
728.322;  -67.481; -841.054; -669.903
728.586;    7.246; -692.054; -701.903
728.849;  -87.152; -695.053; -756.904
729.112; -109.700; -812.053; -912.904
729.376; -128.623; -959.053; -905.904
729.639;  -64.921; -536.053; -536.905
729.903;  -86.695; -733.053; -699.905
730.166;  -59.468; -437.052; -399.906
730.429;  -22.516; -317.052; -468.906
730.693;  -74.839; -355.052; -894.906
730.956;  184.988;  810.948;  651.093
731.219;  662.265; -310.052; -103.907
731.482;   94.492;-1003.051; -894.907
731.745;   91.668; -794.051; -935.908
732.009;   11.495;  -30.051;   50.092
732.272;  -97.428; -904.051; -771.909
732.535;  -42.101; -300.051; -310.909
732.798; -147.324;-1083.050;-1166.909
733.061;  -52.722; -430.050; -456.910
733.324;   -5.395;   31.950; -180.910
733.587;   53.206;  290.950;  365.090
733.850;  -79.717; -973.049;-1050.911
734.113;   28.985;   33.951;   32.089
734.376;  -15.613; -328.049; -447.912
734.639;  218.589; 1188.951; 1011.088
734.901;   58.441; -180.049; -402.912
735.164;  442.918; -883.048; -837.913
735.427; 1272.744; -166.048; -355.913
735.690;  126.796; -205.048; -234.913
735.952;  -43.327; -923.048; -925.914
736.215;   -8.450;-1113.048;-1009.914
736.478;   31.777; -771.047; -774.915
736.740;  193.754;   33.953;  129.085
737.003;  568.006; -658.047; -672.915
737.266; 3875.882;  -94.047;   46.084
737.528;  430.659; -682.047; -660.916
737.791;  314.436; -316.046; -327.916
738.053;  780.763;  465.954;  649.083
738.316;10483.190; -162.046; -136.917
738.578; 8337.817; -770.046; -736.918
738.841;  461.869; -382.046; -446.918
739.103;  159.095; -875.045; -777.918
739.365;  498.497;   79.955;  -69.919
739.628;   -8.651; -884.045; -805.919
739.890;  -18.449; -758.045; -710.919
740.152;  -36.522; -692.044; -754.920
740.414;   -0.170; -408.044; -359.920
740.677;  -43.343; -785.044; -634.921
740.939;  -38.142; -587.044; -487.921
741.201;  237.660; -432.044; -572.921
741.463;   33.987; -689.043; -745.922
741.725;   11.814;  -21.043; -199.922
741.987;   37.991;  220.957;  116.078
742.249;  -10.957; -751.043; -859.923
742.511;  207.819; -703.043; -794.923
742.773;   -1.729; -546.042; -546.924
743.035;  135.948;  796.958;  533.076
743.297;  -59.975; -963.042;-1013.924
743.559;  717.877; -278.042; -262.925
743.821;   65.954; -735.042; -744.925
744.083;   11.681;  -44.041; -149.925
744.345;  -98.693; -869.041; -892.926
744.607;   27.909;   75.959;  122.074
744.868;  -56.464; -490.041; -554.927
745.130;  -99.162; -994.041;-1008.927
745.392;   26.365;   -1.040;  -44.927
745.653;  -14.083; -411.040; -378.928
745.915;  131.169;  896.960;  631.072
746.177;   61.445;   35.960;  -43.928
746.438;  -11.503; -428.040; -543.929
746.700;  -33.701; -947.039; -988.929
746.961;    0.876; -659.039; -740.930
747.223;  136.903; -190.039;  -74.930
747.484;   78.355; -391.039; -471.930
747.746;  135.357;  -23.038; -106.931
748.007;   98.508; -647.038; -689.931
748.269;  282.035; -468.038; -440.931
748.530;  483.187; -852.038; -638.932
748.791;  257.089; -354.038; -420.932
749.053;  429.516;  286.963;  163.067
749.314;  453.943; -236.037; -169.933
749.575;  502.970; -945.037; -905.933
749.836;  838.146; -217.037;   86.066
750.098; 2174.148;  -60.037;  -21.934
750.359;34778.700;  414.964;  555.066
750.620;10008.327; -121.036; -220.935
750.881; 1015.479; -585.036; -513.935
751.142; 1293.081; -950.036; -938.936
751.403;15836.683; -789.036; -705.936
751.664; 8049.359;-1034.035; -999.936
751.925;  506.136; -175.035; -262.937
752.186;  277.713; -298.035; -278.937
752.447;  133.690; -590.035; -445.937
752.708;   44.167; -532.035; -648.938
752.969;   16.219; -566.034; -576.938
753.230;   -4.904; -777.034; -672.939
753.491;   12.097; -650.034; -631.939
753.751;   45.299;  109.966;   19.061
754.012;   89.501;  258.967;  181.060
754.273;   52.378; -174.033;  -71.940
754.534;   14.055; -487.033; -580.940
754.794;  -93.468; -926.033; -911.941
755.055;  140.634; 1051.967;  881.059
755.316;  -59.015; -700.032; -566.942
755.576;  -23.688; -606.032; -576.942
755.837;  -41.936; -527.032; -695.942
756.097;  -30.434; -530.032; -564.943
756.358;  -78.207; -725.032; -770.943
756.618;  -44.780; -705.031; -641.943
756.879;  -13.853; -254.031; -349.944
757.139; -116.002;-1098.031;-1116.944
757.400;  -65.700; -538.031; -553.945
757.660;  -17.548; -365.031; -401.945
757.920;   -1.496; -266.030; -228.945
758.181;   -4.369; -468.030; -351.946
758.441;  -88.592; -870.030; -809.946
758.701;  -19.140; -308.030; -215.946
758.961;  -24.564; -220.030; -278.947
759.222;  -43.712; -574.029; -502.947
759.482;  -89.185; -683.029; -723.948
759.742;  -72.033; -706.029; -547.948
760.002;   -5.231;  -83.029; -143.948
760.262;   39.771;   50.972;  182.051
760.522;  -46.977; -498.028; -574.949
760.782;  -59.426; -738.028; -612.949
761.042;  -34.474; -618.028; -573.950
761.302;   51.253;   55.972;  -18.950
761.562;   37.280; -164.027; -154.951
761.822;   77.507; -710.027; -551.951
762.082;  -31.366;-1104.027;-1093.951
762.342;   69.636; -328.027; -403.952
762.601;   69.787; -567.027; -506.952
762.861;  363.239; -281.026; -207.952
763.121;  409.041; -406.026; -411.953
763.381; 7067.543; -499.026; -485.953
763.640; 9073.970; -139.026; -307.954
763.900;  403.322; -242.026; -203.954
764.160;  104.374; -458.025; -491.954
764.419;    5.150; -726.025; -782.955
764.679;  -73.873; -795.025; -726.955
764.939;   -8.621; -124.025; -210.955
765.198;  -71.969; -608.025; -563.956
765.458;  -82.317; -710.024; -612.956
765.717;  -83.290; -454.024; -590.957
765.976;  -55.938; -428.024; -411.957
766.236;  -88.562; -475.024; -610.957
766.495;   20.565;  260.977;   73.042
766.755; -105.058;-1090.023; -987.958
767.014;    1.994; -594.023; -665.958
767.273;  -54.254; -373.023; -397.959
767.533;  -47.002; -228.023; -307.959
767.792;  -34.775; -151.022; -188.960
768.051;  -42.274; -228.022; -276.960
768.310;  -78.372; -546.022; -650.960
768.569;  -11.570; -161.022;    4.039
768.828;  -32.143; -285.022; -363.961
769.088; -107.266;-1050.021; -942.961
769.347;  -88.164; -755.021; -599.962
769.606;  -83.787; -876.021; -857.962
769.865; -122.461;-1016.021;-1033.963
770.124;   -4.234; -411.021; -336.963
770.383;  -53.482; -778.020; -910.963
770.641;   13.245; -398.020; -400.964
770.900;  -64.553; -953.020; -846.964
771.159;  -23.001; -851.020; -951.964
771.418;   -3.749; -917.020; -779.965
771.677;  143.327; -224.019; -293.965
771.936;  148.929; -794.019; -865.966
772.194; 1992.406; -465.019; -437.966
772.453;11881.608; -213.019; -391.966
772.712;  868.410;  416.982;  329.033
772.970;  112.962;   32.982;   63.033
773.229;   89.514;  -22.018;  102.033
773.488;  -79.635; -814.018; -770.968
773.746;   59.342;  296.982;  335.032
774.005;    5.569;  190.983;  -22.969
774.263;    7.221;  243.983;  177.031
774.522;  -48.577; -422.017; -548.969
774.780;  -67.525; -484.017; -417.970
775.039;  -94.698; -551.017; -531.970
775.297;  -20.972; -135.016; -351.970
775.555; -108.395; -489.016; -612.971
775.814; -106.143; -618.016; -570.971
776.072; -131.091; -749.016; -740.971
776.330;  -94.814; -630.016; -520.972
776.589; -135.812; -703.015; -721.972
776.847; -116.385; -645.015; -624.973
777.105; -175.584;-1016.015;-1032.973
777.363;  -75.982; -459.015; -454.973
777.621; -139.305; -660.015; -717.974
777.879;  -23.303;  -42.014;   32.026
778.138; -108.351; -554.014; -717.974
778.396; -100.174; -585.014; -526.975
778.654; -156.173;-1015.014; -970.975
778.912;  -48.346; -269.014; -371.976
779.170; -138.469; -880.013; -803.976
779.427; -141.767; -922.013; -897.976
779.685; -144.115; -880.013; -832.977
779.943;  -78.238; -654.013; -593.977
780.201; -161.236; -964.012; -883.978
780.459; -101.335; -651.012; -610.978
780.717;  -90.233; -440.012; -390.978
780.974; -111.831; -449.012; -490.979
781.232;  -82.829; -358.012; -338.979
781.490;  -83.477; -551.011; -472.979
781.747; -105.725; -555.011; -476.980
782.005;   21.252;  462.989;  254.020
782.263; -182.222; -542.011;-1004.981
782.520;  -72.670; -326.011; -501.981
782.778; -186.118;-1013.010;-1051.981
783.035; -163.391; -962.010; -938.982
783.293;  -73.064; -248.010; -206.982
783.550;  -47.337; -134.010; -198.982
783.808; -151.060; -764.010; -776.983
784.065; -156.384; -745.009; -874.983
784.322;  -58.657;   25.991;  -86.984
784.580; -140.805; -915.009; -771.984
784.837; -104.828; -392.009; -466.984
785.094; -125.201; -783.009; -762.985
785.352;  -78.099; -304.008; -404.985
785.609; -101.272; -934.008; -839.985
785.866; -107.346; -345.008; -401.986
786.123;  -76.169; -639.008; -583.986
786.380; -101.017; -665.008; -604.987
786.637;  -59.240; -225.007; -380.987
786.895;  -23.963; -456.007; -543.987
787.152;  -42.086; -135.007; -267.988
787.409;  -37.559; -123.007; -225.988
787.666;  -89.258; -299.006; -378.988
787.923; -116.456; -616.006; -695.989
788.179; -100.029; -551.006; -584.989
788.436; -121.227; -585.006; -585.990
788.693;  -40.450;  -92.006;  -87.990
788.950;  109.502; -125.005; -112.990
789.207;  226.654; -381.005; -372.991
789.464;  -61.570; -161.005; -301.991
789.720;   -4.193;  150.995;  110.009
789.977; -170.766;-1003.005; -671.992
790.234;  -31.564;   44.996;  -66.992
790.490; -152.237; -884.004;-1031.993
790.747;  -19.660;  -85.004;   22.007
791.004;  -30.933; -426.004; -348.993
791.260;  -69.657; -430.004; -560.994
791.517; -106.730; -843.003; -788.994
791.773;  -46.528; -379.003; -342.994
792.030; -125.476; -596.003; -660.995
792.286;  -80.899; -686.003; -636.995
792.543;  -22.472;  -74.002; -159.995
792.799;  -46.420; -584.002; -382.996
793.055; -146.994;-1179.002;-1210.996
793.312;  -86.292; -827.002; -816.997
793.568;  -62.090; -746.002; -599.997
793.824;    3.787; -226.001; -284.997
794.081;   13.814; -447.001; -508.998
794.337;   66.566; -664.001; -561.998
794.593; 1125.618; -319.001; -271.999
794.849; 6899.794; -746.001; -772.999
795.105;  407.621; -270.000; -261.999
795.361;   29.473; -490.000; -457.000
795.617;  -60.125; -875.000; -945.000
795.873;  -49.675; -360.000; -407.000
796.129;  -40.700; -368.000; -306.000
796.385;  -14.775; -124.000; -156.000
796.641;   55.925;  412.000;  550.000
796.897;  -80.500; -666.000; -635.000
797.153;   76.925;  453.000;  357.000
797.409;  -89.775; -785.000; -868.000
797.665;  -74.625; -625.000; -732.000
797.921;  -71.950; -775.000; -762.000
798.176;  -41.250; -744.000; -747.000
798.432;  -33.825; -824.000; -596.000
798.688;  -82.200;-1174.000;-1078.000
798.943;   80.750; -165.000; -147.000
799.199;   12.225;-1005.000; -959.000
799.455;  242.800;  369.000;  316.000
799.710;  153.700; -813.000; -380.000
799.966;  325.825; -162.000; -160.000
800.221;  503.075; -638.000; -721.000
800.477; 9687.850; -743.000; -710.000
800.732;10453.850; -773.000; -800.000
800.988;  682.675;  205.000;  -19.000
801.243; 1663.775; -454.000; -344.000
801.498; 8848.325; -814.000; -739.000
801.754;  566.075; -289.000; -163.000
802.009;  113.625; -257.000; -335.000
802.264;  -30.350; -967.000;-1033.000
802.520;   30.075;  222.000;   -3.000
802.775;  -39.950; -524.000; -359.000
803.030;   59.625;  395.000;  356.000
803.285; -119.325; -840.000; -903.000
803.540;  -58.250; -686.000; -699.000
803.795;  -42.925; -648.000; -583.000
804.051;  -31.625; -279.000; -346.000
804.306;    4.450;  168.000;  128.000
804.561;  142.675;  451.000;  362.000
804.816;  128.500;  714.000;  861.000
805.071;   18.125; -185.000; -280.000
805.325;  212.350; -257.000; -427.000
805.580;  -90.725; -841.000; -877.000
805.835;  -14.125; -204.000; -297.000
806.090;  -63.025; -760.000; -676.000
806.345;  -35.575; -344.000; -264.000
806.600;  -12.425; -549.000; -632.000
806.854;  -34.025; -408.000; -538.000
807.109;    5.900; -493.000; -577.000
807.364;   -1.600; -407.000; -328.000
807.618;    9.475; -415.000; -381.000
807.873;   48.925; -470.000; -494.000
808.128;  105.825; -257.000; -518.000
808.382;  106.775; -224.000; -332.000
808.637;   71.550; -440.000; -511.000
808.891;  173.000; -257.000; -180.000
809.146;  131.925; -902.000; -794.000
809.400;  264.750; -848.000; -923.000
809.654;  330.975; -779.000; -551.000
809.909;  481.950; -841.000; -927.000
810.163; 5607.475; -813.000; -651.000
810.418;17625.875; -940.000; -861.000
810.672; 1144.650; -685.000; -690.000
810.926;  730.075; -993.000; -973.000
811.180; 1413.700; -439.000; -372.000
811.434;31513.800;  240.000;  135.000
811.689;15680.300; -231.000; -365.000
811.943;  738.100; -936.000; -953.000
812.197;  400.375; -893.000; -671.000
812.451;  148.900; -379.000; -514.000
812.705;    2.650; -809.000; -619.000
812.959;   18.625; -263.000; -388.000
813.213;    2.875; -283.000; -209.000
813.467;   64.125;  470.000;  253.000
813.721;  -96.800; -764.000; -792.000
813.975; -123.550; -826.000; -877.000
814.229;   47.350;  430.000;  353.000
814.482;  -73.025; -517.000; -566.000
814.736; -118.575; -766.000; -744.000
814.990; -136.900; -779.000; -872.000
815.244;  -39.150; -228.000; -285.000
815.497;  -98.375; -636.000; -601.000
815.751;   -9.500; -141.000;   82.000
816.005;  -90.350; -470.000; -586.000
816.258;  -55.275; -510.000; -363.000
816.512; -107.250; -693.000; -610.000
816.766;    4.050;  121.000;  157.000
817.019;   16.600;  148.000;  149.000
817.273; -109.650;-1000.000; -802.000
817.526;  -46.600; -206.000; -173.000
817.779;  -40.550;-1049.000; -960.000
818.033;  -74.050; -693.000; -807.000
818.286; -112.825; -725.000; -792.000
818.540;  -85.600; -403.000; -403.000
818.793;  -65.250; -402.000; -489.000
819.046; -111.925; -582.000; -520.000
819.299;  -41.550; -157.000; -166.000
819.553; -109.725; -552.000; -592.000
819.806; -159.750;-1016.000; -838.000
820.059;  -59.025; -334.000; -354.000
820.312;   13.300;  152.000;  185.000
820.565;  -17.250;  110.000;  -27.000
820.818;  -53.900;  -59.000; -173.000
821.071; -181.400;-1041.000; -957.000
821.324; -112.925; -536.000; -540.000
821.577; -115.650; -457.000; -483.000
821.830;  -63.875; -270.000; -172.000
822.083; -138.000; -733.000; -288.000
822.336;  -50.175; -261.000; -167.000
822.589; -134.875; -805.000; -688.000
822.842; -129.875; -875.000; -770.000
823.094; -179.000;-1076.000;-1114.000
823.347; -122.775; -925.000; -729.000
823.600;    9.050;  402.000;  187.000
823.853;  -45.350; -311.000; -267.000
824.105;  -79.500; -331.000; -575.000
824.358;  -92.675; -617.000; -716.000
824.611;   19.000;  234.000;   40.000
824.863;  -42.175; -612.000; -591.000
825.116;   30.275;  -33.000;   27.000
825.368;   60.550; -366.000; -372.000
825.621;  146.175; -186.000; -240.000
825.873;   81.750; -704.000; -737.000
826.126;  517.250; -669.000; -641.000
826.378;11088.800; -389.000; -505.000
826.630; 3469.650; -890.000; -898.000
826.883;   61.750; -754.000; -693.000
827.135;   40.650; -279.000; -270.000
827.387; -114.200; -893.000; -839.000
827.639;  -32.575;  -86.000;   32.000
827.892; -117.050; -742.000; -582.000
828.144; -142.300; -848.000; -804.000
828.396;  -34.150;  104.000;  -80.000
828.648; -106.575; -440.000; -333.000
828.900; -137.525; -702.000; -795.000
829.152; -125.275; -684.000; -683.000
829.404;  -59.925; -215.000; -267.000
829.656;  -11.425;  321.000;  214.000
829.908;  -14.250;  393.000;  229.000
830.160; -177.300;-1064.000;-1047.000
830.412;  -95.500; -481.000; -430.000
830.664; -131.300; -557.000; -665.000
830.916;  -67.125; -268.000; -206.000
831.167; -179.700;-1073.000; -951.000
831.419; -108.850; -623.000; -566.000
831.671; -154.500; -764.000; -809.000
831.923;  -79.050; -311.000; -447.000
832.174;  -92.700; -273.000; -331.000
832.426; -106.875; -493.000; -582.000
832.678; -192.800;-1043.000;-1091.000
832.929; -153.575; -947.000; -935.000
833.181;  -63.775; -575.000; -677.000
833.432;  -38.525;  -59.000; -186.000
833.684;  -31.850;  112.000;  -27.000
833.935; -112.500; -610.000; -566.000
834.187; -143.475; -829.000; -823.000
834.438;  -39.800;  -58.000;  -25.000
834.689;  -64.875; -255.000; -123.000
834.941;  -53.475; -343.000; -244.000
835.192; -105.300; -590.000; -533.000
835.443; -109.750; -419.000; -506.000
835.695;  -29.275;  138.000;  -16.000
835.946;  -87.450; -608.000; -378.000
836.197; -109.750; -599.000; -622.000
836.448;  -92.350; -528.000; -395.000
836.699;  -55.700; -253.000; -341.000
836.950;  -20.775;   72.000;    7.000
837.201; -158.575;-1003.000; -987.000
837.452;  -44.275; -356.000; -170.000
837.703; -114.650; -791.000; -737.000
837.954;  -39.600; -205.000; -365.000
838.205; -101.800;-1029.000;-1008.000
838.456;  159.200; -196.000; -282.000
838.707;   14.650; -423.000; -519.000
838.958;   -0.400; -634.000; -647.000
839.209;  257.125;   18.000;   40.000
839.460;  118.850; -439.000; -201.000
839.710;  153.650; -135.000; -297.000
839.961;  420.275;  730.000;  612.000
840.212;  313.725; -382.000; -497.000
840.462; 1038.325; -328.000; -277.000
840.713;16863.500; -571.000; -536.000
840.964; 8526.950;  -62.000; -143.000
841.214;  538.650; -384.000; -624.000
841.465;  567.575; -214.000; -141.000
841.715;  511.200; -417.000; -380.000
841.966;  625.850; -746.000; -685.000
842.216; 7357.600; -330.000; -431.000
842.466;34524.750; -169.000; -313.000
842.717; 2433.375; -964.000; -952.000
842.967;  319.350; -635.000; -641.000
843.217;  281.525;   20.000;   28.000
843.468;   73.650; -104.000; -132.000
843.718;  -35.075; -718.000; -726.000
843.968;  -85.575; -837.000; -765.000
844.218;    7.000; -315.000; -262.000
844.469;  -32.425; -577.000; -561.000
844.719; -104.725; -537.000; -682.000
844.969;  -88.725; -550.000; -580.000
845.219; -150.150; -814.000; -862.000
845.469;  -74.275; -392.000; -342.000
845.719; -139.175; -792.000; -884.000
845.969;  -12.900;  119.000;  174.000
846.219; -121.675; -738.000; -720.000
846.469;   20.050;  464.000;  432.000
846.718;  -57.875; -115.000;   31.000
846.968; -120.900; -827.000; -827.000
847.218;  -61.500; -224.000; -371.000
847.468; -100.675; -586.000; -555.000
847.718; -152.175; -827.000; -798.000
847.967; -131.375; -826.000; -915.000
848.217;  -88.225; -449.000; -569.000
848.467;  -64.325; -405.000; -376.000
848.716; -114.775; -708.000; -725.000
848.966;   -5.700; -372.000; -358.000
849.215;  -81.125; -428.000; -419.000
849.465;  -78.975; -785.000; -615.000
849.714; -152.900;-1132.000;-1150.000
849.964;  -60.425; -551.000; -613.000
850.213;  -35.700; -393.000; -355.000
850.463;   77.450;  137.000;  340.000
850.712;    3.625; -542.000; -567.000
850.961;   22.625; -739.000; -678.000
851.211;   90.400; -513.000; -504.000
851.460;  172.275; -635.000; -650.000
851.709;  522.500;  -25.000;   18.000
851.958; 9333.600; -912.000; -750.000
852.208;14264.325; -859.000; -879.000
852.457;  586.800; -181.000;  -13.000
852.706;   83.500; -791.000; -823.000
852.955;   22.725; -507.000; -528.000
853.204;  -68.625; -521.000; -461.000
853.453;  -66.200; -418.000; -458.000
853.702; -119.050; -660.000; -750.000
853.951;  -94.975; -532.000; -520.000
854.200; -118.500; -613.000; -562.000
854.449; -112.000; -695.000; -661.000
854.698; -112.900; -340.000; -279.000
854.946;  -77.225; -181.000; -284.000
855.195; -161.200; -843.000; -868.000
855.444;  -94.425; -395.000; -420.000
855.693; -128.275; -345.000; -432.000
855.941;  -88.125; -387.000; -516.000
856.190;  -75.750; -256.000; -382.000
856.439; -132.550; -652.000; -703.000
856.687;  -63.000;  -99.000;  -72.000
856.936; -116.525; -621.000; -323.000
857.184; -180.775;-1067.000;-1020.000
857.433; -107.325; -423.000; -512.000
857.681; -160.300; -989.000; -953.000
857.930;  -95.625; -282.000; -433.000
858.178; -169.200; -856.000; -929.000
858.427; -150.775; -802.000; -781.000
858.675; -127.025; -377.000; -544.000
858.923;  -97.225; -527.000; -819.000
859.172; -186.675;-1094.000;-1070.000
859.420;  -87.875; -339.000; -239.000
859.668; -140.950; -624.000; -628.000
859.916;  -24.825;  109.000;  115.000
860.164; -131.425; -699.000; -603.000
860.413;  208.950; -878.000; -696.000
860.661;  230.600; -709.000; -577.000
860.909;  -85.550; -339.000; -325.000
861.157; -102.500; -277.000; -444.000
861.405; -125.400; -534.000; -670.000
861.653;   -3.375;  310.000;  310.000
861.901;  153.950; -543.000; -613.000
862.149;   17.175; -801.000; -824.000
862.396;  -75.750; -297.000; -187.000
862.644;  -86.075; -368.000; -347.000
862.892;  -38.900;   98.000;  138.000
863.140; -114.275; -549.000; -530.000
863.388; -147.475; -815.000; -759.000
863.635; -125.525; -642.000; -601.000
863.883;  -13.800;  231.000;  190.000
864.131; -106.450; -288.000; -357.000
864.378; -134.000; -675.000; -540.000
864.626; -103.750; -347.000; -415.000
864.873; -113.575; -556.000; -505.000
865.121; -135.875; -714.000; -799.000
865.368;  -42.675; -173.000;   75.000
865.616;  -53.450;  -33.000;  -40.000
865.863;  -68.225; -462.000; -506.000
866.111; -116.675; -795.000; -824.000
866.358;   37.100; -426.000; -420.000
866.605; 2157.100;  -64.000; -804.000
866.853; 2821.275; -621.000; -537.000
867.100;  -12.025; -728.000; -775.000
867.347;  -91.525; -672.000; -611.000
867.594;  -89.925; -740.000; -714.000
867.841;   70.800;   97.000;   17.000
868.089; -146.875; -746.000; -698.000
868.336;  -94.250; -477.000; -420.000
868.583; -144.825; -637.000; -741.000
868.830;  -45.175; -131.000; -170.000
869.077; -165.475; -859.000; -787.000
869.324; -127.450; -502.000; -458.000
869.571; -148.725; -398.000; -430.000
869.818; -113.650; -485.000; -439.000
870.065; -118.250; -439.000; -513.000
870.311; -111.350; -456.000; -542.000
870.558; -118.775; -332.000; -311.000
870.805;  -87.050; -320.000; -384.000
871.052; -108.025; -494.000; -369.000
871.298;  -54.625; -204.000; -131.000
871.545;  -85.800; -151.000; -185.000
871.792;  -90.925; -173.000; -222.000
872.038;  -72.425;   43.000; -126.000
872.285; -123.175; -496.000; -387.000
872.532; -111.225; -357.000; -387.000
872.778;   -3.900;  556.000;  403.000
873.025;  -99.000; -384.000; -359.000
873.271;   11.250;  501.000;  578.000
873.517;  -47.250; -133.000; -209.000
873.764;  -43.750; -193.000;  -80.000
874.010;  -85.025; -143.000; -230.000
874.257;  -45.575;  123.000;   90.000
874.503; -139.425; -579.000; -479.000
874.749;  -74.200;   31.000;  275.000
874.995;  -75.450;  -80.000;  -20.000
875.242; -130.100; -540.000; -478.000
875.488; -113.000; -414.000; -439.000
875.734;  -50.450; -106.000; -234.000
875.980;  104.425; -872.000;-1032.000
876.226;  371.675; -157.000; -255.000
876.472;   -3.975;  343.000;  237.000
876.718;  -44.375;  184.000;  158.000
876.964;  -57.600;   56.000;   55.000
877.210; -135.625; -547.000; -677.000
877.456; -150.300; -630.000; -557.000
877.702; -174.600; -821.000; -832.000
877.948; -136.350; -377.000; -497.000
878.193;   12.350;  361.000;  255.000
878.439; -104.975; -487.000; -472.000
878.685;  -85.750; -272.000; -343.000
878.931; -137.650; -618.000; -676.000
879.176;  -69.475; -201.000; -201.000
879.422; -177.775; -933.000; -820.000
879.668;   59.100;   10.000;   79.000
879.913;  130.425;   53.000;  137.000
880.159;  -60.450; -112.000;  -17.000
880.404;  -69.175; -152.000; -162.000
880.650;  -44.500;   91.000;  141.000
880.895; -157.750; -670.000; -710.000
881.141; -120.675; -454.000; -428.000
881.386; -137.775; -503.000; -658.000
881.631;  -83.350; -311.000; -166.000
881.877;  -52.275;  112.000;  -13.000
882.122; -125.325; -684.000; -600.000
882.367; -104.375; -136.000; -186.000
882.612;  -62.825;  -80.000; -176.000
882.858; -178.475; -877.000; -823.000
883.103; -100.475; -297.000; -267.000
883.348; -157.725; -759.000; -852.000
883.593; -138.675; -677.000; -602.000
883.838;  -81.425; -311.000;  -24.000
884.083;   20.625;  353.000;  288.000
884.328;  -94.300; -564.000; -545.000
884.573;  -56.475; -196.000; -143.000
884.818;  129.925; -694.000; -531.000
885.063;  200.225; -348.000; -315.000
885.308; -116.200; -475.000; -398.000
885.553;  -12.900;  245.000;  325.000
885.797; -137.875; -545.000; -615.000
886.042;  -46.700;    8.000;   58.000
886.287;  -94.250; -253.000; -211.000
886.532;  -52.325;   26.000;  204.000
886.776; -104.975; -407.000; -525.000
887.021; -138.575; -621.000; -574.000
887.265; -159.350; -685.000; -689.000
887.510; -111.775; -557.000; -496.000
887.755; -108.325; -194.000; -164.000
887.999; -145.025; -552.000; -575.000
888.244;  -58.900;  -58.000;  161.000
888.488;  -17.525;  371.000;  393.000
888.732; -126.900; -368.000; -520.000
888.977; -128.275; -622.000; -567.000
889.221; -151.600; -683.000; -659.000
889.465; -124.775; -422.000; -566.000
889.710;  -94.575;  -56.000; -299.000
889.954;    6.325;  579.000;  467.000
890.198; -136.450; -584.000; -707.000
890.442; -160.350; -716.000; -712.000
890.687; -175.625; -800.000; -753.000
890.931;  -97.950; -273.000; -210.000
891.175; -144.100; -502.000; -500.000
891.419;  -78.825; -105.000; -110.000
891.663;  -99.650; -239.000; -112.000
891.907; -160.825; -801.000; -545.000
892.151; -181.375; -920.000; -815.000
892.395; -109.850; -274.000; -387.000
892.638;  -36.675;  408.000;  291.000
892.882; -168.675; -780.000; -867.000
893.126;   -4.600;  758.000;  558.000
893.370;  -92.800; -167.000; -168.000
893.614; -140.625; -714.000; -715.000
893.857; -107.275; -183.000; -197.000
894.101; -126.725; -527.000; -631.000
894.345;  -50.700;  300.000;  150.000
894.588;   -2.675;  569.000;  380.000
894.832;  -78.200; -178.000;  -84.000
895.075; -105.850;   15.000;  -92.000
895.319; -129.500; -552.000; -420.000
895.563; -122.775; -413.000; -353.000
895.806; -135.850; -628.000; -741.000
896.049;  -90.700; -576.000; -368.000
896.293;   64.525;  527.000;  405.000
896.536;  -81.100; -465.000; -468.000
896.779;  -54.375; -149.000;   -1.000
897.023; -151.650; -751.000; -714.000
897.266;  -44.650;  325.000;  269.000
897.509; -183.550; -900.000; -901.000
897.752;  -39.825;  149.000;  171.000
897.996; -195.600; -972.000; -864.000
898.239;  -43.725;  168.000;  102.000
898.482; -144.350; -431.000; -453.000
898.725;  -35.700;  101.000;   53.000
898.968; -167.150; -609.000; -744.000
899.211; -114.100; -513.000; -361.000
899.454; -131.925; -633.000; -539.000
899.697;  -69.200;   90.000;  -43.000
899.940; -179.850; -761.000; -757.000
900.182; -109.500; -335.000; -405.000
900.425; -100.900; -150.000; -298.000
900.668;  -18.800;  491.000;  350.000
900.911; -121.225; -292.000; -345.000
901.154;  -50.475;  141.000;   -3.000
901.396; -166.300; -407.000; -412.000
901.639; -131.275; -430.000; -496.000
901.882; -186.450; -790.000; -809.000
902.124;  -86.150;  -29.000; -143.000
902.367; -132.475; -315.000; -361.000
902.609; -134.025; -476.000; -453.000
902.852; -104.975; -108.000; -260.000
903.094; -127.700; -458.000; -337.000
903.337;  -65.700;  -26.000;   53.000
903.579; -118.150; -228.000; -441.000
903.821; -153.425; -597.000; -744.000
904.064;  -60.025;   85.000;  127.000
904.306; -101.825; -126.000; -166.000
904.548;  -91.325; -152.000; -366.000
904.790; -116.875; -195.000; -340.000
905.033; -124.325; -625.000; -577.000
905.275; -140.300; -513.000; -524.000
905.517;   32.500;  468.000;  256.000
905.759;  -74.300; -667.000; -761.000
906.001; -101.025; -322.000; -369.000
906.243;  -67.175; -162.000; -224.000
906.485;   83.950; -265.000; -207.000
906.727;  108.700; -499.000; -542.000
906.969;  -47.625;  -30.000; -135.000
907.211;   76.025; -316.000; -382.000
907.453;  256.175; -188.000; -237.000
907.695;   15.650; -158.000; -385.000
907.936;   42.950;  818.000;  706.000
908.178;  -62.125;   92.000; -135.000
908.420;  -62.700; -111.000; -162.000
908.662; -144.675; -633.000; -682.000
908.903;  -87.200; -208.000; -123.000
909.145;  -71.575; -240.000; -305.000
909.386;    9.900;  315.000;  280.000
909.628;   10.675;  363.000;  397.000
909.870;    2.425;   29.000;  264.000
910.111;  -85.500; -809.000; -949.000
910.353;   17.125; -123.000; -161.000
910.594;   -3.225; -574.000; -606.000
910.835;   90.050; -265.000; -326.000
911.077;  154.425; -503.000; -604.000
911.318;  304.050; -505.000; -471.000
911.559;  488.225; -577.000; -880.000
911.801; 1302.875; -284.000; -280.000
912.042; 9534.525;  -50.000; -159.000
912.283;28630.175;  404.000;  371.000
912.524; 5395.875; -396.000; -457.000
912.765;  565.450; -193.000;   79.000
913.006;  268.475; -307.000; -338.000
913.247;   81.050; -270.000; -290.000
913.488;  -11.550;  -43.000;   30.000
913.729;  -79.775; -373.000; -373.000
913.970;  -80.225;  -96.000; -292.000
914.211;  -68.300; -160.000; -198.000
914.452;  -73.425; -118.000;  -11.000
914.693;    5.650;  510.000;  592.000
914.934;   -8.975;  510.000;  440.000
915.175;  -71.075;   53.000;  -95.000
915.415;  -79.300; -137.000;   27.000
915.656;  -60.575;  -28.000;  192.000
915.897; -111.150; -252.000;  -82.000
916.137;  -75.325;   74.000;   -9.000
916.378; -138.300; -573.000; -517.000
916.619;  -86.850; -159.000;  -63.000
916.859;  -40.475;  303.000;  330.000
917.100;  130.725; 1655.000; 1070.000
917.340;   35.875;  930.000;  728.000
917.581;   41.625;  965.000;  789.000
917.821;  -41.000; -171.000;  143.000
918.061;    7.600; -199.000;  -72.000
918.302;  -57.000; -152.000; -211.000
918.542;  -28.900;  -22.000;    3.000
918.782;   21.200;  369.000;  377.000
919.023;  122.375;  360.000;  427.000
919.263; 1227.825; 8131.000;  202.000
919.503; 1136.875; -137.000;  -54.000
919.743;  590.550;  390.000;  266.000
919.983;  287.200; -134.000;  -26.000
920.223;   67.475;  135.000;   14.000
920.463;  166.625;  631.000;  554.000
920.703;  140.400;   84.000;   39.000
920.943;  180.275; -110.000;   90.000
921.183;  238.675; -414.000; -405.000
921.423;  517.400;  307.000;  546.000
921.663;  736.075; -174.000; -257.000
921.903; 1556.275;  237.000;  173.000
922.143; 8233.950;  372.000;  389.000
922.383;34086.600;  158.000;  115.000
922.622;14099.075; -120.000;  -15.000
922.862; 1459.775;  796.000;  785.000
923.102;  533.875;  -51.000;   33.000
923.341;  233.350;   59.000;   74.000
923.581;   92.725;  450.000;  360.000
923.821;   28.975;  301.000;  398.000
924.060;   -7.100;  351.000;  193.000
924.300;  -54.300;  -16.000; -128.000
924.539;   -6.325;  584.000;  473.000
924.779;   10.900;  812.000;  597.000
925.018;  -67.525;  247.000;  353.000
925.257;    0.050;  595.000;  666.000
925.497;  -55.650;  447.000;  412.000
925.736;  -74.750;  -35.000;  102.000
925.975;  -13.650;  687.000;  669.000
926.214;   26.375;  907.000;  850.000
926.454;   13.450;  706.000;  757.000
926.693;  -24.625;  419.000;  543.000
926.932;   18.850; 1021.000;  825.000
927.171;   73.225; 1107.000; 1044.000
927.410;   49.150; 1144.000;  967.000
927.649;   18.250;  924.000;  742.000
927.888;  -17.800;  590.000;  564.000
928.127;   -2.900;  680.000;  678.000
928.366;   15.625;  842.000;  826.000
928.605;   42.450;  831.000;  737.000
928.844;  200.800; 1451.000; 1393.000
929.083;  582.675;  770.000;  613.000
929.321;  362.800; 1335.000; 1359.000
929.560;  104.450; 1158.000; 1122.000
929.799;  -39.150;  574.000;  475.000
930.038;   82.775; 1025.000; 1394.000
930.276;  -62.525;  334.000;  397.000
930.515;   -4.800;  827.000;  681.000
930.753;  -24.250;  614.000;  589.000
930.992;  -20.950;  664.000;  717.000
931.230;    5.250;  847.000;  847.000
931.469;  166.550; 2162.000;  892.000
931.707;   54.750;  840.000;  751.000
931.946;   65.700; 1278.000; 1344.000
932.184;   25.225; 1437.000; 1175.000
932.423;   46.400; 1265.000;  963.000
932.661;   66.925; 1296.000; 1428.000
932.899;   28.475;  987.000;  821.000
933.137;   -5.925;  754.000;  564.000
933.376;  145.425; 1664.000; 1335.000
933.614;  145.575; 1759.000; 1196.000
933.852;   61.275; 1357.000; 1171.000
934.090;  135.250; 1722.000; 1747.000
934.328;  121.025; 1252.000; 1457.000
934.566;   90.850; 1431.000; 1110.000
934.804;  136.675; 1263.000; 1309.000
935.042;  459.525; 1861.000; 1850.000
935.280; 1840.400; 2088.000; 2063.000
935.518; 2032.775; 2113.000; 2007.000
935.756;  428.275; 2481.000; 2316.000
935.994;  151.375; 1808.000; 1751.000
936.231;  327.500; 2890.000; 2950.000
936.469;  176.950; 2367.000; 2378.000
936.707;  171.625; 2220.000; 2167.000
936.945;  232.100; 2825.000; 2882.000
937.182;  211.125; 2679.000; 2741.000
937.420;  300.275; 3602.000; 3031.000
937.657;  401.275; 3365.000; 3478.000
937.895;  351.125; 3331.000; 3488.000
938.133;  312.675; 3540.000; 3528.000
938.370;  341.075; 3896.000; 4191.000
938.607;  402.675; 4488.000; 4205.000
938.845;  514.100; 5587.000; 5549.000
939.082;  484.575; 5387.000; 5177.000
939.320;  519.025; 5799.000; 5728.000
939.557;  658.575; 6549.000; 6491.000
939.794;  705.175; 7285.000; 7097.000
940.031;  870.350; 8421.000; 8368.000
940.269; 1082.150; 9552.000; 9107.000
940.506; 1118.225;10901.000;10507.000

