
Integration time [ms]: 200.000
Averaging Nr. [scans]: 10
Smoothing Nr. [pixels]: 0
Data measured with spectrometer [name]: 2101013U2
Wave   ;Sample   ;Dark     ;Reference
[nm]   ;[counts] ;[counts] ;[counts] 

394.013;  -73.061; -450.257; -315.536
394.305; -118.061; -461.258; -419.536
394.596; -155.373; -676.269; -527.514
394.887; -174.171; -796.268; -654.518
395.178;   23.933;  145.736;   11.476
395.470;  -34.766; -210.263; -356.526
395.761;   90.231;  305.734;  394.479
396.052; -138.987; -545.284; -306.489
396.343; -132.979; -557.276; -454.503
396.634;  -68.383; -200.279; -290.497
396.926; -122.171; -618.268; -565.517
397.217;   -9.079;   11.725;  -17.504
397.508;  -55.877; -366.273; -154.507
397.799; -142.983; -555.279; -571.497
398.090; -230.983; -973.280; -902.495
398.381;    7.404;   11.708;  -11.473
398.672; -171.096; -585.292; -742.473
398.963;  -96.682; -348.279; -373.498
399.254;   25.005;   54.709; -209.475
399.545; -247.170;-1017.266; -883.520
399.836; -100.180; -407.277; -343.501
400.127;  -33.799; -205.295; -209.468
400.418;  -63.077; -423.274; -392.506
400.709;  -68.985; -359.281; -333.493
401.000;  -55.194; -268.291; -309.476
401.290;   58.494;  225.698;  115.545
401.581;  -38.489; -166.286; -228.485
401.872; -114.602; -542.298; -486.462
402.163;  -60.900; -313.296; -252.467
402.454;  -25.295; -123.291; -163.475
402.744; -173.501; -844.297; -813.465
403.035;  -62.597; -226.293;  -86.471
403.326;  -91.495; -366.292; -384.474
403.617;   80.497;  204.701;  165.539
403.907; -131.387; -593.283; -679.490
404.198; -119.811; -545.307; -599.446
404.489; -153.786; -618.283; -588.491
404.779; -164.506; -618.302; -660.456
405.070;   16.792;  -67.304; -174.451
405.360;  -48.097; -259.293; -238.472
405.651;   67.096;  125.699;   98.542
405.942;   61.110;  209.714;  127.516
406.232; -110.588; -432.285; -413.487
406.523;  222.602;  641.706;  758.530
406.813; -153.390; -579.286; -644.484
407.104;   76.604;  261.708;  144.527
407.394; -167.102; -604.299; -591.462
407.685;   59.212;  336.715;  222.513
407.975; -116.986; -400.283; -382.490
408.265;    1.607; -134.289; -190.478
408.556;  -94.895; -472.291; -459.475
408.846;  140.603;  474.706;  429.530
409.137;  -13.992;   -1.288; -216.480
409.427;  -90.288; -193.285; -271.487
409.717; -134.476; -776.273; -692.508
410.007;  -13.189;    4.715; -170.486
410.298;  -79.498; -360.295; -342.469
410.588;  -99.688; -495.285; -510.486
410.878; -206.191; -792.287; -873.482
411.168; -107.102; -481.298; -478.463
411.459;  -38.487; -295.283; -242.489
411.749; -177.695; -609.292; -507.474
412.039; -180.292; -755.289; -386.480
412.329;   70.319;   40.722;  132.501
412.619;  -34.389;  -62.286; -148.485
412.909;  186.307;  639.711;  594.521
413.199;  -62.783; -130.280; -251.495
413.490;  128.006;  521.710;  352.523
413.780; -225.983;-1013.279; -913.496
414.070;   52.021;  -46.276;  235.497
414.360; -172.482; -729.278; -666.498
414.650; -167.291; -726.288; -688.482
414.940; -111.583; -538.280; -441.496
415.230;   45.808;   50.712;   74.519
415.520;    4.327;  155.730;   66.486
415.809;  -46.985; -305.281; -125.493
416.099; -144.580; -388.277; -229.501
416.389;  126.622;  435.726;  236.494
416.679;   26.134;   91.738;   85.473
416.969;  -97.390; -527.287; -503.483
417.259;   87.317;  341.721;  171.503
417.549;   91.615;  522.718;  318.508
417.838;  -24.271; -205.268; -147.518
418.128;  155.507;  650.710;  492.522
418.418; -136.876; -491.272; -579.509
418.708;   30.622;    9.726;  -48.506
418.997; -124.578; -474.275; -480.505
419.287; -212.777; -733.273; -790.507
419.577;  -49.787; -160.283; -123.489
419.866; -146.980; -588.277; -498.501
420.156;  -20.173; -242.270;  -55.513
420.446;  -33.566; -112.263;  -26.526
420.735; -122.974; -376.271; -446.512
421.025;  511.918; 1830.722;  315.502
421.314;  -40.274; -203.271; -226.512
421.604;   41.128;   89.732;  233.484
421.893; -183.275; -705.271; -602.511
422.183; -163.566; -487.263; -461.526
422.472;    5.926;  -36.271; -107.511
422.762;  -96.269; -416.266; -379.521
423.051; -248.179; -916.276; -916.503
423.341; -125.177; -491.273; -439.507
423.630;  -10.368; -121.265;   15.477
423.919;   25.122;   58.725;   49.495
424.209;    1.234;  -31.263;   56.473
424.498;    5.629;   68.732;  161.483
424.787; -125.970; -535.267; -601.518
425.077;    8.532;   34.735;   29.478
425.366; -167.965; -734.262; -744.528
425.655;  182.123;  639.727;  259.493
425.945;  -84.650; -313.247; -268.554
426.234;   39.237;  117.741;  300.467
426.523;  -87.862;  -86.259; -350.534
426.812;   27.631;  107.734;  159.480
427.101;   -9.872; -127.269; -323.515
427.390;  -25.673;  -55.270;  -86.514
427.680; -109.560; -624.257; -411.538
427.969;  -41.058; -330.255; -301.540
428.258; -122.261; -385.257; -477.536
428.547;   60.125;  449.728;  397.490
428.836; -113.057; -421.253; -398.543
429.125;  -54.762; -199.259;  -72.534
429.414;  -65.054; -330.251; -294.548
429.703;  -67.854; -231.251; -213.548
429.992; -247.354; -938.250; -828.549
430.281; -142.867; -397.264; -331.524
430.570;   10.145;  -21.252;   32.454
430.859;   39.638;  279.741;  352.466
431.148;  206.649;  636.752;  631.446
431.437;  100.145;  391.748;  367.454
431.725; -119.060; -544.257; -481.536
432.014; -247.856; -845.253; -756.545
432.303;  -49.642; -149.239; -105.569
432.592; -100.767; -460.263; -178.525
432.881; -161.051; -601.248; -437.554
433.169;  -32.258; -343.255;  -61.540
433.458;  128.262;  445.765;  540.424
433.747; -116.565; -397.261; -289.529
434.036;  -73.845; -275.242; -280.564
434.324; -124.552; -395.249; -379.551
434.613;   38.354;   40.757;  159.437
434.902;   80.157;  333.760;  439.433
435.190;   62.758;   75.761;  295.431
435.479;  -32.248;  -52.245;   83.441
435.767;  -99.247; -411.244; -427.561
436.056; -134.145; -340.242; -294.563
436.345; -104.443; -372.240; -223.568
436.633;   59.047;   60.750;  383.450
436.922;   98.357;  208.760;  414.432
437.210;  -51.939; -194.236;    1.426
437.499; -158.138; -583.235; -432.576
437.787; -114.339; -339.236;  -10.574
438.075;   27.459;   56.761;  162.430
438.364;  -20.441;  -44.238;  250.429
438.652;  -79.429; -286.226; -138.592
438.941;   -3.433;    3.770;  269.415
439.229; -187.255; -665.252; -466.545
439.517;  -72.137; -160.234;  -85.577
439.806; -161.627; -501.225; -290.595
440.094;   56.164;  377.766;  650.421
440.382; -128.036; -653.233; -302.580
440.670; -105.138; -361.235; -285.576
440.959; -117.525; -347.223; -170.599
441.247;  -60.132; -151.229; -109.587
441.535;  -15.138; -266.235;   31.423
441.823; -149.337; -497.234; -305.578
442.111;   63.569;  173.771;  327.412
442.400; -154.248; -628.245; -335.559
442.688;  -36.637; -111.234; -620.579
442.976; -215.615; -786.213; -450.617
443.264; -114.327; -324.224; -364.597
443.552;  -81.829; -258.226;   51.408
443.840;  172.762;  602.765;  876.423
444.128;   75.364;  265.767;  269.420
444.416; -164.231; -694.228; -312.588
444.704; -104.822; -465.219;  -92.605
444.992;  -38.529;   -0.226;  240.407
445.280; -121.233; -517.230;  -94.585
445.568; -160.815; -694.212; -396.618
445.856;  -68.424; -174.221;  357.398
446.143;  -62.222;  -54.220;   -7.604
446.431;   21.469;  -25.228;  625.411
446.719;  141.680;  489.783;  675.391
447.007;  111.566;  481.769;  705.416
447.295;  128.874;  597.777;  871.402
447.583; -105.432; -464.229;  -34.587
447.870; -102.024; -434.221; -202.601
448.158;  -51.133; -104.230;  129.415
448.446; -171.922; -800.219; -338.604
448.733;  -59.826;   13.776;  269.403
449.021;   -1.915;   60.788;  341.382
449.309;  -54.513; -296.210;  208.379
449.596;   56.680;  128.783;   59.392
449.884; -158.925; -571.222; -325.600
450.172; -208.630; -756.227; -406.590
450.459;  136.783;  645.786;  780.387
450.747; -177.620; -411.218; -147.608
451.034;  170.069;  493.772;  889.411
451.322; -125.317; -413.214; -170.614
451.609;   57.474;  292.777;  508.403
451.897; -143.206; -550.203; -183.634
452.184; -194.426; -622.223; -400.598
452.472;   -1.611;   97.792;  269.375
452.759;  135.778;  512.781;  864.395
453.047; -142.315; -407.212; -125.617
453.334; -169.321; -732.219; -216.606
453.621; -123.616; -438.214; -161.615
453.909;    0.993;   13.796;  384.368
454.196;  -85.601; -299.199; -123.641
454.483;   18.296;  317.798;  540.364
454.771;  -65.910; -215.208;  196.374
455.058;  -61.110; -316.207;  102.374
455.345;  -18.995;   71.807;  344.347
455.632;  -38.909; -128.207;  235.373
455.919;  -18.899;  -82.196;  182.354
456.207; -233.301; -774.198; -450.642
456.494; -139.703; -475.200;  -66.639
456.781; -150.605; -399.202; -198.635
457.068;  -61.109; -253.206;  -29.628
457.355; -152.409; -698.206; -401.629
457.642; -159.708; -552.205; -290.630
457.929; -202.596; -778.194; -417.651
458.216; -186.915; -575.212; -354.617
458.503;  -61.796; -173.193;  -19.652
458.790; -229.310; -864.208; -630.625
459.077;  -66.104;  -77.202;  110.364
459.364; -145.497; -350.195; -210.649
459.651;   -9.609;  -46.206;  220.372
459.938; -247.012; -864.209; -665.623
460.225;   17.796;  132.799;  276.363
460.512; -243.699; -836.197; -688.645
460.799;    7.980;  -32.218;  320.392
461.086; -130.102; -370.200; -251.640
461.372; -160.001; -509.198; -279.642
461.659;  -42.099; -165.196;  108.354
461.946;  -90.696; -445.193;  -54.651
462.233;  222.197;  842.800;  888.361
462.519; -213.803; -814.201; -464.639
462.806; -198.599; -768.197; -497.645
463.093; -119.393; -445.191;  -66.656
463.380; -234.389; -920.186; -824.664
463.666;  -71.199; -259.197;  -18.646
463.953;  -87.098; -406.195; -243.648
464.239;  -77.998; -173.195;  -77.648
464.526;  144.904;  413.806;  743.350
464.813; -149.592; -565.190; -304.658
465.099;  120.104;  606.807;  607.348
465.386;  219.505;  903.807;  921.348
465.672; -198.499; -694.197; -522.645
465.959; -175.190; -598.188; -520.662
466.245; -139.895; -468.193; -359.652
466.532;  -36.398; -109.195;   63.352
466.818;  -98.689; -357.186; -216.664
467.104; -182.284; -488.182; -415.672
467.391; -155.892; -628.189; -459.658
467.677;  -84.388; -289.186;    9.335
467.964; -166.491; -682.189; -471.660
468.250; -112.288; -331.186; -160.665
468.536;    9.208;   90.811;  180.341
468.822; -217.787; -821.184; -574.668
469.109;  132.925;  351.827;  471.311
469.395;  182.706;  729.808;  787.346
469.681;   32.609;   46.811;  156.341
469.967; -168.491; -699.188; -382.660
470.254;  -79.090; -494.188; -306.662
470.540; -172.699; -601.196; -476.646
470.826; -146.883; -488.181; -397.675
471.112;   51.614;  288.816;  113.331
471.398;  -53.086; -253.183;  -58.670
471.684; -175.879; -626.177; -447.680
471.970; -265.482; -918.180; -981.675
472.256; -138.394; -521.192; -441.654
472.542; -153.773; -499.171; -434.691
472.828; -191.984; -743.182; -607.672
473.114; -131.668; -380.166; -283.700
473.400; -148.878; -504.175; -293.684
473.686; -108.468; -452.166; -400.701
473.972;  -53.576; -230.174; -131.687
474.258; -243.775; -925.173; -843.689
474.544;  -31.680; -183.178;   -2.679
474.830;   12.623;  -65.175;   45.316
475.116;  -81.392; -123.190; -196.658
475.401; -135.782; -558.180; -467.676
475.687; -205.382; -725.180; -718.676
475.973; -188.784; -673.181; -770.673
476.259;  159.523;  736.825;  764.315
476.544; -148.779; -539.176; -437.682
476.830; -118.574; -398.172; -322.690
477.116;  -86.179; -430.177; -336.682
477.401;  124.418;  346.820;  358.324
477.687; -120.378; -289.175; -405.684
477.973;   -8.283;   21.819;   28.326
478.258; -125.065; -448.163; -348.706
478.544;   -0.587;   21.815;   61.334
478.829; -212.473; -818.171; -738.692
479.115; -187.374; -749.172; -651.690
479.401; -109.476; -444.174; -449.686
479.686;  -49.782; -253.180;  -74.676
479.972; -244.480; -886.178; -776.680
480.257;  -71.968; -258.166;  -65.700
480.542; -154.672; -614.170; -469.693
480.828;  326.122; 1288.824; 1392.317
481.113; -126.178; -464.176; -426.683
481.399;  -48.063; -236.161; -202.711
481.684; -161.868; -620.166; -462.700
481.969;  -24.861; -158.159;  -73.713
482.255; -122.571; -439.169; -285.695
482.540; -152.180; -569.178; -441.680
482.825; -109.589; -395.187; -404.663
483.110;  -19.071;  -85.169; -105.696
483.396; -194.059; -840.157; -652.718
483.681;  167.124;  543.826;  730.313
483.966; -197.962; -696.160; -700.712
484.251; -108.776; -404.174; -310.687
484.536; -109.267; -356.165; -378.703
484.822;  -83.876; -205.173; -218.687
485.107; -167.354; -599.152; -502.726
485.392;  167.234;  662.836;  541.296
485.677;   36.130;  354.832;  163.302
485.962;   38.641;  160.843;  270.283
486.247;  -10.264;  -14.162;   -8.707
486.532;  -97.968; -178.166; -325.701
486.817;   91.337;  381.839;  431.291
487.102; -154.656; -453.154; -514.722
487.387; -156.358; -637.156; -652.718
487.672;  -27.866; -154.164;  -38.705
487.957;  -98.162; -394.160; -286.711
488.241;  -71.752; -290.150; -314.729
488.526;  -60.454; -280.152; -148.726
488.811; -241.180; -881.177; -818.680
489.096; -208.056; -666.154; -702.723
489.381;   -5.154;    3.847;  162.275
489.666; -129.463; -428.161; -510.710
489.950;  147.445;  558.846;  627.277
490.235; -126.053; -480.151; -458.728
490.520; -184.763; -756.161; -723.710
490.804; -218.158; -827.156; -736.719
491.089; -118.150; -469.149; -299.732
491.374;  -27.766; -132.164;  -75.704
491.658; -240.949; -817.147; -717.735
491.943; -196.553; -657.152; -609.727
492.227;  -67.857; -178.155;  -38.721
492.512;  -90.859; -294.157; -341.717
492.797; -225.351; -713.149; -716.731
493.081; -169.049; -588.147; -598.735
493.366; -203.463; -751.161; -635.711
493.650;  240.857;  831.859;  917.254
493.935; -154.649; -648.147; -447.734
494.219; -197.644; -778.142; -687.743
494.503; -187.052; -585.150; -487.730
494.788;  -12.760;   46.842;   74.285
495.072;   69.948;  184.850;  434.271
495.356; -128.850; -463.148; -343.733
495.641; -238.548; -812.146; -736.736
495.925; -241.658; -976.156; -903.719
496.209; -133.950; -599.149; -451.732
496.494; -172.244; -763.142; -544.744
496.778;  -90.556; -364.154; -360.722
497.062; -176.958; -819.156; -627.719
497.346; -233.362; -869.160; -640.711
497.631;  143.850;  580.852;  560.266
497.915;   10.553;  -64.145;  175.261
498.199;  -97.359; -341.157; -277.718
498.483; -134.954; -562.152; -508.725
498.767;  102.948;  301.850;  300.271
499.051;  -29.251; -126.149; -100.732
499.335; -193.551; -693.149; -739.731
499.619; -148.631; -381.129; -423.767
499.903;  -64.557; -272.155;  -65.721
500.187; -142.255; -588.153; -316.724
500.471; -222.754; -796.152; -595.727
500.755;  -31.763;   62.839;  -96.710
501.039;  -81.857; -270.155; -357.721
501.323;   10.558;  -21.141;  264.254
501.607; -103.165; -447.163; -503.706
501.891; -153.458; -607.156; -512.718
502.174; -183.546; -726.144; -585.741
502.458;   11.447;   89.849;  370.273
502.742;  -58.040; -180.138; -191.751
503.026;  -77.549; -412.147; -254.734
503.310; -105.161; -437.159; -375.713
503.593; -141.549; -464.147; -325.735
503.877;  -81.535; -232.133; -156.760
504.161;  -54.955;    2.847;  -50.724
504.444; -226.760; -841.158; -710.716
504.728; -197.666; -487.164; -522.704
505.012;  -53.752; -257.150;  -76.729
505.295;  -93.363; -417.161; -212.711
505.579;  -89.758; -256.156; -496.719
505.862; -160.047; -555.145; -333.738
506.146; -175.861; -681.159; -758.714
506.429;  108.239;  568.841;  461.286
506.713; -179.253; -732.151; -667.728
506.996;    7.344;   90.846;  295.278
507.280; -150.167; -633.165; -474.703
507.563; -136.157; -469.155; -261.721
507.847; -146.555; -423.153; -112.724
508.130; -163.462; -665.161; -456.711
508.413; -168.869; -758.167; -577.700
508.697;  -50.469; -151.167;   12.300
508.980; -114.955; -422.153; -312.724
509.263; -158.257; -466.155; -450.720
509.547;  -22.752; -124.150;   82.271
509.830;  -17.562; -172.160;  140.289
510.113;   17.242;  128.844;  298.281
510.396; -134.654; -530.152; -300.725
510.680; -246.347; -818.145; -812.738
510.963;   35.844;  184.846;  180.277
511.246; -121.151; -493.150; -357.730
511.529;  -91.646; -482.145;  -83.739
511.812;  -33.835; -250.134;   10.241
512.095; -179.553; -740.151; -396.728
512.378;  -72.249; -317.147; -245.736
512.661; -198.639; -703.137; -623.753
512.944; -183.744; -750.142; -637.744
513.227;  -82.439; -170.137; -171.752
513.510; -131.946; -479.144; -671.741
513.793; -170.142; -485.140; -435.747
514.076;  -16.629;  -43.127;  -39.771
514.359;  -67.750; -294.149; -135.732
514.642; -148.244; -442.142; -567.744
514.925;  105.858;  581.860;  561.253
515.208; -138.436; -498.134; -443.758
515.491;  -64.434; -276.133; -182.761
515.773; -126.445; -410.143; -337.742
516.056;   57.362;  249.864;  409.246
516.339; -212.438; -754.136; -652.755
516.622; -148.952; -518.150; -488.730
516.904;  221.256;  882.857;  975.257
517.187; -193.639; -730.138; -523.752
517.470; -156.044; -568.143; -510.743
517.752; -165.337; -624.136; -470.756
518.035; -181.841; -708.139; -725.749
518.318; -243.238; -799.136; -744.755
518.600;  -89.134; -300.132; -325.762
518.883;   13.356;  310.858;   88.256
519.165; -159.340; -585.138; -426.751
519.448;  -11.434;  -61.132;  -19.762
519.730; -206.428; -573.126; -415.773
520.013;  143.365;  588.867;  664.240
520.295;  -38.135;  -94.134;  -15.759
520.578; -117.232; -335.131; -305.764
520.860;  -39.834; -254.132;   56.238
521.143; -205.137; -763.135; -584.756
521.425;  -86.826; -251.125; -279.775
521.707; -159.629; -622.127; -380.771
521.990;   14.172; -199.127;  167.229
522.272;  -49.242; -116.140;   -4.748
522.554;  -79.745; -237.143; -157.742
522.836;  -47.535;  -24.134;   99.241
523.119; -128.449; -496.148; -189.734
523.401; -149.232; -448.130; -314.766
523.683; -227.239; -865.137; -693.753
523.965;   42.760;  408.862;  260.248
524.247;  -15.524;   54.878;  170.220
524.529; -140.035; -451.134; -367.759
524.812;  -19.331;   -3.130;  191.234
525.094; -222.440; -773.138; -631.751
525.376;  -43.225; -143.124;   78.223
525.658; -121.938; -441.136; -339.754
525.940; -223.533; -805.131; -671.764
526.222;  -92.338; -188.136;  -88.755
526.504;  -50.433; -190.131;   32.237
526.786; -238.435; -960.133; -647.760
527.068; -102.525; -124.123;  -67.778
527.349; -249.038; -865.137; -774.754
527.631;  -35.534; -137.132;   22.238
527.913; -167.429; -664.127; -450.771
528.195; -260.027; -761.125; -639.774
528.477;  -62.036;  -93.134;  -30.758
528.759; -223.631; -648.130; -522.766
529.040; -169.925; -569.123; -293.778
529.322; -121.127; -235.125;  -10.774
529.604;  -51.731;  -47.130;   93.233
529.886; -157.628; -546.126; -302.773
530.167;    1.568;  232.870;  192.235
530.449;  -22.849;    1.853;   63.265
530.731; -179.424; -572.122; -459.779
531.012; -159.821; -513.120; -216.784
531.294;  -68.717; -118.116;  -43.792
531.575;   61.274;  290.875;  538.225
531.857; -182.036; -548.135; -266.757
532.138;  -76.443; -113.141;   40.254
532.420;   33.663;  294.865;  403.244
532.701; -235.835; -722.133; -751.760
532.983;   63.066;  232.867;  182.239
533.264;  -43.728; -243.126;  175.228
533.546; -159.238; -491.136; -508.755
533.827;   18.565;  173.867;   -1.759
534.109; -132.936; -352.135;  -80.757
534.390; -225.333; -725.132; -582.762
534.671;  -59.537; -270.135;  -82.756
534.953; -218.324; -751.123; -611.779
535.234; -145.519; -426.117; -255.789
535.515; -249.821; -891.119; -735.785
535.796; -158.129; -431.128; -193.770
536.078; -310.225;-1050.124; -904.777
536.359;  -62.124;  -22.123;    3.221
536.640; -138.627; -480.125; -197.774
536.921;   16.969;  225.871;  143.232
537.202;  -72.940;  -87.138;  -16.751
537.483;   10.268;  251.869;  377.236
537.764;  -15.632;   17.870;   98.235
538.045; -166.636; -543.134; -371.758
538.326; -180.430; -596.129; -447.768
538.607; -232.828; -686.127; -476.771
538.888;  -23.523;   98.879;    5.218
539.169; -217.923; -704.122; -535.781
539.450;   24.269;  236.871;   16.233
539.731; -118.822; -361.121; -182.783
540.012;  -13.221;  199.880;  412.216
540.293;  -40.826;   82.876;  158.224
540.574; -247.415; -895.113; -717.796
540.855;   55.278;  435.879;  377.218
541.136;   -1.123;   47.878;  139.220
541.416;  -88.831; -161.130; -220.766
541.697; -135.233; -274.131; -170.763
541.978;  -88.637; -270.135; -315.757
542.259; -104.828; -211.127; -236.771
542.539; -119.318; -191.116; -186.790
542.820;   70.174;  461.875;  480.225
543.101; -113.847;  -52.145;  -77.738
543.381; -274.928; -638.127; -591.771
543.662;  -12.929;  159.873; -254.771
543.942; -260.929; -751.127; -830.770
544.223;  -29.523;  193.878;  161.219
544.504; -104.225; -275.124; -182.777
544.784; -184.828; -592.126; -408.773
545.065; -146.217;  104.884; -254.791
545.345;  -22.721;  227.881;   14.215
545.626;  -36.215;  -14.113; -108.796
545.906;  -24.132;   77.869;   98.235
546.186; -114.427;   92.874;  -95.773
546.467;  -68.325;   99.877;  -95.778
546.747;   31.282;  264.884;  327.210
547.027;  -14.925;   91.876;  111.223
547.308; -171.029; -376.127; -530.770
547.588;   21.770;  299.871;  371.232
547.868;   96.168;  458.870;  588.235
548.149;  153.484;  609.885;  593.207
548.429;  -90.329; -347.127; -299.771
548.709; -209.322; -645.120; -461.784
548.989;  -32.119;   84.882;   88.213
549.269; -110.034;   10.868;  139.239
549.550;   -8.324;  215.877;  117.222
549.830; -226.513; -758.111; -556.799
550.110; -156.012; -468.110; -320.801
550.390; -110.024; -128.122;  -56.779
550.670; -281.615; -868.114; -783.795
550.950; -173.122; -509.121; -471.782
551.230;  107.777;  549.879;  460.218
551.510; -174.522; -381.121; -326.782
551.790;  -49.311; -173.109; -127.803
552.070;  235.075;  940.877; 1181.223
552.350; -142.820; -492.119; -377.786
552.630;   -8.123;   -2.121;   77.219
552.909;    3.683;  181.884;   73.209
553.189;  -66.133;  -49.132;   33.237
553.469; -198.820; -703.119; -514.786
553.749; -165.528; -469.127; -357.772
554.029;  -25.418;   33.883;  -24.790
554.308;  -79.316; -154.115;  -37.794
554.588; -109.229; -196.128; -204.770
554.868; -126.322; -366.121;  -47.782
555.147;  -75.716; -114.115;  -46.793
555.427; -135.917; -260.116; -250.792
555.707;  -95.316; -284.115; -200.793
555.986; -237.612; -719.111; -538.800
556.266;  -16.318;   23.884;   72.210
556.546; -227.922; -888.121; -675.782
556.825; -231.415; -657.114; -556.794
557.105;  -69.729; -125.128;   17.230
557.384;  -18.717;  122.884;  187.209
557.664; -205.117; -717.116; -508.792
557.943; -169.522; -557.121; -411.782
558.222; -136.919; -345.118; -344.788
558.502;  -44.416; -116.115;  -76.793
558.781;   35.983;  194.885;  499.208
559.061; -101.119; -232.118; -227.788
559.340;   29.281;  302.883;  353.211
559.619;  -18.618;   93.884;  148.210
559.899; -119.018; -239.117; -266.789
560.178; -217.416; -778.115; -593.793
560.457; -209.518; -623.117; -562.790
560.736; -143.212; -472.111; -482.800
561.015; -197.130; -500.128; -502.769
561.295;  -20.109;  180.893;  215.193
561.574;  -25.316;  119.885;  116.207
561.853;   21.890;  274.891;  303.197
562.132;  -72.316;  -45.114;  182.206
562.411;  104.677;  396.879;  553.219
562.690; -206.617; -592.115; -458.792
562.969;  116.286;  472.888;  630.203
563.248;  716.777; 2966.878; 2487.219
563.527; -114.112; -290.111; -408.800
563.806; -209.329; -650.127; -521.771
564.085;  -63.507; -297.105; -206.810
564.364; -198.218; -594.117; -405.790
564.643; -100.023; -276.121; -223.781
564.922;   16.889;  221.890;  397.198
565.201; -222.311; -640.109; -700.803
565.479; -116.117; -297.115; -219.792
565.758; -251.329; -810.128; -712.770
566.037;  -93.911; -155.109; -100.803
566.316; -106.417; -286.116;  -28.791
566.595;  -44.516;  -17.115;  -12.793
566.873;  167.688; -166.111;  -79.801
567.152; -179.114; -490.113; -590.797
567.431;  -41.318; -113.116;    6.210
567.709;  -96.109; -344.107; -212.807
567.988; -253.515; -810.114; -769.794
568.266; -158.816; -160.115;  -68.793
568.545; -182.501; -644.100; -514.819
568.824;   79.083;  160.885;  356.208
569.102; -121.515; -351.114; -235.794
569.381; -183.517; -492.116; -407.792
569.659; -212.014; -553.113; -553.796
569.938; -212.823; -743.122; -465.780
570.216;  -89.410; -225.109; -225.804
570.494; -203.115; -632.114; -572.795
570.773;   41.578;  202.879;  114.218
571.051; -131.225; -373.123; -357.778
571.330;  -83.215; -221.113; -174.796
571.608;  -93.099; -181.098; -173.823
571.886; -246.313; -671.111; -581.799
572.164; -245.422; -739.121; -621.782
572.443; -164.206; -562.105; -512.811
572.721; -144.818; -399.117; -289.790
572.999; -117.919; -280.117; -168.788
573.277;  103.893;  379.894;  620.191
573.555;  -65.307;   94.894;   37.190
573.834; -122.019;  -86.117; -114.788
574.112;  203.492;  880.893;  811.193
574.390;  -49.112; -143.111;  -96.801
574.668;  -83.714;  -91.112;  -61.797
574.946;  -79.807; -165.106; -187.810
575.224;  -38.211;   71.891;  -16.803
575.502; -110.818; -200.116; -204.791
575.780; -220.014; -767.112; -829.798
576.058;  246.288; 1589.889; 1004.200
576.336;  -98.812; -210.110; -129.801
576.614; -149.314; -511.112; -340.798
576.891; -224.116; -711.115; -823.794
577.169; -113.009; -158.108; -285.805
577.447;   51.192;  169.893;  202.193
577.725;  163.887;  629.888;  854.201
578.003; -104.213;  -71.112; -371.798
578.280;  -98.205; -208.104; -242.812
578.558; -180.616; -450.115; -422.793
578.836;  -74.115; -210.114; -145.795
579.114; -196.814; -630.112; -670.797
579.391;  -22.119;   -6.117;  -18.789
579.669; -215.616; -595.114; -704.794
579.947;  -90.509; -326.107; -127.806
580.224; -188.309; -692.107; -524.806
580.502;  -40.608;  127.893;   76.193
580.779;  -21.218;  -42.117;   75.210
581.057; -187.510; -584.109; -470.804
581.334; -214.004; -726.102; -695.815
581.612;   39.493;   54.895;  511.190
581.889; -115.902;  -83.101; -129.818
582.167; -123.100; -298.099; -190.821
582.444; -256.303; -845.102; -814.817
582.721;  133.297;  657.899;  715.183
582.999;  -60.701; -326.100; -167.821
583.276; -249.824; -812.123; -713.779
583.553; -134.803; -364.102; -294.816
583.831; -228.406; -607.104; -631.812
584.108;   31.690;  349.892;  174.195
584.385; -113.404; -122.102;  -98.815
584.662; -213.812; -651.111; -828.801
584.940;  -12.712;  204.889;  204.199
585.217;  -93.914;  -73.113; -303.796
585.494;  -37.911;   71.890;  118.198
585.771; -133.810; -250.109; -354.804
586.048;  -77.314; -196.113;  -76.796
586.325; -205.512; -721.110; -773.801
586.602;   27.795;  230.896;  213.188
586.879; -194.201; -499.100; -580.820
587.156; -104.807; -156.105; -331.810
587.433; -213.303; -701.102; -667.817
587.710;  -16.914;  152.888;  234.202
587.987; -137.306; -264.105; -236.811
588.264;   48.887;  315.888;  387.202
588.541;  -49.905;  -61.104;   26.187
588.818;  -57.210;   72.892;  171.196
589.095;  -85.306; -163.104; -174.812
589.371; -160.310; -459.109; -414.804
589.648; -164.408; -581.107; -437.807
589.925; -187.115; -517.114; -621.795
590.202; -215.614; -741.112; -607.798
590.478;  -66.606; -166.105;  -73.811
590.755; -134.909; -241.108; -132.806
591.032; -248.011; -741.110; -699.802
591.308; -225.995; -732.094; -790.831
591.585; -206.511; -573.110; -560.802
591.862; -296.603;-1056.102; -950.817
592.138; -145.809; -475.108; -474.805
592.415; -178.905; -486.104; -495.813
592.691;   91.595;  460.896;  518.188
592.968;  -82.199; -208.098; -123.824
593.244; -232.718; -695.116; -595.790
593.521;  -72.003; -105.102;  -42.817
593.797; -251.124; -810.122; -720.780
594.074; -224.598; -611.096; -588.826
594.350;  185.604;  828.905;  729.172
594.626; -109.312; -303.111; -283.801
594.903; -194.703; -643.101; -645.817
595.179;   62.095;  243.896;  418.187
595.455;  -96.008; -136.107; -150.807
595.731;  -14.905;  -19.103;  -38.814
596.008; -147.613; -464.111; -434.800
596.284; -104.801; -187.100; -242.820
596.560; -196.994; -501.093; -493.833
596.836;  -99.306; -173.105;  -70.810
597.112; -186.609; -582.108; -437.805
597.388;  -46.698;  -49.097;  -48.826
597.665;   54.986;  437.887;  530.203
597.941; -218.091; -572.089; -658.839
598.217; -121.011; -323.110; -293.802
598.493;  -85.710;   61.891; -204.804
598.769;  -73.202; -175.100;  -50.819
599.045; -202.509; -490.108; -562.806
599.321; -171.401; -193.100; -261.820
599.597; -115.910; -355.109; -476.804
599.872;   86.295;  409.896;  429.187
600.148;  -88.998;  -61.097; -172.826
600.424;   30.592;   91.893;  202.193
600.700; -114.308; -170.107; -280.807
600.976; -153.898; -442.097; -464.825
601.252; -128.210; -226.109; -272.803
601.527; -285.905; -833.104; -840.813
601.803; -117.706; -453.105; -404.812
602.079;  -66.502; -124.100; -118.819
602.354; -184.093; -620.092; -531.835
602.630; -117.514; -140.113; -482.796
602.906; -251.402; -910.101; -863.818
603.181; -189.020; -627.119; -534.786
603.457;  -65.798;   98.903; -278.826
603.733; -200.522; -605.120; -626.783
604.008;  -70.007; -245.106; -164.810
604.284; -185.903; -636.101; -580.817
604.559;  -46.213;   -3.112;  -42.799
604.835; -103.106; -163.105; -225.810
605.110; -245.000; -732.099; -892.821
605.385;   43.306;  224.907;  267.167
605.661; -213.196; -625.095; -729.829
605.936; -239.809; -664.108; -737.806
606.211;  -12.304;  -17.103; -170.815
606.487; -104.116; -329.114; -376.794
606.762; -235.920; -791.119; -745.786
607.037; -133.506; -501.105; -433.810
607.313; -161.497; -589.096; -574.828
607.588;  -98.807; -375.106; -137.810
607.863;  -54.502;  -28.101; -143.818
608.138;   74.689;  513.890;  516.198
608.413; -197.500; -576.099; -592.822
608.688; -113.609; -203.108; -267.805
608.964; -140.608; -509.106; -218.809
609.239;  -83.107; -107.105; -212.810
609.514;   26.994;  281.895;  240.188
609.789; -241.705; -187.104; -716.812
610.064; -184.497; -435.096; -609.827
610.339; -261.510; -855.109; -799.804
610.614;  -59.001; -131.100; -315.820
610.889;   13.294;  215.895;  107.188
611.163; -186.806; -407.104; -591.812
611.438; -105.315;   81.886; -167.794
611.713; -169.203; -467.101; -499.817
611.988; -105.802; -144.101; -328.818
612.263; -232.904; -771.102; -717.815
612.538;   73.486;  385.887;  251.204
612.812; -240.601; -832.100; -911.820
613.087; -141.999; -358.098; -338.823
613.362; -186.708; -497.107; -557.807
613.637;   33.296;  261.897;  138.186
613.911; -107.493; -256.092; -345.835
614.186; -126.608; -249.107; -292.807
614.460; -254.782; -842.081; -758.854
614.735;  -73.688;  -55.087;  -17.843
615.010;  -13.389;   43.912;  -82.841
615.284;   71.391;  360.892;  246.195
615.559; -231.493; -792.092; -955.835
615.833;  -22.700;  -76.099;  -87.822
616.108; -102.892; -225.090; -390.837
616.382;   79.512;  274.913;  402.156
616.656;  -85.392; -241.090; -232.837
616.931; -247.800; -785.099; -700.822
617.205; -287.205; -973.104; -979.813
617.480;  -49.126;  -91.125;    6.225
617.754; -117.427; -396.125; -128.774
618.028; -141.830; -369.129; -382.768
618.302;  -23.510;   73.892;  -25.805
618.577; -185.504; -371.103; -518.815
618.851; -161.711; -399.109; -600.803
619.125; -117.935; -335.134; -378.759
619.399; -104.305; -244.104; -374.813
619.673; -142.317; -330.115; -515.792
619.947; -117.215; -333.114; -448.795
620.222; -119.312; -198.110; -204.801
620.496;  -72.822;  -47.121;  -96.782
620.770;  -61.223; -187.122;  -93.781
621.044;   45.893;  323.895;  346.190
621.318; -211.622; -653.120; -614.783
621.592; -122.922; -430.121; -409.783
621.866; -209.513; -476.112; -572.799
622.140;  -76.018; -207.116; -356.791
622.413;   19.587;  138.889;  112.200
622.687; -180.003; -746.101; -492.817
622.961;  -27.110; -130.108; -143.805
623.235; -195.212; -633.111; -661.800
623.509; -263.306; -816.105; -848.811
623.783;    1.491;  -12.107;   48.193
624.056; -125.422; -254.120; -280.783
624.330;   -4.914;   63.888;   -3.797
624.604;  -89.918; -271.116; -355.790
624.877;   -2.211;  180.890;   26.198
625.151; -104.016; -249.114; -238.794
625.425;  -97.705; -150.103; -283.814
625.698; -152.821; -367.119; -374.785
625.972; -212.611; -799.110; -765.802
626.245;   96.582;  685.884;  484.210
626.519; -103.821; -426.120; -340.784
626.792;  -96.008; -192.107; -380.807
627.066; -186.924; -485.122; -662.779
627.339; -226.011; -736.110; -663.802
627.613;   36.579;  351.880;  148.216
627.886;   50.189;  187.891; -612.803
628.160; -108.722;  312.880; -161.783
628.433; -242.926; -695.125; -703.775
628.706; -152.421; -517.120; -615.784
628.979;   30.675;  296.876;  117.223
629.253; -249.520; -785.119; -833.786
629.526; -120.928; -334.126; -253.772
629.799; -168.325; -641.123; -479.778
630.072; -150.430; -497.128; -516.769
630.346; -337.518;-1115.116;-1080.790
630.619; -170.008; -467.107; -545.808
630.892;  139.088;  709.889;  593.200
631.165;  152.495;  790.896;  679.187
631.438; -309.513;-1092.112;-1055.798
631.711;   81.976;  453.877;  257.221
631.984; -134.718; -523.117; -624.789
632.257; -192.719; -636.117; -681.789
632.530; -117.321; -412.119; -433.785
632.803;   26.984; -109.115;    7.207
633.076; -146.425; -360.123; -422.777
633.349;   20.370;  173.872;  121.231
633.622; -108.321; -187.119; -240.785
633.895; -295.722; -903.120; -823.783
634.167; -165.428; -496.126; -525.773
634.440;  -30.917;  -19.116; -137.792
634.713;  -15.520;  -22.119; -120.786
634.986;  134.169;  593.871;  453.233
635.258; -183.916; -507.115; -597.793
635.531;  149.881;  742.882; -343.788
635.804; -117.318; -303.117; -318.789
636.077; -253.117; -830.116; -852.791
636.349; -176.516; -586.115; -474.793
636.622;  458.672; 1695.874; 1392.228
636.894; -164.021; -474.120; -909.784
637.167; -220.029; -836.127; -789.771
637.439;  -78.229; -278.128; -213.770
637.712; -114.328; -312.126; -293.772
637.984; -215.117; -635.116; -707.791
638.257;  139.175;  515.877;  488.222
638.529; -266.426; -881.125; -924.776
638.802; -174.730; -508.128; -449.769
639.074; -260.423; -927.122; -952.781
639.346; -304.936; -942.135; -930.757
639.619;  -25.044;  -79.142; -319.744
639.891;  -62.524;  -83.122; -168.779
640.163; -197.124; -689.122; -756.780
640.435;   -0.024;  273.878;  103.220
640.708;  -49.923;  -72.122; -132.780
640.980; -118.023; -366.122; -362.781
641.252;  -30.323;  -25.121;  -71.781
641.524;  128.777;  580.879;  573.219
641.796; -268.623;-1094.121; -907.782
642.068; -107.822; -191.121; -300.782
642.340; -149.122; -486.121; -566.783
642.613;   50.778;  294.880;  323.217
642.885; -243.422; -787.120; -878.783
643.157; -226.721; -810.120; -658.784
643.428;   50.779;  170.880;  218.216
643.700; -150.721; -498.120; -425.784
643.972;  -51.221;  -16.119; -133.785
644.244; -172.821; -474.119; -559.785
644.516;  -47.220; -250.119; -114.786
644.788;  143.180;  662.881;  548.214
645.060;  -16.720;  -12.119; -124.786
645.332; -177.920; -525.118; -535.787
645.603;   96.580;  479.882;  342.213
645.875; -149.119; -334.118; -369.787
646.147;  338.081; 1487.882; 1242.212
646.418; -298.619; -931.117; -918.788
646.690; -224.319; -714.117; -715.789
646.962; -124.919; -413.117; -451.789
647.233;    8.982;   15.883;   11.211
647.505; -202.118; -595.117; -475.790
647.776;   54.082;  328.884;  229.210
648.048; -129.918; -248.116; -418.790
648.320; -214.617; -752.116; -679.791
648.591; -297.217;-1055.116; -958.791
648.862; -144.917; -505.116; -577.792
649.134;   37.983;  115.885;  198.208
649.405; -200.117; -661.115; -618.792
649.677; -183.716; -475.115; -598.793
649.948; -107.216; -181.115; -296.793
650.219;  -30.216;  -37.115; -147.793
650.491; -149.616; -431.114; -520.794
650.762; -227.816; -705.114; -731.794
651.033; -164.615; -437.114; -424.795
651.304; -247.515; -743.114; -728.795
651.576; -201.315; -680.114; -645.795
651.847;  -57.815; -250.113; -140.796
652.118;  -33.315;  -32.113; -189.796
652.389; -182.214; -639.113; -722.796
652.660;  -40.714; -147.113;  -89.797
652.931; -289.214; -897.112; -871.797
653.202; -160.314; -382.112; -541.798
653.473; -133.413; -633.112; -533.798
653.744; -177.313; -595.112; -590.798
654.015; -103.513; -356.112; -303.799
654.286; -185.013; -642.111; -663.799
654.557; -203.313; -586.111; -521.799
654.828; -325.712;-1114.111;-1088.800
655.099; -157.412; -404.111; -291.800
655.370; -152.012; -427.111; -543.801
655.641; -239.012; -656.110; -714.801
655.911; -197.112; -618.110; -638.801
656.182;   79.289;  437.890;  387.198
656.453;  171.989;  830.890;  746.198
656.724; -124.411; -466.110; -426.802
656.994; -189.311; -553.109; -568.803
657.265; -245.711; -862.109; -873.803
657.536; -131.610; -500.109; -377.804
657.806; -189.410; -561.109; -593.804
658.077; -246.110; -866.109; -950.804
658.347; -159.110; -523.108; -598.805
658.618; -210.609; -646.108; -694.805
658.888;  -30.109;  -41.108;  112.195
659.159; -149.809; -432.108; -548.806
659.429; -154.909; -292.108; -349.806
659.700; -140.209; -435.107; -390.807
659.970; -136.408; -370.107; -359.807
660.241; -263.108; -754.107; -921.807
660.511;  -59.008; -147.107; -174.808
660.781; -215.308; -793.106; -748.808
661.052; -119.608; -222.106; -381.808
661.322;    5.393;   21.894;   -9.809
661.592;   68.893;  257.894;  148.191
661.862; -136.607; -369.106; -382.810
662.133; -185.907; -551.105; -502.810
662.403; -241.307; -770.105; -676.810
662.673; -125.906; -256.105; -213.811
662.943; -161.706; -612.105; -551.811
663.213;  -63.706;  -85.105;  -81.811
663.483; -154.306; -593.104; -568.812
663.753;  -57.305; -194.104; -152.812
664.023;    6.295;   68.896;  -32.813
664.293;  -96.905; -319.104; -126.813
664.563; -189.105; -694.104; -648.813
664.833; -222.805; -743.103; -608.814
665.103; -241.204; -730.103; -793.814
665.373; -227.704; -766.103; -806.814
665.643; -281.004; -863.103; -918.815
665.913; -200.804; -534.103; -714.815
666.182; -205.504; -685.102; -719.816
666.452;  -68.003;  -22.102;  -89.816
666.722; -225.203; -724.102; -784.816
666.992; -284.503; -948.102; -921.817
667.261; -253.103; -824.102; -808.817
667.531;  -28.403;  134.899;   45.183
667.801; -138.902; -440.101; -412.818
668.070;  201.898;  714.899;  697.182
668.340; -279.702; -883.101; -840.819
668.609;   78.498;  588.900;  301.181
668.879; -172.301; -490.100; -558.819
669.149; -135.801; -539.100; -516.820
669.418; -230.301; -698.100; -726.820
669.688; -217.201; -482.100; -666.820
669.957; -147.101; -423.099; -546.821
670.226;  -84.200; -268.099; -331.821
670.496; -163.300; -431.099; -635.822
670.765; -149.300; -418.099; -501.822
671.034; -241.600; -872.099; -828.822
671.304;   -8.200;   55.902; -111.823
671.573; -303.899;-1085.098; -957.823
671.842; -113.999; -380.098; -294.823
672.112; -198.699; -692.098; -586.824
672.381;  -53.999; -239.098; -214.824
672.650; -284.699;-1005.097;-1021.825
672.919; -191.998; -631.097; -507.825
673.188; -196.798; -681.097; -878.825
673.457; -348.798;-1101.097;-1143.826
673.726; -185.298; -579.096; -646.826
673.995; -164.797; -533.096; -479.826
674.265; -133.597; -263.096; -333.827
674.534;  -95.797; -183.096; -235.827
674.802; -147.897; -618.096; -703.828
675.071; -238.697; -886.095; -801.828
675.340; -169.496; -464.095; -339.828
675.609;    0.304;  103.905;   82.171
675.878; -255.596; -949.095; -893.829
676.147;  -23.496;  -26.095;   -8.829
676.416;  -85.996; -210.094; -294.830
676.685;  283.605; 1000.906; -622.830
676.953; -176.295; -603.094; -452.831
677.222;  -97.095; -193.094; -273.831
677.491;  -60.495;  -24.094; -127.831
677.759;  -24.195;   11.907;  172.168
678.028;  -79.394; -279.093; -222.832
678.297;  -30.894;   71.907;  197.168
678.565; -270.594; -898.093; -944.833
678.834; -100.694; -311.093; -268.833
679.102; -165.493; -411.092; -391.834
679.371; -262.093; -898.092; -727.834
679.639; -237.793; -797.092; -786.834
679.908; -233.793; -794.092; -724.835
680.176; -280.693; -895.091; -941.835
680.445; -129.292; -346.091; -352.835
680.713;  -13.992;  -58.091;  -23.836
680.982; -197.492; -523.091; -525.836
681.250; -174.792; -578.091; -507.837
681.518; -195.192; -534.090; -751.837
681.787;  -93.191; -204.090; -167.837
682.055; -136.791; -490.090; -422.838
682.323; -288.391; -993.090; -992.838
682.591;  -85.391; -216.090; -538.838
682.859;  -67.091;    9.911;  -35.839
683.128;   28.310;  232.911;  497.161
683.396; -318.190;-1102.089;-1122.840
683.664;  -66.490; -241.089;   21.160
683.932;   13.010;  144.911;  -76.840
684.200; -154.789; -576.088; -320.841
684.468;  -47.689;  -73.088; -124.841
684.736;  -69.689; -214.088; -175.841
685.004; -302.289;-1024.088; -982.842
685.272; -245.689; -880.088; -774.842
685.540; -198.588; -499.087; -557.843
685.808; -223.288; -651.087; -682.843
686.076; -254.288; -894.087; -969.843
686.343; -213.488; -601.087; -815.844
686.611;  -68.288; -195.087; -224.844
686.879; -172.387; -530.086; -553.844
687.147; -141.587; -483.086; -480.845
687.414;  -85.187;  -12.086; -169.845
687.682; -206.987; -658.086; -757.846
687.950;   58.013;  259.915;  263.154
688.217; -235.286; -792.085; -760.846
688.485; -182.586; -632.085; -636.847
688.753;  -56.186;  -11.085; -102.847
689.020; -263.286; -820.085; -851.847
689.288; -241.285; -853.084; -787.848
689.555;  -45.785; -195.084; -148.848
689.823;  -88.985; -241.084; -345.849
690.090; -199.785; -546.084; -651.849
690.358; -319.485; -877.084; -897.849
690.625;    0.316;  120.917;   45.150
690.892; -161.384; -403.083; -369.850
691.160;  -68.584;   72.917;  -35.850
691.427;   -7.584;  141.917;  130.149
691.694; -275.384; -855.083; -929.851
691.962; -310.083;-1177.082;-1060.852
692.229;  -34.883;  127.918;   56.148
692.496;    2.317;  130.918;  -49.852
692.763;  -88.483; -164.082; -201.853
693.031; -196.183; -739.082; -716.853
693.298; -201.082; -509.081; -368.853
693.565;  -45.682; -155.081; -163.854
693.832;  -51.382;   -5.081;   -9.854
694.099; -196.382; -643.081; -642.855
694.366; -270.781; -882.081; -896.855
694.633; -275.081; -920.080; -633.855
694.900; 1236.819; 4367.920; -114.856
695.167;  -48.981; -214.080; -380.856
695.434; -204.781; -646.080; -623.856
695.701;   42.020;  121.921;  -61.857
695.968; -175.680; -365.079; -361.857
696.234; -203.780; -415.079; -646.858
696.501; -219.280; -776.079; -614.858
696.768; -204.080; -554.079; -617.858
697.035; -233.479; -632.078; -667.859
697.302; -170.979; -448.078; -552.859
697.568; -129.779; -458.078; -497.859
697.835; -214.579; -683.078; -624.860
698.102; -167.079; -498.078; -407.860
698.368;   87.622;  384.923;  396.139
698.635; -154.178;  -47.077; -424.861
698.901; -120.978; -240.077; -348.861
699.168; -143.578; -534.077; -456.862
699.435;  -32.677;  -72.077;  -13.862
699.701; -301.177; -868.076; -764.862
699.968; -132.377;  144.924; -441.863
700.234; -250.077; -783.076; -822.863
700.500; -135.377; -448.076; -539.864
700.767;  -40.376;   -1.075;   26.136
701.033; -298.876;-1015.075; -963.864
701.299; -143.476; -450.075; -483.865
701.566;  189.524;  950.925;  763.135
701.832;  -26.076;  -31.075;  -76.865
702.098; -270.675;-1054.074;-1034.866
702.365; -328.275;-1098.074;-1030.866
702.631; -296.275;-1038.074;-1063.867
702.897; -213.275; -765.074; -676.867
703.163;   21.625;  348.926;  254.133
703.429; -135.674; -256.073; -273.868
703.695; -202.574; -796.073; -792.868
703.961;  -79.274; -214.073; -210.868
704.227; -193.674; -630.073; -725.869
704.493;  148.427;  613.927;  510.131
704.759; -183.773; -565.072; -540.870
705.025;  -65.373; -203.072; -194.870
705.291; -175.773; -666.072; -562.870
705.557;  161.227;  719.928;   34.129
705.823; -215.672; -742.072; -694.871
706.089;  -99.372; -307.071; -326.871
706.355; -100.472; -315.071; -244.872
706.620; -242.372; -776.071; -729.872
706.886; -109.672; -309.071; -362.873
707.152; -275.671; -818.070; -973.873
707.418; -351.771;-1153.070;-1186.873
707.683; -156.371; -550.070; -530.874
707.949; -173.671; -547.070; -578.874
708.215;  -87.171; -129.070; -207.874
708.480; -146.870; -520.069; -420.875
708.746;  -13.770;   68.931;   28.125
709.011; -144.770; -578.069; -612.876
709.277; -211.970; -538.069; -543.876
709.542; -158.969; -428.069; -387.876
709.808;  -45.469;  -59.068;   89.123
710.073; -211.269; -577.068; -695.877
710.339; -104.769; -242.068; -228.877
710.604; -243.569; -780.068; -845.878
710.869; -145.468; -277.068; -366.878
711.135; -210.068; -715.067; -628.879
711.400; -171.768; -507.067; -608.879
711.665; -122.768; -404.067; -479.879
711.931; -212.568; -661.067; -677.880
712.196; -276.167; -876.067; -954.880
712.461; -193.867; -402.066; -490.880
712.726; -213.367; -727.066; -771.881
712.991; -223.367; -647.066; -664.881
713.256; -109.267; -350.066; -332.882
713.521; -159.866; -417.065; -381.882
713.787; -150.666; -454.065; -472.882
714.052; -103.366; -214.065; -400.883
714.317; -293.766;-1045.065; -981.883
714.581; -115.065; -374.065; -268.883
714.846; -280.465; -822.064; -888.884
715.111;   32.135;  261.936;  257.116
715.376;  -98.065;  -86.064; -223.885
715.641; -132.265; -365.064; -367.885
715.906; -146.564;   15.936; -551.885
716.171;   40.036;  221.937;  209.114
716.436;  -61.564;  -78.063; -104.886
716.700; -228.564; -818.063; -692.886
716.965; -212.964; -794.063; -807.887
717.230; -116.563; -339.063; -392.887
717.494;  -68.363;  -40.062; -134.888
717.759; -221.463; -784.062; -640.888
718.024;   13.137;  269.938;  250.112
718.288;  144.937;  685.938;  395.111
718.553; -274.862; -803.062; -977.889
718.817; -285.362; -883.061; -899.889
719.082;  -38.262; -115.061; -125.890
719.346; -271.062;-1000.061; -947.890
719.611;  -66.961; -300.061; -255.891
719.875; -184.061; -568.060; -537.891
720.140; -165.361; -453.060; -603.891
720.404;  -90.761; -136.060; -249.892
720.668; -101.761; -475.060; -411.892
720.933;  -13.060;  146.940;  137.108
721.197; -221.860; -667.059; -600.893
721.461; -245.160; -851.059; -826.893
721.725;  -14.360;  -21.059; -250.894
721.990; -108.260; -284.059; -204.894
722.254;  -41.359;  -26.059; -108.894
722.518; -146.359; -286.058; -442.895
722.782; -161.259; -743.058; -594.895
723.046;  148.041;  614.942;  570.105
723.310;   79.341;  374.942;  210.104
723.574; -196.058; -654.058; -614.896
723.838; -188.758; -576.057; -642.897
724.102;  -93.658; -226.057; -239.897
724.366; -276.658;-1032.057; -978.897
724.630; -167.457; -749.057; -571.898
724.894; -150.257; -722.057; -514.898
725.158;  -12.557;   38.944; -295.898
725.422; -133.257; -394.056; -327.899
725.685; -153.157; -441.056; -349.899
725.949; -172.356; -566.056; -519.900
726.213; -243.356; -732.056; -811.900
726.477; -286.556;-1020.055; -933.900
726.740;  -68.856; -274.055; -104.901
727.004; -132.356; -384.055; -510.901
727.268; -138.755; -442.055; -400.901
727.531; -264.955; -961.055; -775.902
727.795; -245.155; -713.054; -673.902
728.059; -184.055; -552.054; -557.903
728.322; -240.955; -841.054; -669.903
728.586; -182.854; -692.054; -701.903
728.849; -223.554; -695.053; -756.904
729.112; -214.354; -812.053; -912.904
729.376; -271.754; -959.053; -905.904
729.639; -157.053; -536.053; -536.905
729.903; -234.753; -733.053; -699.905
730.166; -127.853; -437.052; -399.906
730.429;  -79.653; -317.052; -468.906
730.693; -171.853; -355.052; -894.906
730.956;  177.948;  810.948;  651.093
731.219;  -83.652; -310.052; -103.907
731.482; -264.452;-1003.051; -894.907
731.745; -297.252; -794.051; -935.908
732.009;  -26.852;  -30.051;   50.092
732.272; -228.651; -904.051; -771.909
732.535; -117.851; -300.051; -310.909
732.798; -306.851;-1083.050;-1166.909
733.061; -127.751; -430.050; -456.910
733.324;  -16.751;   31.950; -180.910
733.587;   89.250;  290.950;  365.090
733.850; -200.350; -973.049;-1050.911
734.113;    2.450;   33.951;   32.089
734.376; -110.150; -328.049; -447.912
734.639;  279.551; 1188.951; 1011.088
734.901;  -80.249; -180.049; -402.912
735.164; -254.649; -883.048; -837.913
735.427;  -96.749; -166.048; -355.913
735.690;  -70.749; -205.048; -234.913
735.952; -283.748; -923.048; -925.914
736.215; -310.748;-1113.048;-1009.914
736.478; -235.548; -771.047; -774.915
736.740;  -51.148;   33.953;  129.085
737.003; -243.648; -658.047; -672.915
737.266;  173.653;  -94.047;   46.084
737.528; -187.247; -682.047; -660.916
737.791; -126.547; -316.046; -327.916
738.053;   65.353;  465.954;  649.083
738.316;  -76.947; -162.046; -136.917
738.578; -231.846; -770.046; -736.918
738.841; -142.446; -382.046; -446.918
739.103; -219.746; -875.045; -777.918
739.365;  -33.446;   79.955;  -69.919
739.628; -255.045; -884.045; -805.919
739.890; -177.345; -758.045; -710.919
740.152; -228.445; -692.044; -754.920
740.414; -149.845; -408.044; -359.920
740.677; -199.145; -785.044; -634.921
740.939; -218.844; -587.044; -487.921
741.201; -138.144; -432.044; -572.921
741.463; -206.844; -689.043; -745.922
741.725;  -42.344;  -21.043; -199.922
741.987;   16.856;  220.957;  116.078
742.249; -243.643; -751.043; -859.923
742.511; -232.743; -703.043; -794.923
742.773; -125.743; -546.042; -546.924
743.035;  119.657;  796.958;  533.076
743.297; -298.343; -963.042;-1013.924
743.559;  -92.442; -278.042; -262.925
743.821; -248.742; -735.042; -744.925
744.083;  -74.042;  -44.041; -149.925
744.345; -282.342; -869.041; -892.926
744.607;    2.259;   75.959;  122.074
744.868; -174.441; -490.041; -554.927
745.130; -308.341; -994.041;-1008.927
745.392;   -1.841;   -1.040;  -44.927
745.653; -122.341; -411.040; -378.928
745.915;  196.960;  896.960;  631.072
746.177;  -34.340;   35.960;  -43.928
746.438; -174.440; -428.040; -543.929
746.700; -277.540; -947.039; -988.929
746.961; -242.940; -659.039; -740.930
747.223;  -83.839; -190.039;  -74.930
747.484; -149.539; -391.039; -471.930
747.746;  -66.739;  -23.038; -106.931
748.007; -189.639; -647.038; -689.931
748.269; -115.739; -468.038; -440.931
748.530; -175.438; -852.038; -638.932
748.791; -150.038; -354.038; -420.932
749.053;   60.762;  286.963;  163.067
749.314; -105.238; -236.037; -169.933
749.575; -251.837; -945.037; -905.933
749.836;  -94.437; -217.037;   86.066
750.098;  -51.137;  -60.037;  -21.934
750.359;   90.063;  414.964;  555.066
750.620;  -56.437; -121.036; -220.935
750.881; -218.736; -585.036; -513.935
751.142; -255.536; -950.036; -938.936
751.403; -218.236; -789.036; -705.936
751.664; -285.336;-1034.035; -999.936
751.925;  -90.236; -175.035; -262.937
752.186; -107.335; -298.035; -278.937
752.447; -161.235; -590.035; -445.937
752.708; -204.235; -532.035; -648.938
752.969; -202.535; -566.034; -576.938
753.230; -195.235; -777.034; -672.939
753.491; -205.734; -650.034; -631.939
753.751;   -4.634;  109.966;   19.061
754.012;    8.866;  258.967;  181.060
754.273;  -48.734; -174.033;  -71.940
754.534; -163.333; -487.033; -580.940
754.794; -283.933; -926.033; -911.941
755.055;  230.667; 1051.967;  881.059
755.316; -206.033; -700.032; -566.942
755.576; -180.533; -606.032; -576.942
755.837; -175.932; -527.032; -695.942
756.097; -176.432; -530.032; -564.943
756.358; -241.832; -725.032; -770.943
756.618; -212.932; -705.031; -641.943
756.879; -125.832; -254.031; -349.944
757.139; -339.931;-1098.031;-1116.944
757.400; -193.231; -538.031; -553.945
757.660; -120.631; -365.031; -401.945
757.920;  -92.531; -266.030; -228.945
758.181; -102.231; -468.030; -351.946
758.441; -268.230; -870.030; -809.946
758.701; -107.530; -308.030; -215.946
758.961; -108.630; -220.030; -278.947
759.222; -207.230; -574.029; -502.947
759.482; -204.729; -683.029; -723.948
759.742; -266.429; -706.029; -547.948
760.002;  -29.429;  -83.029; -143.948
760.262;  -18.429;   50.972;  182.051
760.522; -162.829; -498.028; -574.949
760.782; -182.328; -738.028; -612.949
761.042; -197.928; -618.028; -573.950
761.302;  -51.528;   55.972;  -18.950
761.562;  -47.828; -164.027; -154.951
761.822; -208.528; -710.027; -551.951
762.082; -332.327;-1104.027;-1093.951
762.342; -100.127; -328.027; -403.952
762.601; -209.027; -567.027; -506.952
762.861; -117.627; -281.026; -207.952
763.121; -116.527; -406.026; -411.953
763.381; -160.926; -499.026; -485.953
763.640; -121.226; -139.026; -307.954
763.900;  -92.926; -242.026; -203.954
764.160; -128.626; -458.025; -491.954
764.419; -224.125; -726.025; -782.955
764.679; -238.225; -795.025; -726.955
764.939;  -79.525; -124.025; -210.955
765.198; -205.625; -608.025; -563.956
765.458; -212.525; -710.024; -612.956
765.717; -216.824; -454.024; -590.957
765.976; -114.224; -428.024; -411.957
766.236; -197.024; -475.024; -610.957
766.495;  -14.424;  260.977;   73.042
766.755; -337.924;-1090.023; -987.958
767.014; -193.823; -594.023; -665.958
767.273; -123.123; -373.023; -397.959
767.533; -110.723; -228.023; -307.959
767.792;  -85.823; -151.022; -188.960
768.051; -124.623; -228.022; -276.960
768.310; -164.322; -546.022; -650.960
768.569;  -34.622; -161.022;    4.039
768.828;  -98.622; -285.022; -363.961
769.088; -319.022;-1050.021; -942.961
769.347; -216.821; -755.021; -599.962
769.606; -274.921; -876.021; -857.962
769.865; -323.921;-1016.021;-1033.963
770.124; -109.621; -411.021; -336.963
770.383; -266.721; -778.020; -910.963
770.641; -169.020; -398.020; -400.964
770.900; -290.120; -953.020; -846.964
771.159; -288.020; -851.020; -951.964
771.418; -267.920; -917.020; -779.965
771.677;  -77.120; -224.019; -293.965
771.936; -259.919; -794.019; -865.966
772.194; -245.719; -465.019; -437.966
772.453; -116.719; -213.019; -391.966
772.712;   78.281;  416.982;  329.033
772.970;  -18.119;   32.982;   63.033
773.229;  -25.918;  -22.018;  102.033
773.488; -264.218; -814.018; -770.968
773.746;   48.182;  296.982;  335.032
774.005;  -23.818;  190.983;  -22.969
774.263;   29.283;  243.983;  177.031
774.522; -205.617; -422.017; -548.969
774.780; -140.417; -484.017; -417.970
775.039; -172.017; -551.017; -531.970
775.297;  -58.017; -135.016; -351.970
775.555; -232.316; -489.016; -612.971
775.814; -200.116; -618.016; -570.971
776.072; -232.616; -749.016; -740.971
776.330; -183.816; -630.016; -520.972
776.589; -233.916; -703.015; -721.972
776.847; -222.015; -645.015; -624.973
777.105; -299.515;-1016.015;-1032.973
777.363; -163.715; -459.015; -454.973
777.621; -223.715; -660.015; -717.974
777.879;  -43.115;  -42.014;   32.026
778.138; -177.214; -554.014; -717.974
778.396; -194.314; -585.014; -526.975
778.654; -299.414;-1015.014; -970.975
778.912; -108.314; -269.014; -371.976
779.170; -250.313; -880.013; -803.976
779.427; -277.213; -922.013; -897.976
779.685; -269.113; -880.013; -832.977
779.943; -185.213; -654.013; -593.977
780.201; -287.213; -964.012; -883.978
780.459; -185.512; -651.012; -610.978
780.717; -123.912; -440.012; -390.978
780.974; -165.512; -449.012; -490.979
781.232; -158.512; -358.012; -338.979
781.490; -193.412; -551.011; -472.979
781.747; -180.811; -555.011; -476.980
782.005;   76.189;  462.989;  254.020
782.263; -293.811; -542.011;-1004.981
782.520; -142.711; -326.011; -501.981
782.778; -317.311;-1013.010;-1051.981
783.035; -313.710; -962.010; -938.982
783.293;  -97.110; -248.010; -206.982
783.550;  -58.310; -134.010; -198.982
783.808; -251.310; -764.010; -776.983
784.065; -279.509; -745.009; -874.983
784.322;  -38.709;   25.991;  -86.984
784.580; -255.009; -915.009; -771.984
784.837; -141.609; -392.009; -466.984
785.094; -248.709; -783.009; -762.985
785.352; -137.808; -304.008; -404.985
785.609; -301.808; -934.008; -839.985
785.866; -138.608; -345.008; -401.986
786.123; -206.508; -639.008; -583.986
786.380; -172.108; -665.008; -604.987
786.637; -114.007; -225.007; -380.987
786.895; -185.007; -456.007; -543.987
787.152;  -71.007; -135.007; -267.988
787.409;  -33.907; -123.007; -225.988
787.666; -134.007; -299.006; -378.988
787.923; -198.206; -616.006; -695.989
788.179; -175.406; -551.006; -584.989
788.436; -192.506; -585.006; -585.990
788.693;  -67.606;  -92.006;  -87.990
788.950;  -61.405; -125.005; -112.990
789.207; -143.505; -381.005; -372.991
789.464;  -94.805; -161.005; -301.991
789.720;   23.695;  150.995;  110.009
789.977; -303.805;-1003.005; -671.992
790.234;  -40.404;   44.996;  -66.992
790.490; -280.904; -884.004;-1031.993
790.747;  -55.504;  -85.004;   22.007
791.004; -128.804; -426.004; -348.993
791.260; -153.104; -430.004; -560.994
791.517; -234.303; -843.003; -788.994
791.773; -134.403; -379.003; -342.994
792.030; -224.903; -596.003; -660.995
792.286; -219.703; -686.003; -636.995
792.543;  -44.103;  -74.002; -159.995
792.799; -165.602; -584.002; -382.996
793.055; -378.502;-1179.002;-1210.996
793.312; -254.502; -827.002; -816.997
793.568; -222.602; -746.002; -599.997
793.824; -112.401; -226.001; -284.997
794.081; -164.901; -447.001; -508.998
794.337; -193.501; -664.001; -561.998
794.593; -107.601; -319.001; -271.999
794.849; -246.501; -746.001; -772.999
795.105; -112.800; -270.000; -261.999
795.361; -155.400; -490.000; -457.000
795.617; -258.700; -875.000; -945.000
795.873; -165.900; -360.000; -407.000
796.129; -116.200; -368.000; -306.000
796.385; -104.200; -124.000; -156.000
796.641;   96.000;  412.000;  550.000
796.897; -214.700; -666.000; -635.000
797.153;   88.400;  453.000;  357.000
797.409; -286.100; -785.000; -868.000
797.665; -221.400; -625.000; -732.000
797.921; -243.300; -775.000; -762.000
798.176; -219.100; -744.000; -747.000
798.432; -272.400; -824.000; -596.000
798.688; -308.600;-1174.000;-1078.000
798.943;  -80.100; -165.000; -147.000
799.199; -286.200;-1005.000; -959.000
799.455;  105.800;  369.000;  316.000
799.710; -226.000; -813.000; -380.000
799.966;  -97.000; -162.000; -160.000
800.221; -208.400; -638.000; -721.000
800.477; -231.700; -743.000; -710.000
800.732; -275.300; -773.000; -800.000
800.988;   16.300;  205.000;  -19.000
801.243; -121.200; -454.000; -344.000
801.498; -236.200; -814.000; -739.000
801.754;  -91.000; -289.000; -163.000
802.009;  -93.600; -257.000; -335.000
802.264; -322.100; -967.000;-1033.000
802.520;  -56.400;  222.000;   -3.000
802.775; -169.600; -524.000; -359.000
803.030;   33.600;  395.000;  356.000
803.285; -295.300; -840.000; -903.000
803.540; -211.400; -686.000; -699.000
803.795; -197.200; -648.000; -583.000
804.051; -100.900; -279.000; -346.000
804.306;   -4.900;  168.000;  128.000
804.561;   50.900;  451.000;  362.000
804.816;  194.200;  714.000;  861.000
805.071;  -93.500; -185.000; -280.000
805.325; -130.700; -257.000; -427.000
805.580; -287.300; -841.000; -877.000
805.835; -107.800; -204.000; -297.000
806.090; -210.200; -760.000; -676.000
806.345; -130.100; -344.000; -264.000
806.600; -205.800; -549.000; -632.000
806.854; -172.700; -408.000; -538.000
807.109; -184.000; -493.000; -577.000
807.364; -126.500; -407.000; -328.000
807.618; -171.500; -415.000; -381.000
807.873; -169.700; -470.000; -494.000
808.128;  -94.500; -257.000; -518.000
808.382; -127.600; -224.000; -332.000
808.637; -189.200; -440.000; -511.000
808.891;  -73.900; -257.000; -180.000
809.146; -314.500; -902.000; -794.000
809.400; -252.800; -848.000; -923.000
809.654; -226.500; -779.000; -551.000
809.909; -302.700; -841.000; -927.000
810.163; -239.400; -813.000; -651.000
810.418; -274.700; -940.000; -861.000
810.672; -216.700; -685.000; -690.000
810.926; -305.200; -993.000; -973.000
811.180; -161.600; -439.000; -372.000
811.434;    0.700;  240.000;  135.000
811.689; -163.200; -231.000; -365.000
811.943; -295.200; -936.000; -953.000
812.197; -244.500; -893.000; -671.000
812.451; -191.100; -379.000; -514.000
812.705; -282.000; -809.000; -619.000
812.959; -121.900; -263.000; -388.000
813.213;  -91.700; -283.000; -209.000
813.467;  102.300;  470.000;  253.000
813.721; -242.100; -764.000; -792.000
813.975; -278.700; -826.000; -877.000
814.229;   48.800;  430.000;  353.000
814.482; -188.400; -517.000; -566.000
814.736; -270.000; -766.000; -744.000
814.990; -286.400; -779.000; -872.000
815.244;  -97.700; -228.000; -285.000
815.497; -188.800; -636.000; -601.000
815.751;  -69.300; -141.000;   82.000
816.005; -174.600; -470.000; -586.000
816.258; -142.500; -510.000; -363.000
816.512; -239.600; -693.000; -610.000
816.766;  -31.800;  121.000;  157.000
817.019;   40.800;  148.000;  149.000
817.273; -325.700;-1000.000; -802.000
817.526;  -90.600; -206.000; -173.000
817.779; -329.500;-1049.000; -960.000
818.033; -244.700; -693.000; -807.000
818.286; -241.300; -725.000; -792.000
818.540; -160.200; -403.000; -403.000
818.793; -147.700; -402.000; -489.000
819.046; -213.900; -582.000; -520.000
819.299;  -45.500; -157.000; -166.000
819.553; -204.400; -552.000; -592.000
819.806; -302.800;-1016.000; -838.000
820.059; -119.900; -334.000; -354.000
820.312;  -13.000;  152.000;  185.000
820.565;    0.400;  110.000;  -27.000
820.818;  -82.000;  -59.000; -173.000
821.071; -319.000;-1041.000; -957.000
821.324; -203.600; -536.000; -540.000
821.577; -171.500; -457.000; -483.000
821.830; -113.000; -270.000; -172.000
822.083; -225.100; -733.000; -288.000
822.336;  -93.700; -261.000; -167.000
822.589; -235.100; -805.000; -688.000
822.842; -285.000; -875.000; -770.000
823.094; -324.600;-1076.000;-1114.000
823.347; -258.600; -925.000; -729.000
823.600;   25.200;  402.000;  187.000
823.853; -121.200; -311.000; -267.000
824.105; -155.700; -331.000; -575.000
824.358; -259.100; -617.000; -716.000
824.611;   -6.800;  234.000;   40.000
824.863; -215.400; -612.000; -591.000
825.116;  -47.700;  -33.000;   27.000
825.368; -154.600; -366.000; -372.000
825.621;  -93.800; -186.000; -240.000
825.873; -223.700; -704.000; -737.000
826.126; -246.600; -669.000; -641.000
826.378; -169.200; -389.000; -505.000
826.630; -293.400; -890.000; -898.000
826.883; -246.700; -754.000; -693.000
827.135; -151.300; -279.000; -270.000
827.387; -302.900; -893.000; -839.000
827.639;  -57.100;  -86.000;   32.000
827.892; -252.500; -742.000; -582.000
828.144; -235.300; -848.000; -804.000
828.396;  -44.000;  104.000;  -80.000
828.648; -146.700; -440.000; -333.000
828.900; -273.600; -702.000; -795.000
829.152; -213.800; -684.000; -683.000
829.404; -106.700; -215.000; -267.000
829.656;  -10.900;  321.000;  214.000
829.908;  -14.200;  393.000;  229.000
830.160; -290.600;-1064.000;-1047.000
830.412; -191.200; -481.000; -430.000
830.664; -210.400; -557.000; -665.000
830.916; -117.700; -268.000; -206.000
831.167; -325.000;-1073.000; -951.000
831.419; -203.300; -623.000; -566.000
831.671; -249.400; -764.000; -809.000
831.923; -154.500; -311.000; -447.000
832.174; -124.100; -273.000; -331.000
832.426; -202.000; -493.000; -582.000
832.678; -370.100;-1043.000;-1091.000
832.929; -324.000; -947.000; -935.000
833.181; -214.000; -575.000; -677.000
833.432;  -72.500;  -59.000; -186.000
833.684;   12.200;  112.000;  -27.000
833.935; -229.000; -610.000; -566.000
834.187; -233.600; -829.000; -823.000
834.438;  -79.400;  -58.000;  -25.000
834.689;  -85.600; -255.000; -123.000
834.941; -108.300; -343.000; -244.000
835.192; -190.900; -590.000; -533.000
835.443; -182.500; -419.000; -506.000
835.695;  -13.500;  138.000;  -16.000
835.946; -183.800; -608.000; -378.000
836.197; -195.200; -599.000; -622.000
836.448; -189.400; -528.000; -395.000
836.699; -126.400; -253.000; -341.000
836.950;  -40.600;   72.000;    7.000
837.201; -314.300;-1003.000; -987.000
837.452; -132.800; -356.000; -170.000
837.703; -263.000; -791.000; -737.000
837.954; -135.300; -205.000; -365.000
838.205; -315.200;-1029.000;-1008.000
838.456; -117.200; -196.000; -282.000
838.707; -160.200; -423.000; -519.000
838.958; -263.100; -634.000; -647.000
839.209;  -34.800;   18.000;   40.000
839.460;  -99.500; -439.000; -201.000
839.710;  -82.700; -135.000; -297.000
839.961;  110.300;  730.000;  612.000
840.212; -175.400; -382.000; -497.000
840.462; -157.800; -328.000; -277.000
840.713; -187.700; -571.000; -536.000
840.964;  -97.400;  -62.000; -143.000
841.214; -190.000; -384.000; -624.000
841.465;  -63.600; -214.000; -141.000
841.715; -158.700; -417.000; -380.000
841.966; -221.800; -746.000; -685.000
842.216; -156.600; -330.000; -431.000
842.466; -118.700; -169.000; -313.000
842.717; -328.300; -964.000; -952.000
842.967; -206.100; -635.000; -641.000
843.217;  -62.000;   20.000;   28.000
843.468;  -70.100; -104.000; -132.000
843.718; -221.400; -718.000; -726.000
843.968; -269.900; -837.000; -765.000
844.218; -144.900; -315.000; -262.000
844.469; -222.000; -577.000; -561.000
844.719; -224.400; -537.000; -682.000
844.969; -182.800; -550.000; -580.000
845.219; -263.800; -814.000; -862.000
845.469; -158.600; -392.000; -342.000
845.719; -259.900; -792.000; -884.000
845.969;   -8.200;  119.000;  174.000
846.219; -207.800; -738.000; -720.000
846.469;   62.900;  464.000;  432.000
846.718; -107.200; -115.000;   31.000
846.968; -274.400; -827.000; -827.000
847.218;  -80.900; -224.000; -371.000
847.468; -218.500; -586.000; -555.000
847.718; -279.800; -827.000; -798.000
847.967; -291.700; -826.000; -915.000
848.217; -141.300; -449.000; -569.000
848.467; -100.800; -405.000; -376.000
848.716; -238.300; -708.000; -725.000
848.966; -139.100; -372.000; -358.000
849.215; -140.700; -428.000; -419.000
849.465; -269.400; -785.000; -615.000
849.714; -367.800;-1132.000;-1150.000
849.964; -172.700; -551.000; -613.000
850.213; -145.500; -393.000; -355.000
850.463;   14.600;  137.000;  340.000
850.712; -180.400; -542.000; -567.000
850.961; -252.500; -739.000; -678.000
851.211; -170.700; -513.000; -504.000
851.460; -208.700; -635.000; -650.000
851.709;  -35.400;  -25.000;   18.000
851.958; -265.500; -912.000; -750.000
852.208; -289.800; -859.000; -879.000
852.457;  -76.300; -181.000;  -13.000
852.706; -260.200; -791.000; -823.000
852.955; -184.400; -507.000; -528.000
853.204; -184.400; -521.000; -461.000
853.453; -153.900; -418.000; -458.000
853.702; -265.800; -660.000; -750.000
853.951; -184.500; -532.000; -520.000
854.200; -213.200; -613.000; -562.000
854.449; -263.500; -695.000; -661.000
854.698; -129.900; -340.000; -279.000
854.946;  -77.400; -181.000; -284.000
855.195; -266.500; -843.000; -868.000
855.444; -126.700; -395.000; -420.000
855.693; -194.100; -345.000; -432.000
855.941; -227.900; -387.000; -516.000
856.190;  -77.700; -256.000; -382.000
856.439; -258.700; -652.000; -703.000
856.687;  -71.700;  -99.000;  -72.000
856.936; -187.200; -621.000; -323.000
857.184; -303.700;-1067.000;-1020.000
857.433; -164.700; -423.000; -512.000
857.681; -294.100; -989.000; -953.000
857.930; -119.800; -282.000; -433.000
858.178; -280.700; -856.000; -929.000
858.427; -273.900; -802.000; -781.000
858.675; -186.900; -377.000; -544.000
858.923; -178.200; -527.000; -819.000
859.172; -300.800;-1094.000;-1070.000
859.420; -147.200; -339.000; -239.000
859.668; -228.500; -624.000; -628.000
859.916;  -13.800;  109.000;  115.000
860.164; -210.400; -699.000; -603.000
860.413; -259.900; -878.000; -696.000
860.661; -243.000; -709.000; -577.000
860.909; -165.900; -339.000; -325.000
861.157; -139.700; -277.000; -444.000
861.405; -230.300; -534.000; -670.000
861.653;   64.200;  310.000;  310.000
861.901; -203.100; -543.000; -613.000
862.149; -288.400; -801.000; -824.000
862.396; -148.200; -297.000; -187.000
862.644; -151.600; -368.000; -347.000
862.892;  -12.500;   98.000;  138.000
863.140; -183.900; -549.000; -530.000
863.388; -292.600; -815.000; -759.000
863.635; -193.600; -642.000; -601.000
863.883;   14.300;  231.000;  190.000
864.131; -147.700; -288.000; -357.000
864.378; -227.000; -675.000; -540.000
864.626; -145.700; -347.000; -415.000
864.873; -208.000; -556.000; -505.000
865.121; -258.100; -714.000; -799.000
865.368;  -72.700; -173.000;   75.000
865.616;  -86.600;  -33.000;  -40.000
865.863; -207.900; -462.000; -506.000
866.111; -269.800; -795.000; -824.000
866.358; -154.400; -426.000; -420.000
866.605;  -67.800;  -64.000; -804.000
866.853; -212.000; -621.000; -537.000
867.100; -268.700; -728.000; -775.000
867.347; -233.100; -672.000; -611.000
867.594; -207.700; -740.000; -714.000
867.841;  -17.500;   97.000;   17.000
868.089; -259.700; -746.000; -698.000
868.336; -182.600; -477.000; -420.000
868.583; -213.100; -637.000; -741.000
868.830;  -54.300; -131.000; -170.000
869.077; -268.700; -859.000; -787.000
869.324; -215.300; -502.000; -458.000
869.571; -202.100; -398.000; -430.000
869.818; -216.900; -485.000; -439.000
870.065; -165.600; -439.000; -513.000
870.311; -166.600; -456.000; -542.000
870.558; -153.900; -332.000; -311.000
870.805; -115.700; -320.000; -384.000
871.052; -159.800; -494.000; -369.000
871.298; -102.500; -204.000; -131.000
871.545;  -79.100; -151.000; -185.000
871.792; -139.500; -173.000; -222.000
872.038;  -72.100;   43.000; -126.000
872.285; -172.500; -496.000; -387.000
872.532; -143.300; -357.000; -387.000
872.778;   84.600;  556.000;  403.000
873.025; -143.900; -384.000; -359.000
873.271;   80.900;  501.000;  578.000
873.517;  -66.800; -133.000; -209.000
873.764;  -74.000; -193.000;  -80.000
874.010; -106.000; -143.000; -230.000
874.257;  -17.500;  123.000;   90.000
874.503; -172.100; -579.000; -479.000
874.749;  -98.300;   31.000;  275.000
874.995;  -74.000;  -80.000;  -20.000
875.242; -205.700; -540.000; -478.000
875.488; -170.700; -414.000; -439.000
875.734; -104.000; -106.000; -234.000
875.980; -325.000; -872.000;-1032.000
876.226;  -97.000; -157.000; -255.000
876.472;   19.400;  343.000;  237.000
876.718;  -50.700;  184.000;  158.000
876.964;   -5.400;   56.000;   55.000
877.210; -240.600; -547.000; -677.000
877.456; -197.000; -630.000; -557.000
877.702; -286.900; -821.000; -832.000
877.948; -137.200; -377.000; -497.000
878.193;   54.800;  361.000;  255.000
878.439; -192.000; -487.000; -472.000
878.685; -127.100; -272.000; -343.000
878.931; -178.600; -618.000; -676.000
879.176; -133.800; -201.000; -201.000
879.422; -286.700; -933.000; -820.000
879.668;   38.800;   10.000;   79.000
879.913;  -57.900;   53.000;  137.000
880.159;  -89.600; -112.000;  -17.000
880.404;  -63.100; -152.000; -162.000
880.650;   -4.100;   91.000;  141.000
880.895; -252.600; -670.000; -710.000
881.141; -180.500; -454.000; -428.000
881.386; -230.900; -503.000; -658.000
881.631; -110.600; -311.000; -166.000
881.877;  -40.400;  112.000;  -13.000
882.122; -207.400; -684.000; -600.000
882.367; -100.200; -136.000; -186.000
882.612;  -97.900;  -80.000; -176.000
882.858; -286.500; -877.000; -823.000
883.103; -129.600; -297.000; -267.000
883.348; -238.400; -759.000; -852.000
883.593; -248.500; -677.000; -602.000
883.838; -104.700; -311.000;  -24.000
884.083;   -3.200;  353.000;  288.000
884.328; -140.400; -564.000; -545.000
884.573;  -98.500; -196.000; -143.000
884.818; -203.800; -694.000; -531.000
885.063; -155.500; -348.000; -315.000
885.308; -171.700; -475.000; -398.000
885.553;   38.000;  245.000;  325.000
885.797; -210.100; -545.000; -615.000
886.042;  -64.300;    8.000;   58.000
886.287;  -80.600; -253.000; -211.000
886.532;  -54.900;   26.000;  204.000
886.776; -150.200; -407.000; -525.000
887.021; -236.900; -621.000; -574.000
887.265; -238.100; -685.000; -689.000
887.510; -205.800; -557.000; -496.000
887.755; -110.600; -194.000; -164.000
887.999; -223.000; -552.000; -575.000
888.244;  -58.900;  -58.000;  161.000
888.488;   62.100;  371.000;  393.000
888.732; -175.700; -368.000; -520.000
888.977; -235.700; -622.000; -567.000
889.221; -261.700; -683.000; -659.000
889.465; -213.500; -422.000; -566.000
889.710; -124.500;  -56.000; -299.000
889.954;   54.900;  579.000;  467.000
890.198; -234.800; -584.000; -707.000
890.442; -255.000; -716.000; -712.000
890.687; -269.200; -800.000; -753.000
890.931; -137.700; -273.000; -210.000
891.175; -222.400; -502.000; -500.000
891.419;  -67.500; -105.000; -110.000
891.663; -102.000; -239.000; -112.000
891.907; -278.900; -801.000; -545.000
892.151; -314.100; -920.000; -815.000
892.395; -170.200; -274.000; -387.000
892.638;   37.600;  408.000;  291.000
892.882; -308.300; -780.000; -867.000
893.126;   72.700;  758.000;  558.000
893.370; -125.000; -167.000; -168.000
893.614; -238.900; -714.000; -715.000
893.857; -148.000; -183.000; -197.000
894.101; -205.100; -527.000; -631.000
894.345;  -19.900;  300.000;  150.000
894.588;   91.200;  569.000;  380.000
894.832; -106.700; -178.000;  -84.000
895.075;  -56.600;   15.000;  -92.000
895.319; -184.700; -552.000; -420.000
895.563; -145.300; -413.000; -353.000
895.806; -230.600; -628.000; -741.000
896.049; -176.700; -576.000; -368.000
896.293;   29.000;  527.000;  405.000
896.536; -193.800; -465.000; -468.000
896.779;  -79.000; -149.000;   -1.000
897.023; -265.700; -751.000; -714.000
897.266;  -43.000;  325.000;  269.000
897.509; -286.400; -900.000; -901.000
897.752;  -48.500;  149.000;  171.000
897.996; -301.300; -972.000; -864.000
898.239;  -33.900;  168.000;  102.000
898.482; -199.300; -431.000; -453.000
898.725;  -63.900;  101.000;   53.000
898.968; -253.200; -609.000; -744.000
899.211; -201.200; -513.000; -361.000
899.454; -216.300; -633.000; -539.000
899.697;  -60.700;   90.000;  -43.000
899.940; -267.400; -761.000; -757.000
900.182; -142.100; -335.000; -405.000
900.425; -104.700; -150.000; -298.000
900.668;    9.800;  491.000;  350.000
900.911; -149.800; -292.000; -345.000
901.154;  -70.700;  141.000;   -3.000
901.396; -210.800; -407.000; -412.000
901.639; -223.600; -430.000; -496.000
901.882; -292.000; -790.000; -809.000
902.124;  -95.600;  -29.000; -143.000
902.367; -156.500; -315.000; -361.000
902.609; -218.100; -476.000; -453.000
902.852;  -92.600; -108.000; -260.000
903.094; -187.500; -458.000; -337.000
903.337;  -37.700;  -26.000;   53.000
903.579; -151.000; -228.000; -441.000
903.821; -233.400; -597.000; -744.000
904.064;  -74.900;   85.000;  127.000
904.306; -112.500; -126.000; -166.000
904.548; -149.400; -152.000; -366.000
904.790; -140.200; -195.000; -340.000
905.033; -235.200; -625.000; -577.000
905.275; -206.400; -513.000; -524.000
905.517;   10.300;  468.000;  256.000
905.759; -249.800; -667.000; -761.000
906.001; -187.500; -322.000; -369.000
906.243; -139.900; -162.000; -224.000
906.485; -143.300; -265.000; -207.000
906.727; -246.400; -499.000; -542.000
906.969; -104.900;  -30.000; -135.000
907.211; -187.700; -316.000; -382.000
907.453; -151.900; -188.000; -237.000
907.695; -136.300; -158.000; -385.000
907.936;   93.600;  818.000;  706.000
908.178;  -85.400;   92.000; -135.000
908.420; -136.100; -111.000; -162.000
908.662; -246.800; -633.000; -682.000
908.903; -151.500; -208.000; -123.000
909.145; -119.700; -240.000; -305.000
909.386;   -9.700;  315.000;  280.000
909.628;   57.300;  363.000;  397.000
909.870;  -60.300;   29.000;  264.000
910.111; -306.500; -809.000; -949.000
910.353; -134.200; -123.000; -161.000
910.594; -236.200; -574.000; -606.000
910.835; -164.400; -265.000; -326.000
911.077; -227.400; -503.000; -604.000
911.318; -226.800; -505.000; -471.000
911.559; -281.800; -577.000; -880.000
911.801; -159.400; -284.000; -280.000
912.042;  -57.300;  -50.000; -159.000
912.283;   31.100;  404.000;  371.000
912.524; -203.400; -396.000; -457.000
912.765; -113.400; -193.000;   79.000
913.006; -153.200; -307.000; -338.000
913.247; -186.200; -270.000; -290.000
913.488; -100.300;  -43.000;   30.000
913.729; -187.500; -373.000; -373.000
913.970; -111.200;  -96.000; -292.000
914.211; -125.200; -160.000; -198.000
914.452; -101.000; -118.000;  -11.000
914.693;   47.400;  510.000;  592.000
914.934;   91.800;  510.000;  440.000
915.175; -103.300;   53.000;  -95.000
915.415; -110.600; -137.000;   27.000
915.656;  -88.800;  -28.000;  192.000
915.897; -126.500; -252.000;  -82.000
916.137;  -87.200;   74.000;   -9.000
916.378; -211.600; -573.000; -517.000
916.619; -148.900; -159.000;  -63.000
916.859;    8.800;  303.000;  330.000
917.100;  291.500; 1655.000; 1070.000
917.340;  147.300;  930.000;  728.000
917.581;  120.200;  965.000;  789.000
917.821; -182.800; -171.000;  143.000
918.061; -114.600; -199.000;  -72.000
918.302; -131.700; -152.000; -211.000
918.542; -107.300;  -22.000;    3.000
918.782;   23.100;  369.000;  377.000
919.023;  -17.800;  360.000;  427.000
919.263; 1173.200; 8131.000;  202.000
919.503; -144.800; -137.000;  -54.000
919.743;  -23.100;  390.000;  266.000
919.983;  -73.500; -134.000;  -26.000
920.223;  -63.800;  135.000;   14.000
920.463;   31.600;  631.000;  554.000
920.703;  -78.200;   84.000;   39.000
920.943; -114.100; -110.000;   90.000
921.183; -173.600; -414.000; -405.000
921.423;   55.700;  307.000;  546.000
921.663; -150.200; -174.000; -257.000
921.903;  -72.100;  237.000;  173.000
922.143;  -28.600;  372.000;  389.000
922.383;  -59.400;  158.000;  115.000
922.622; -117.200; -120.000;  -15.000
922.862;   75.300;  796.000;  785.000
923.102; -113.300;  -51.000;   33.000
923.341; -106.000;   59.000;   74.000
923.581;   -4.700;  450.000;  360.000
923.821;  -45.400;  301.000;  398.000
924.060;    9.100;  351.000;  193.000
924.300; -120.600;  -16.000; -128.000
924.539;   -7.100;  584.000;  473.000
924.779;  101.400;  812.000;  597.000
925.018;  -28.900;  247.000;  353.000
925.257;   59.000;  595.000;  666.000
925.497;    6.200;  447.000;  412.000
925.736; -114.400;  -35.000;  102.000
925.975;   46.100;  687.000;  669.000
926.214;  119.800;  907.000;  850.000
926.454;  115.000;  706.000;  757.000
926.693;  -11.800;  419.000;  543.000
926.932;  124.100; 1021.000;  825.000
927.171;  197.800; 1107.000; 1044.000
927.410;  194.100; 1144.000;  967.000
927.649;   84.500;  924.000;  742.000
927.888;   47.900;  590.000;  564.000
928.127;   20.400;  680.000;  678.000
928.366;   77.700;  842.000;  826.000
928.605;  118.900;  831.000;  737.000
928.844;  249.400; 1451.000; 1393.000
929.083;   35.600;  770.000;  613.000
929.321;  250.500; 1335.000; 1359.000
929.560;  177.400; 1158.000; 1122.000
929.799;   -4.300;  574.000;  475.000
930.038;  218.200; 1025.000; 1394.000
930.276;  -23.700;  334.000;  397.000
930.515;   43.000;  827.000;  681.000
930.753;   58.000;  614.000;  589.000
930.992;   67.800;  664.000;  717.000
931.230;   66.900;  847.000;  847.000
931.469;  433.100; 2162.000;  892.000
931.707;  229.000;  840.000;  751.000
931.946;  184.400; 1278.000; 1344.000
932.184;  176.900; 1437.000; 1175.000
932.423;  155.300; 1265.000;  963.000
932.661;  204.700; 1296.000; 1428.000
932.899;  101.700;  987.000;  821.000
933.137;   27.500;  754.000;  564.000
933.376;  251.000; 1664.000; 1335.000
933.614;  274.400; 1759.000; 1196.000
933.852;  154.300; 1357.000; 1171.000
934.090;  291.200; 1722.000; 1747.000
934.328;  205.400; 1252.000; 1457.000
934.566;  142.800; 1431.000; 1110.000
934.804;  140.900; 1263.000; 1309.000
935.042;  296.900; 1861.000; 1850.000
935.280;  385.400; 2088.000; 2063.000
935.518;  362.100; 2113.000; 2007.000
935.756;  393.600; 2481.000; 2316.000
935.994;  232.800; 1808.000; 1751.000
936.231;  543.800; 2890.000; 2950.000
936.469;  409.700; 2367.000; 2378.000
936.707;  402.400; 2220.000; 2167.000
936.945;  512.000; 2825.000; 2882.000
937.182;  456.200; 2679.000; 2741.000
937.420;  606.000; 3602.000; 3031.000
937.657;  719.600; 3365.000; 3478.000
937.895;  674.700; 3331.000; 3488.000
938.133;  698.300; 3540.000; 3528.000
938.370;  790.800; 3896.000; 4191.000
938.607;  902.800; 4488.000; 4205.000
938.845; 1231.100; 5587.000; 5549.000
939.082; 1071.700; 5387.000; 5177.000
939.320; 1134.200; 5799.000; 5728.000
939.557; 1360.500; 6549.000; 6491.000
939.794; 1559.300; 7285.000; 7097.000
940.031; 1754.200; 8421.000; 8368.000
940.269; 1975.900; 9552.000; 9107.000
940.506; 2185.900;10901.000;10507.000

