
Integration time [ms]: 100.000
Averaging Nr. [scans]: 40
Smoothing Nr. [pixels]: 0
Data measured with spectrometer [name]: 2101013U2
Wave   ;Sample   ;Dark     ;Reference
[nm]   ;[counts] ;[counts] ;[counts] 

394.013;   46.013; -450.257; -315.536
394.305;  220.085; -461.258; -419.536
394.596; 1070.858; -676.269; -527.514
394.887; 2675.700; -796.268; -654.518
395.178; 1020.330;  145.736;   11.476
395.470;   70.716; -210.263; -356.526
395.761;  217.239;  305.734;  394.479
396.052;  326.534; -545.284; -306.489
396.343;  311.778; -557.276; -454.503
396.634;  116.522; -200.279; -290.497
396.926;  122.497; -618.268; -565.517
397.217;  121.283;   11.725;  -17.504
397.508;   44.373; -366.273; -154.507
397.799;   56.972; -555.279; -571.497
398.090;   -6.358; -973.280; -902.495
398.381;  103.109;   11.708;  -11.473
398.672;   -5.439; -585.292; -742.473
398.963;   67.503; -348.279; -373.498
399.254;  123.595;   54.709; -209.475
399.545;  -16.139;-1017.266; -883.520
399.836;   71.142; -407.277; -343.501
400.127;   48.386; -205.295; -209.468
400.418;   49.893; -423.274; -392.506
400.709;   61.154; -359.281; -333.493
401.000;   62.099; -268.291; -309.476
401.290;  114.773;  225.698;  115.545
401.581;   68.642; -166.286; -228.485
401.872;    9.683; -542.298; -486.462
402.163;   60.778; -313.296; -252.467
402.454;   95.220; -123.291; -163.475
402.744;   85.670; -844.297; -813.465
403.035;  468.476; -226.293;  -86.471
403.326;  597.563; -366.292; -384.474
403.617;  379.978;  204.701;  165.539
403.907;  235.965; -593.283; -679.490
404.198; 2374.177; -545.307; -599.446
404.489; 6171.469; -618.283; -588.491
404.779; 2103.501; -618.302; -660.456
405.070;  218.830;  -67.304; -174.451
405.360;  350.828; -259.293; -238.472
405.651;  369.788;  125.699;   98.542
405.942;  172.462;  209.714;  127.516
406.232;  274.927; -432.285; -413.487
406.523;  498.346;  641.706;  758.530
406.813;   96.239; -579.286; -644.484
407.104;  336.133;  261.708;  144.527
407.394;  194.404; -604.299; -591.462
407.685;  152.626;  336.715;  222.513
407.975;   61.143; -400.283; -382.490
408.265;  112.660; -134.289; -190.478
408.556;   67.142; -472.291; -459.475
408.846;  172.347;  474.706;  429.530
409.137;   79.643;   -1.288; -216.480
409.427;   38.576; -193.285; -271.487
409.717;   30.102; -776.273; -692.508
410.007;  127.220;    4.715; -170.486
410.298;   78.164; -360.295; -342.469
410.588;   66.299; -495.285; -510.486
410.878;   27.329; -792.287; -873.482
411.168;  118.886; -481.298; -478.463
411.459;  117.088; -295.283; -242.489
411.749;   52.641; -609.292; -507.474
412.039;   53.591; -755.289; -386.480
412.329;  190.685;   40.722;  132.501
412.619;  194.565;  -62.286; -148.485
412.909;  367.762;  639.711;  594.521
413.199;  329.117; -130.280; -251.495
413.490;  415.828;  521.710;  352.523
413.780;  143.796;-1013.279; -913.496
414.070;  326.554;  -46.276;  235.497
414.360;  366.782; -729.278; -666.498
414.650;  429.250; -726.288; -688.482
414.940;  538.470; -538.280; -441.496
415.230;  930.322;   50.712;   74.519
415.520; 6018.857;  155.730;   66.486
415.809;23679.853; -305.281; -125.493
416.099;18250.445; -388.277; -229.501
416.389; 5068.791;  435.726;  236.494
416.679; 3000.420;   91.738;   85.473
416.969;  519.433; -527.287; -503.483
417.259;  459.873;  341.721;  171.503
417.549;  709.727;  522.718;  318.508
417.838; 1646.574; -205.268; -147.518
418.128; 5388.458;  650.710;  492.522
418.418; 4485.383; -491.272; -579.509
418.708; 3047.541;    9.726;  -48.506
418.997;11387.712; -474.275; -480.505
419.287;11824.923; -733.273; -790.507
419.577;11158.162; -160.283; -123.489
419.866;37110.368; -588.277; -498.501
420.156;38181.428; -242.270;  -55.513
420.446; 6855.487; -112.263;  -26.526
420.735;  885.722; -376.271; -446.512
421.025;  840.231; 1830.722;  315.502
421.314;  709.471; -203.271; -226.512
421.604; 1505.917;   89.732;  233.484
421.893;  855.817; -705.271; -602.511
422.183;  223.437; -487.263; -461.526
422.472;  372.193;  -36.271; -107.511
422.762;  441.492; -416.266; -379.521
423.051;  250.780; -916.276; -916.503
423.341;  322.525; -491.273; -439.507
423.630;  408.598; -121.265;   15.477
423.919;  379.861;   58.725;   49.495
424.209;  387.268;  -31.263;   56.473
424.498;  486.822;   68.732;  161.483
424.787; 1067.278; -535.267; -601.518
425.077; 3333.746;   34.735;   29.478
425.366; 4758.123; -734.262; -744.528
425.655; 9740.100;  639.727;  259.493
425.945;20814.776; -313.247; -268.554
426.234;11588.546;  117.741;  300.467
426.523; 4976.851;  -86.259; -350.534
426.812; 6889.413;  107.734;  159.480
427.101;10079.838; -127.269; -323.515
427.390;12767.157;  -55.270;  -86.514
427.680; 2976.646; -624.257; -411.538
427.969;  503.481; -330.255; -301.540
428.258;  312.362; -385.257; -477.536
428.547;  541.312;  449.728;  397.490
428.836; 1291.672; -421.253; -398.543
429.125; 1877.253; -199.259;  -72.534
429.414;  828.795; -330.251; -294.548
429.703; 3072.845; -231.251; -213.548
429.992; 9196.848; -938.250; -828.549
430.281; 6043.905; -397.264; -331.524
430.570;  590.285;  -21.252;   32.454
430.859;  603.776;  279.741;  352.466
431.148;  446.622;  636.752;  631.446
431.437;  289.385;  391.748;  367.454
431.725;  150.789; -544.257; -481.536
432.014;  133.355; -845.253; -756.545
432.303;  384.772; -149.239; -105.569
432.592;  641.037; -460.263; -178.525
432.881; 1035.998; -601.248; -437.554
433.169; 6007.457; -343.255;  -61.540
433.458;12318.806;  445.765;  540.424
433.747; 5165.054; -397.261; -289.529
434.036;  913.223; -275.242; -280.564
434.324; 2096.886; -395.249; -379.551
434.613; 3594.117;   40.757;  159.437
434.902; 1210.588;  333.760;  439.433
435.190;  613.771;   75.761;  295.431
435.479;  360.599;  -52.245;   83.441
435.767;  119.507; -411.244; -427.561
436.056;  214.319; -340.242; -294.563
436.345;  374.615; -372.240; -223.568
436.633;  389.531;   60.750;  383.450
436.922;  280.692;  208.760;  414.432
437.210;  640.221; -194.236;    1.426
437.499; 2076.454; -583.235; -432.576
437.787; 2280.770; -339.236;  -10.574
438.075;  543.452;   56.761;  162.430
438.364;  797.679;  -44.238;  250.429
438.652;  462.233; -286.226; -138.592
438.941;  131.722;    3.770;  269.415
439.229;    1.383; -665.252; -466.545
439.517;   32.962; -160.234;  -85.577
439.806;   -5.051; -501.225; -290.595
440.094;  192.820;  377.766;  650.421
440.382;  197.949; -653.233; -302.580
440.670;  220.679; -361.235; -285.576
440.959;   28.841; -347.223; -170.599
441.247;   87.984; -151.229; -109.587
441.535;  105.436; -266.235;   31.423
441.823;   35.742; -497.234; -305.578
442.111;  179.988;  173.771;  327.412
442.400;  554.223; -628.245; -335.559
442.688; 1480.619; -111.234; -620.579
442.976; 1071.903; -786.213; -450.617
443.264;  103.080; -324.224; -364.597
443.552;  120.834; -258.226;   51.408
443.840;  173.134;  602.765;  876.423
444.128;  108.948;  265.767;  269.420
444.416;   13.590; -694.228; -312.588
444.704;   30.020; -465.219;  -92.605
444.992;   77.187;   -0.226;  240.407
445.280;   65.023; -517.230;  -94.585
445.568;   39.806; -694.212; -396.618
445.856;  344.354; -174.221;  357.398
446.143;  832.942;  -54.220;   -7.604
446.431;  662.469;  -25.228;  625.411
446.719;  258.014;  489.783;  675.391
447.007;  176.592;  481.769;  705.416
447.295;  176.513;  597.777;  871.402
447.583;   84.131; -464.229;  -34.587
447.870;  162.001; -434.221; -202.601
448.158;  424.222; -104.230;  129.415
448.446;  330.468; -800.219; -338.604
448.733;  169.357;   13.776;  269.403
449.021;  258.256;   60.788;  341.382
449.309;  185.571; -296.210;  208.379
449.596;  221.261;  128.783;   59.392
449.884;  156.945; -571.222; -325.600
450.172;  141.374; -756.227; -406.590
450.459;  437.111;  645.786;  780.387
450.747; 2325.759; -411.218; -147.608
451.034; 7415.645;  493.772;  889.411
451.322; 6145.089; -413.214; -170.614
451.609;  537.833;  292.777;  508.403
451.897;  584.033; -550.203; -183.634
452.184; 1763.663; -622.223; -400.598
452.472; 1674.392;   97.792;  269.375
452.759;  355.618;  512.781;  864.395
453.047;  132.004; -407.212; -125.617
453.334;   69.826; -732.219; -216.606
453.621;   84.667; -438.214; -161.615
453.909;  123.975;   13.796;  384.368
454.196;  106.870; -299.199; -123.641
454.483;  220.196;  317.798;  540.364
454.771;  128.770; -215.208;  196.374
455.058;   47.798; -316.207;  102.374
455.345;  102.575;   71.807;  344.347
455.632;   83.451; -128.207;  235.373
455.919;   56.068;  -82.196;  182.354
456.207;  -62.275; -774.198; -450.642
456.494;  -13.267; -475.200;  -66.639
456.781;   18.742; -399.202; -198.635
457.068;   64.358; -253.206;  -29.628
457.355;   -8.041; -698.206; -401.629
457.642;  -15.585; -552.205; -290.630
457.929;    3.166; -778.194; -417.651
458.216;   46.254; -575.212; -354.617
458.503;  242.596; -173.193;  -19.652
458.790;  216.043; -864.208; -630.625
459.077;  273.797;  -77.202;  110.364
459.364;  782.084; -350.195; -210.649
459.651; 1661.256;  -46.206;  220.372
459.938;  769.558; -864.209; -665.623
460.225;  162.025;  132.799;  276.363
460.512;  -34.560; -836.197; -688.645
460.799;  102.108;  -32.218;  320.392
461.086;   80.563; -370.200; -251.640
461.372;   27.950; -509.198; -279.642
461.659;  104.969; -165.196;  108.354
461.946;   74.419; -445.193;  -54.651
462.233;  237.860;  842.800;  888.361
462.519;  338.232; -814.201; -464.639
462.806;  997.090; -768.197; -497.645
463.093;  887.440; -445.191;  -66.656
463.380;  -24.444; -920.186; -824.664
463.666;   48.142; -259.197;  -18.646
463.953;   92.679; -406.195; -243.648
464.239;  199.679; -173.195;  -77.648
464.526;  401.640;  413.806;  743.350
464.813;  341.001; -565.190; -304.658
465.099;  365.995;  606.807;  607.348
465.386;  346.999;  903.807;  921.348
465.672;   31.565; -694.197; -522.645
465.959;   30.844; -598.188; -520.662
466.245;    7.224; -468.193; -359.652
466.532;  106.327; -109.195;   63.352
466.818;   72.755; -357.186; -216.664
467.104;    0.370; -488.182; -415.672
467.391;  -15.197; -628.189; -459.658
467.677;   27.484; -289.186;    9.335
467.964;    5.510; -682.189; -471.660
468.250;   76.762; -331.186; -160.665
468.536;   81.604;   90.811;  180.341
468.822;  -37.877; -821.184; -574.668
469.109;  135.475;  351.827;  471.311
469.395;  177.559;  729.808;  787.346
469.681;  195.982;   46.811;  156.341
469.967; 1214.887; -699.188; -382.660
470.254; 2625.920; -494.188; -306.662
470.540; 1678.367; -601.196; -476.646
470.826;  253.631; -488.181; -397.675
471.112;  295.802;  288.816;  113.331
471.398;   84.431; -253.183;  -58.670
471.684;   38.734; -626.177; -447.680
471.970;   -6.015; -918.180; -981.675
472.256;   15.408; -521.192; -441.654
472.542;   10.111; -499.171; -434.691
472.828;    5.541; -743.182; -607.672
473.114;   39.929; -380.166; -283.700
473.400;    9.401; -504.175; -293.684
473.686;   18.510; -452.166; -400.701
473.972;   57.290; -230.174; -131.687
474.258;  -42.675; -925.173; -843.689
474.544;  191.451; -183.178;   -2.679
474.830;  276.802;  -65.175;   45.316
475.116;  469.653; -123.190; -196.658
475.401;  636.312; -558.180; -467.676
475.687;  198.136; -725.180; -718.676
475.973;   10.649; -673.181; -770.673
476.259;  255.604;  736.825;  764.315
476.544;  347.817; -539.176; -437.682
476.830;  780.332; -398.172; -322.690
477.116;  672.366; -430.177; -336.682
477.401;  138.462;  346.820;  358.324
477.687;  -27.049; -289.175; -405.684
477.973;   41.778;   21.819;   28.326
478.258;  -22.794; -448.163; -348.706
478.544;   41.117;   21.815;   61.334
478.829;  -52.634; -818.171; -738.692
479.115;  -29.493; -749.172; -651.690
479.401;  -13.039; -444.174; -449.686
479.686;   27.436; -253.180;  -74.676
479.972;  -41.894; -886.178; -776.680
480.257;   27.256; -258.166;  -65.700
480.542;  -19.605; -614.170; -469.693
480.828;  239.999; 1288.824; 1392.317
481.113;  -41.228; -464.176; -426.683
481.399;  -11.096; -236.161; -202.711
481.684;  -52.195; -620.166; -462.700
481.969;   15.417; -158.159;  -73.713
482.255;  -13.019; -439.169; -285.695
482.540;    5.631; -569.178; -441.680
482.825;   -1.449; -395.187; -404.663
483.110;  101.009;  -85.169; -105.696
483.396;  173.739; -840.157; -652.718
483.681;  476.540;  543.826;  730.313
483.966;  158.836; -696.160; -700.712
484.251;    1.014; -404.174; -310.687
484.536;   -7.509; -356.165; -378.703
484.822;    6.817; -205.173; -218.687
485.107;  -24.548; -599.152; -502.726
485.392;  134.721;  662.836;  541.296
485.677;   75.369;  354.832;  163.302
485.962;  109.161;  160.843;  270.283
486.247;   95.813;  -14.162;   -8.707
486.532;   44.307; -178.166; -325.701
486.817;  164.549;  381.839;  431.291
487.102;  118.260; -453.154; -514.722
487.387;  650.766; -637.156; -652.718
487.672; 1142.126; -154.164;  -38.705
487.957;  718.556; -394.160; -286.711
488.241;  185.768; -290.150; -314.729
488.526;  699.253; -280.152; -148.726
488.811; 1152.558; -881.177; -818.680
489.096;  873.062; -666.154; -702.723
489.381;  480.074;    3.847;  162.275
489.666;  365.604; -428.161; -510.710
489.950;  155.515;  558.846;  627.277
490.235;  -27.637; -480.151; -458.728
490.520;  -44.597; -756.161; -723.710
490.804;  -65.757; -827.156; -736.719
491.089;   16.034; -469.149; -299.732
491.374;   31.350; -132.164;  -75.704
491.658;  -16.130; -817.147; -717.735
491.943;  175.107; -657.152; -609.727
492.227;  254.731; -178.155;  -38.721
492.512;   65.986; -294.157; -341.717
492.797;  -68.797; -713.149; -716.731
493.081;  -59.427; -588.147; -598.735
493.366;  -53.896; -751.161; -635.711
493.650;  190.725;  831.859;  917.254
493.935;   31.844; -648.147; -447.734
494.219;  -39.612; -778.142; -687.743
494.503;  -48.477; -585.150; -487.730
494.788;   45.828;   46.842;   74.285
495.072;   80.719;  184.850;  434.271
495.356;  168.262; -463.148; -343.733
495.641;  461.679; -812.146; -736.736
495.925;  444.272; -976.156; -903.719
496.209;   15.283; -599.149; -451.732
496.494;  -40.887; -763.142; -544.744
496.778;   10.335; -364.154; -360.722
497.062;  -66.828; -819.156; -627.719
497.346;  -33.668; -869.160; -640.711
497.631;  130.615;  580.852;  560.266
497.915;   66.865;  -64.145;  175.261
498.199;   47.764; -341.157; -277.718
498.483;   45.151; -562.152; -508.725
498.767;  176.321;  301.850;  300.271
499.051;  169.356; -126.149; -100.732
499.335;   18.354; -693.149; -739.731
499.619;  -29.199; -381.129; -423.767
499.903;   25.879; -272.155;  -65.721
500.187;   32.967; -588.153; -316.724
500.471;   17.881; -796.152; -595.727
500.755;   98.003;   62.839;  -96.710
501.039;   11.755; -270.155; -357.721
501.323;   99.952;  -21.141;  264.254
501.607;   29.831; -447.163; -503.706
501.891;   -2.885; -607.156; -512.718
502.174;  -39.074; -726.144; -585.741
502.458;   82.235;   89.849;  370.273
502.742;   29.076; -180.138; -191.751
503.026;   93.244; -412.147; -254.734
503.310;  157.441; -437.159; -375.713
503.593;  115.821; -464.147; -325.735
503.877;  110.841; -232.133; -156.760
504.161;  177.794;    2.847;  -50.724
504.444;  132.655; -841.158; -710.716
504.728;  438.024; -487.164; -522.704
505.012;  691.117; -257.150;  -76.729
505.295;  524.304; -417.161; -212.711
505.579;  496.297; -256.156; -496.719
505.862;  699.811; -555.145; -333.738
506.146;  710.669; -681.159; -758.714
506.429;  388.394;  568.841;  461.286
506.713;   59.340; -732.151; -667.728
506.996;  320.259;   90.846;  295.278
507.280;  328.644; -633.165; -474.703
507.563;  225.353; -469.155; -261.721
507.847;   97.943; -423.153; -112.724
508.130;   86.655; -665.161; -456.711
508.413;  118.726; -758.167; -577.700
508.697;  248.576; -151.167;   12.300
508.980;  140.444; -422.153; -312.724
509.263;   -8.076; -466.155; -450.720
509.547;   21.242; -124.150;   82.271
509.830;   36.407; -172.160;  140.289
510.113;   82.947;  128.844;  298.281
510.396;   34.750; -530.152; -300.725
510.680;  165.587; -818.145; -812.738
510.963;  656.839;  184.846;  180.277
511.246;  591.575; -493.150; -357.730
511.529;  271.092; -482.145;  -83.739
511.812;  339.762; -250.134;   10.241
512.095;  255.512; -740.151; -396.728
512.378;   52.650; -317.147; -245.736
512.661;   17.458; -703.137; -623.753
512.944;   23.065; -750.142; -637.744
513.227;   52.781; -170.137; -171.752
513.510;   23.876; -479.144; -671.741
513.793;   30.206; -485.140; -435.747
514.076;  126.396;  -43.127;  -39.771
514.359;  115.459; -294.149; -135.732
514.642;   71.418; -442.142; -567.744
514.925;  731.755;  581.860;  561.253
515.208;  982.534; -498.134; -443.758
515.491;  638.572; -276.133; -182.761
515.773;  347.704; -410.143; -337.742
516.056; 2021.465;  249.864;  409.246
516.339; 2757.619; -754.136; -652.755
516.622; 1939.098; -518.150; -488.730
516.904; 1334.786;  882.857;  975.257
517.187;  601.804; -730.138; -523.752
517.470;  401.635; -568.143; -510.743
517.752;  423.346; -624.136; -470.756
518.035;  338.267; -708.139; -725.749
518.318;  334.794; -799.136; -744.755
518.600; 2323.501; -300.132; -325.762
518.883; 3211.817;  310.858;   88.256
519.165; 1548.997; -585.138; -426.751
519.448;  398.775;  -61.132;  -19.762
519.730;  198.254; -573.126; -415.773
520.013;  311.493;  588.867;  664.240
520.295;  889.039;  -94.134;  -15.759
520.578; 2016.113; -335.131; -305.764
520.860; 2241.801; -254.132;   56.238
521.143; 1150.423; -763.135; -584.756
521.425;  468.741; -251.125; -279.775
521.707;  669.597; -622.127; -380.771
521.990; 1712.947; -199.127;  167.229
522.272; 1966.408; -116.140;   -4.748
522.554;  901.305; -237.143; -157.742
522.836;  393.712;  -24.134;   99.241
523.119;  239.368; -496.148; -189.734
523.401;  161.045; -448.130; -314.766
523.683;   76.859; -865.137; -693.753
523.965;  266.627;  408.862;  260.248
524.247;  261.387;   54.878;  170.220
524.529;  186.914; -451.134; -367.759
524.812;  334.922;   -3.130;  191.234
525.094;  817.702; -773.138; -631.751
525.376; 1302.725; -143.124;   78.223
525.658;  811.566; -441.136; -339.754
525.940;   14.485; -805.131; -671.764
526.222;   30.394; -188.136;  -88.755
526.504;  126.608; -190.131;   32.237
526.786;  194.166; -960.133; -647.760
527.068;  327.806; -124.123;  -67.778
527.349;  126.987; -865.137; -774.754
527.631;  137.050; -137.132;   22.238
527.913;  124.171; -664.127; -450.771
528.195;  144.984; -761.125; -639.774
528.477;  242.559;  -93.134;  -30.758
528.759;  118.547; -648.130; -522.766
529.040;   41.480; -569.123; -293.778
529.322;   52.662; -235.125;  -10.774
529.604;  138.674;  -47.130;   93.233
529.886;  131.603; -546.126; -302.773
530.167;  130.716;  232.870;  192.235
530.449;   36.524;    1.853;   63.265
530.731;   22.186; -572.122; -459.779
531.012;   46.557; -513.120; -216.784
531.294;   60.821; -118.116;  -43.792
531.575;  147.966;  290.875;  538.225
531.857;   41.804; -548.135; -266.757
532.138;   96.626; -113.141;   40.254
532.420;  177.075;  294.865;  403.244
532.701;  213.569; -722.133; -751.760
532.983;  352.122;  232.867;  182.239
533.264;  138.226; -243.126;  175.228
533.546;  -39.181; -491.136; -508.755
533.827;   50.690;  173.867;   -1.759
534.109;   61.704; -352.135;  -80.757
534.390;   90.029; -725.132; -582.762
534.671;  234.625; -270.135;  -82.756
534.953;  155.407; -751.123; -611.779
535.234;   20.431; -426.117; -255.789
535.515;  -81.585; -891.119; -735.785
535.796;  -27.608; -431.128; -193.770
536.078; -116.800;-1050.124; -904.777
536.359;   13.458;  -22.123;    3.221
536.640;   -6.264; -480.125; -197.774
536.921;  149.254;  225.871;  143.232
537.202;  362.973;  -87.138;  -16.751
537.483;  445.613;  251.869;  377.236
537.764;  152.941;   17.870;   98.235
538.045;  -52.267; -543.134; -371.758
538.326;  -53.169; -596.129; -447.768
538.607;    9.472; -686.127; -476.771
538.888;  169.173;   98.879;    5.218
539.169;  182.843; -704.122; -535.781
539.450;  336.428;  236.871;   16.233
539.731;  223.052; -361.121; -182.783
540.012;  135.307;  199.880;  412.216
540.293;   80.895;   82.876;  158.224
540.574;   10.616; -895.113; -717.796
540.855;  447.726;  435.879;  377.218
541.136;  532.315;   47.878;  139.220
541.416;  286.123; -161.130; -220.766
541.697;  185.684; -274.131; -170.763
541.978;  993.327; -270.135; -315.757
542.259; 1272.447; -211.127; -236.771
542.539;  628.190; -191.116; -186.790
542.820;  197.016;  461.875;  480.225
543.101;  139.214;  -52.145;  -77.738
543.381;   35.072; -638.127; -591.771
543.662;  241.945;  159.873; -254.771
543.942;  567.068; -751.127; -830.770
544.223; 1023.242;  193.878;  161.219
544.504;  636.000; -275.124; -182.777
544.784;  558.678; -592.126; -408.773
545.065; 1609.293;  104.884; -254.791
545.345; 1877.390;  227.881;   14.215
545.626; 1245.815;  -14.113; -108.796
545.906;  862.115;   77.869;   98.235
546.186;  350.683;   92.874;  -95.773
546.467;  195.177;   99.877;  -95.778
546.747;  314.864;  264.884;  327.210
547.027;  354.973;   91.876;  111.223
547.308;  296.167; -376.127; -530.770
547.588;  386.207;  299.871;  371.232
547.868;  194.392;  458.870;  588.235
548.149;  189.751;  609.885;  593.207
548.429;  125.620; -347.127; -299.771
548.709;  181.157; -645.120; -461.784
548.989;  452.850;   84.882;   88.213
549.269; 2020.799;   10.868;  139.239
549.550; 4659.881;  215.877;  117.222
549.830; 4177.458; -758.111; -556.799
550.110;  828.316; -468.110; -320.801
550.390;  806.987; -128.122;  -56.779
550.670; 1099.861; -868.114; -783.795
550.950;  793.125; -509.121; -471.782
551.230;  177.371;  549.879;  460.218
551.510;   -6.276; -381.121; -326.782
551.790;   33.298; -173.109; -127.803
552.070;  254.302;  940.877; 1181.223
552.350;  375.794; -492.119; -377.786
552.630;  560.769;   -2.121;   77.219
552.909;  334.294;  181.884;   73.209
553.189;  217.805;  -49.132;   33.237
553.469;  165.219; -703.119; -514.786
553.749;  174.274; -469.127; -357.772
554.029;  147.635;   33.883;  -24.790
554.308;  139.105; -154.115;  -37.794
554.588;   47.716; -196.128; -204.770
554.868;   51.701; -366.121;  -47.782
555.147;  131.152; -114.115;  -46.793
555.427;  560.796; -260.116; -250.792
555.707; 3771.375; -284.115; -200.793
555.986; 4512.961; -719.111; -538.800
556.266; 2354.538;   23.884;   72.210
556.546;  107.824; -888.121; -675.782
556.825;  242.759; -657.114; -556.794
557.105; 1733.564; -125.128;   17.230
557.384; 2039.193;  122.884;  187.209
557.664;  768.045; -717.116; -508.792
557.943;  101.100; -557.121; -411.782
558.222;  169.353; -345.118; -344.788
558.502;  251.228; -116.115;  -76.793
558.781;  484.999;  194.885;  499.208
559.061;  374.828; -232.118; -227.788
559.340;  296.283;  302.883;  353.211
559.619;  668.988;   93.884;  148.210
559.899;  988.684; -239.117; -266.789
560.178;  876.678; -778.115; -593.793
560.457; 3041.961; -623.117; -562.790
560.736; 4253.713; -472.111; -482.800
561.015; 2819.762; -500.128; -502.769
561.295;  374.893;  180.893;  215.193
561.574;  327.200;  119.885;  116.207
561.853;  485.103;  274.891;  303.197
562.132;  468.205;  -45.114;  182.206
562.411;  420.820;  396.879;  553.219
562.690;  127.374; -592.115; -458.792
562.969;  137.572;  472.888;  630.203
563.248;  477.142; 2966.878; 2487.219
563.527;  241.087; -290.111; -408.800
563.806;  379.070; -650.127; -521.771
564.085;  380.833; -297.105; -206.810
564.364;  223.837; -594.117; -405.790
564.643;  476.945; -276.121; -223.781
564.922; 1800.922;  221.890;  397.198
565.201; 1819.650; -640.109; -700.803
565.479;  764.647; -297.115; -219.792
565.758;  307.014; -810.128; -712.770
566.037;  442.176; -155.109; -100.803
566.316;  215.693; -286.116;  -28.791
566.595;   47.100;  -17.115;  -12.793
566.873;  104.989; -166.111;  -79.801
567.152;  -66.653; -490.113; -590.797
567.431;    0.564; -113.116;    6.210
567.709;    7.468; -344.107; -212.807
567.988;  235.609; -810.114; -769.794
568.266;  499.900; -160.115;  -68.793
568.545;  372.579; -644.100; -514.819
568.824;  549.797;  160.885;  356.208
569.102;  526.033; -351.114; -235.794
569.381;  207.796; -492.116; -407.792
569.659;  -48.382; -553.113; -553.796
569.938;   17.541; -743.122; -465.780
570.216;   95.279; -225.109; -225.804
570.494;  -36.213; -632.114; -572.795
570.773;   33.199;  202.879;  114.218
571.051;   -2.720; -373.123; -357.778
571.330;   49.791; -221.113; -174.796
571.608;   26.322; -181.098; -173.823
571.886;  -70.794; -671.111; -581.799
572.164;  -69.299; -739.121; -621.782
572.443;  -43.888; -562.105; -512.811
572.721;  -38.664; -399.117; -289.790
572.999;  -37.670; -280.117; -168.788
573.277;   87.480;  379.894;  620.191
573.555;  270.832;   94.894;   37.190
573.834; 1296.054;  -86.117; -114.788
574.112; 1498.320;  880.893;  811.193
574.390;  460.788; -143.111;  -96.801
574.668;  -23.952;  -91.112;  -61.797
574.946;  -12.643; -165.106; -187.810
575.224;    3.250;   71.891;  -16.803
575.502;  -24.184; -200.116; -204.791
575.780;  -91.851; -767.112; -829.798
576.058;  194.987; 1589.889; 1004.200
576.336;  -24.007; -210.110; -129.801
576.614;  -57.626; -511.112; -340.798
576.891;   49.279; -711.115; -823.794
577.169;  466.562; -158.108; -285.805
577.447;  542.895;  169.893;  202.193
577.725;  256.229;  629.888;  854.201
578.003;    8.677;  -71.112; -371.798
578.280;   74.145; -208.104; -242.812
578.558;   70.828; -450.115; -422.793
578.836;  124.711; -210.114; -145.795
579.114;   44.348; -630.112; -670.797
579.391;   79.431;   -6.117;  -18.789
579.669;  -66.070; -595.114; -704.794
579.947;  153.217; -326.107; -127.806
580.224;  303.542; -692.107; -524.806
580.502;  295.946;  127.893;   76.193
580.779;   19.712;  -42.117;   75.210
581.057;  -77.146; -584.109; -470.804
581.334; -107.815; -726.102; -695.815
581.612;   23.608;   54.895;  511.190
581.889;  -29.902;  -83.101; -129.818
582.167;  -38.838; -298.099; -190.821
582.444; -104.282; -845.102; -814.817
582.721;   89.769;  657.899;  715.183
582.999;   40.635; -326.100; -167.821
583.276;  501.309; -812.123; -713.779
583.553;  662.763; -364.102; -294.816
583.831;  210.792; -607.104; -631.812
584.108;   36.435;  349.892;  174.195
584.385;   -0.240; -122.102;  -98.815
584.662;  -75.361; -651.111; -828.801
584.940;   24.914;  204.889;  204.199
585.217;  -29.532;  -73.113; -303.796
585.494;   35.447;   71.890;  118.198
585.771;  195.055; -250.109; -354.804
586.048;  477.118; -196.113;  -76.796
586.325;  320.542; -721.110; -773.801
586.602;   84.771;  230.896;  213.188
586.879;  -19.919; -499.100; -580.820
587.156;   40.884; -156.105; -331.810
587.433;  -44.209; -701.102; -667.817
587.710;   41.750;  152.888;  234.202
587.987;  279.189; -264.105; -236.811
588.264;  750.352;  315.888;  387.202
588.541; 1307.948;  -61.104;   26.187
588.818; 2598.557;   72.892;  171.196
589.095; 2259.444; -163.104; -174.812
589.371;  357.603; -459.109; -414.804
589.648;    2.945; -581.107; -437.807
589.925;    6.637; -517.114; -621.795
590.202;   -2.800; -741.112; -607.798
590.478;   81.116; -166.105;  -73.811
590.755;  243.088; -241.108; -132.806
591.032; 2377.969; -741.110; -699.802
591.308; 3286.562; -732.094; -790.831
591.585; 1684.769; -573.110; -560.802
591.862;  120.467;-1056.102; -950.817
592.138;   50.336; -475.108; -474.805
592.415;  150.722; -486.104; -495.813
592.691; 1421.844;  460.896;  518.188
592.968; 1799.874; -208.098; -123.824
593.244;  854.164; -695.116; -595.790
593.521;   62.193; -105.102;  -42.817
593.797;  -26.662; -810.122; -720.780
594.074;  306.486; -611.096; -588.826
594.350;  629.097;  828.905;  729.172
594.626;  268.790; -303.111; -283.801
594.903;   92.293; -643.101; -645.817
595.179;  178.450;  243.896;  418.187
595.455;   -3.703; -136.107; -150.807
595.731;    1.602;  -19.103;  -38.814
596.008;  -49.616; -464.111; -434.800
596.284;   31.784; -187.100; -242.820
596.560;   39.068; -501.093; -493.833
596.836;  179.511; -173.105;  -70.810
597.112;  321.436; -582.108; -437.805
597.388;  260.584;  -49.097;  -48.826
597.665;  100.245;  437.887;  530.203
597.941;  -62.528; -572.089; -658.839
598.217;   -6.278; -323.110; -293.802
598.493;  253.231;   61.891; -204.804
598.769;  485.103; -175.100;  -50.819
599.045;  286.489; -490.108; -562.806
599.321;   49.158; -193.100; -261.820
599.597;  122.806; -355.109; -476.804
599.872;  449.898;  409.896;  429.187
600.148;  341.486;  -61.097; -172.826
600.424;  272.994;   91.893;  202.193
600.700;  226.996; -170.107; -280.807
600.976;  103.730; -442.097; -464.825
601.252;  231.402; -226.109; -272.803
601.527;  182.949; -833.104; -840.813
601.803;  124.242; -453.105; -404.812
602.079;  179.453; -124.100; -118.819
602.354;  539.153; -620.092; -531.835
602.630;  782.518; -140.113; -482.796
602.906; 2212.223; -910.101; -863.818
603.181; 6436.019; -627.119; -534.786
603.457; 5440.334;   98.903; -278.826
603.733;  787.328; -605.120; -626.783
604.008;  907.433; -245.106; -164.810
604.284; 2934.045; -636.101; -580.817
604.559; 2557.904;   -3.112;  -42.799
604.835;  464.536; -163.105; -225.810
605.110;  387.313; -732.099; -892.821
605.385;  655.171;  224.907;  267.167
605.661;  597.575; -625.095; -729.829
605.936; 1086.765; -664.108; -737.806
606.211;  950.533;  -17.103; -170.815
606.487;  183.857; -329.114; -376.794
606.762;  -12.031; -791.119; -745.786
607.037;  -28.739; -501.105; -433.810
607.313;  -55.181; -589.096; -574.828
607.588;  -15.017; -375.106; -137.810
607.863;   25.823;  -28.101; -143.818
608.138;  174.096;  513.890;  516.198
608.413;   17.117; -576.099; -592.822
608.688;   38.786; -203.108; -267.805
608.964;  186.677; -509.106; -218.809
609.239;  212.458; -107.105; -212.810
609.514;  238.791;  281.895;  240.188
609.789;  621.896; -187.104; -716.812
610.064;  826.092; -435.096; -609.827
610.339;  841.828; -855.109; -799.804
610.614; 1134.508; -131.100; -315.820
610.889;  635.966;  215.895;  107.188
611.163;   21.067; -407.104; -591.812
611.438;   76.434;   81.886; -167.794
611.713;  -19.555; -467.101; -499.817
611.988;   55.922; -144.101; -328.818
612.263;  -27.515; -771.102; -717.815
612.538;  200.892;  385.887;  251.204
612.812;  164.159; -832.100; -911.820
613.087;  123.322; -358.098; -338.823
613.362;  -70.503; -497.107; -557.807
613.637;   38.630;  261.897;  138.186
613.911;  -18.297; -256.092; -345.835
614.186;  106.145; -249.107; -292.807
614.460;  609.996; -842.081; -758.854
614.735;  746.295;  -55.087;  -17.843
615.010;  164.160;   43.912;  -82.841
615.284;  238.885;  360.892;  246.195
615.559;  339.152; -792.092; -955.835
615.833;  280.165;  -76.099;  -87.822
616.108;   -5.261; -225.090; -390.837
616.382;  143.547;  274.913;  402.156
616.656;  139.864; -241.090; -232.837
616.931;  476.465; -785.099; -700.822
617.205; 1013.275; -973.104; -979.813
617.480;  925.889;  -91.125;    6.225
617.754;  147.137; -396.125; -128.774
618.028;    6.233; -369.129; -382.768
618.302;   60.334;   73.892;  -25.805
618.577;  -54.319; -371.103; -518.815
618.851;  -61.201; -399.109; -600.803
619.125;  -64.536; -335.134; -378.759
619.399;  -41.225; -244.104; -374.813
619.673;  -49.878; -330.115; -515.792
619.947;  -58.689; -333.114; -448.795
620.222;  -14.685; -198.110; -204.801
620.496;   -5.399;  -47.121;  -96.782
620.770;   14.467; -187.122;  -93.781
621.044;  189.959;  323.895;  346.190
621.318;  706.653; -653.120; -614.783
621.592;  627.776; -430.121; -409.783
621.866;  328.205; -476.112; -572.799
622.140;    9.066; -207.116; -356.791
622.413;   55.259;  138.889;  112.200
622.687;  -48.730; -746.101; -492.817
622.961;   17.984; -130.108; -143.805
623.235;  -74.065; -633.111; -661.800
623.509; -125.259; -816.105; -848.811
623.783;   -5.307;  -12.107;   48.193
624.056;  -27.695; -254.120; -280.783
624.330;   40.648;   63.888;   -3.797
624.604;   43.162; -271.116; -355.790
624.877;   64.720;  180.890;   26.198
625.151;   30.131; -249.114; -238.794
625.425;  -40.573; -150.103; -283.814
625.698;  -66.636; -367.119; -374.785
625.972;  -95.453; -799.110; -765.802
626.245;   71.914;  685.884;  484.210
626.519;  -70.591; -426.120; -340.784
626.792;  -42.879; -192.107; -380.807
627.066;  -89.590; -485.122; -662.779
627.339; -106.482; -736.110; -663.802
627.613;   39.582;  351.880;  148.216
627.886;   41.224;  187.891; -612.803
628.160;  -26.247;  312.880; -161.783
628.433; -108.058; -695.125; -703.775
628.706; -100.091; -517.120; -615.784
628.979;   12.148;  296.876;  117.223
629.253;  -99.681; -785.119; -833.786
629.526;  333.877; -334.126; -253.772
629.799;  319.605; -641.123; -479.778
630.072;  146.109; -497.128; -516.769
630.346;  -63.211;-1115.116;-1080.790
630.619;  429.597; -467.107; -545.808
630.892;  593.135;  709.889;  593.200
631.165;  321.175;  790.896;  679.187
631.438;  -84.148;-1092.112;-1055.798
631.711;   45.983;  453.877;  257.221
631.984;  -75.265; -523.117; -624.789
632.257;  -82.244; -636.117; -681.789
632.530;  -59.911; -412.119; -433.785
632.803;   17.029; -109.115;    7.207
633.076;  -77.198; -360.123; -422.777
633.349;    5.638;  173.872;  121.231
633.622;  -39.837; -187.119; -240.785
633.895; -131.021; -903.120; -823.783
634.167;  -69.596; -496.126; -525.773
634.440;  -18.979;  -19.116; -137.792
634.713;  -23.783;  -22.119; -120.786
634.986;   69.078;  593.871;  453.233
635.258;  -92.148; -507.115; -597.793
635.531;   86.827;  742.882; -343.788
635.804;  -36.342; -303.117; -318.789
636.077; -102.808; -830.116; -852.791
636.349;  -14.599; -586.115; -474.793
636.622;  359.176; 1695.874; 1392.228
636.894;  211.609; -474.120; -909.784
637.167;  134.945; -836.127; -789.771
637.439;   18.366; -278.128; -213.770
637.712;  -44.122; -312.126; -293.772
637.984;  -91.958; -635.116; -707.791
638.257;  361.753;  515.877;  488.222
638.529;  531.218; -881.125; -924.776
638.802;  238.584; -508.128; -449.769
639.074; -129.283; -927.122; -952.781
639.346; -122.120; -942.135; -930.757
639.619;  -13.934;  -79.142; -319.744
639.891;   -3.990;  -83.122; -168.779
640.163; -105.438; -689.122; -756.780
640.435;   20.989;  273.878;  103.220
640.708;   -7.259;  -72.122; -132.780
640.980;  -31.432; -366.122; -362.781
641.252;  174.395;  -25.121;  -71.781
641.524; 1738.571;  580.879;  573.219
641.796; 1732.348;-1094.121; -907.782
642.068;  301.875; -191.121; -300.782
642.340;  -75.673; -486.121; -566.783
642.613;   30.179;  294.880;  323.217
642.885; -103.720; -787.120; -878.783
643.157;  -49.968; -810.120; -658.784
643.428;   55.934;  170.880;  218.216
643.700;  -81.139; -498.120; -425.784
643.972;  -53.562;  -16.119; -133.785
644.244;  -96.411; -474.119; -559.785
644.516;  -58.484; -250.119; -114.786
644.788;   50.793;  662.881;  548.214
645.060;  -33.905;  -12.119; -124.786
645.332; -108.353; -525.118; -535.787
645.603;   28.098;  479.882;  342.213
645.875;  -71.700; -334.118; -369.787
646.147;  143.577; 1487.882; 1242.212
646.418;  -84.796; -931.117; -918.788
646.690;  118.681; -714.117; -715.789
646.962;   30.907; -413.117; -451.789
647.233;   -1.941;   15.883;   11.211
647.505;  -97.214; -595.117; -475.790
647.776;   31.238;  328.884;  229.210
648.048;  -10.010; -248.116; -418.790
648.320;  -84.633; -752.116; -679.791
648.591; -158.857;-1055.116; -958.791
648.862;  -93.230; -505.116; -577.792
649.134;   16.622;  115.885;  198.208
649.405;  -53.576; -661.115; -618.792
649.677;  -55.949; -475.115; -598.793
649.948;  -18.073; -181.115; -296.793
650.219;   -7.171;  -37.115; -147.793
650.491;  -88.569; -431.114; -520.794
650.762; -120.917; -705.114; -731.794
651.033;  -88.115; -437.114; -424.795
651.304;  -86.939; -743.114; -728.795
651.576;  -74.112; -680.114; -645.795
651.847;  -32.210; -250.113; -140.796
652.118;  -31.333;  -32.113; -189.796
652.389; -109.106; -639.113; -722.796
652.660;  -41.330; -147.113;  -89.797
652.931; -140.928; -897.112; -871.797
653.202;  -86.351; -382.112; -541.798
653.473;  -74.649; -633.112; -533.798
653.744;  143.578; -595.112; -590.798
654.015;  133.579; -356.112; -303.799
654.286;  -71.769; -642.111; -663.799
654.557;  -69.592; -586.111; -521.799
654.828; -164.165;-1114.111;-1088.800
655.099;  -92.388; -404.111; -291.800
655.370; -110.812; -427.111; -543.801
655.641; -136.960; -656.110; -714.801
655.911; -121.083; -618.110; -638.801
656.182;   49.619;  437.890;  387.198
656.453;   89.896;  830.890;  746.198
656.724;  -75.877; -466.110; -426.802
656.994;  -90.126; -553.109; -568.803
657.265; -120.999; -862.109; -873.803
657.536;  -83.872; -500.109; -377.804
657.806; -110.920; -561.109; -593.804
658.077; -129.068; -866.109; -950.804
658.347; -100.717; -523.108; -598.805
658.618; -121.690; -646.108; -694.805
658.888;  -28.263;  -41.108;  112.195
659.159;  -85.761; -432.108; -548.806
659.429;  -35.434; -292.108; -349.806
659.700;   14.042; -435.107; -390.807
659.970;  -11.781; -370.107; -359.807
660.241;    8.371; -754.107; -921.807
660.511;  468.973; -147.107; -174.808
660.781;   89.850; -793.106; -748.808
661.052;  -49.724; -222.106; -381.808
661.322;  -31.172;   21.894;   -9.809
661.592;    0.305;  257.894;  148.191
661.862;  -84.343; -369.106; -382.810
662.133; -104.066; -551.105; -502.810
662.403; -110.240; -770.105; -676.810
662.673;  -56.438; -256.105; -213.811
662.943; -117.586; -612.105; -551.811
663.213;  -11.834;  -85.105;  -81.811
663.483;  -88.532; -593.104; -568.812
663.753;  -61.080; -194.104; -152.812
664.023;  -33.304;   68.896;  -32.813
664.293;  -74.977; -319.104; -126.813
664.563; -116.450; -694.104; -648.813
664.833; -127.623; -743.103; -608.814
665.103; -133.271; -730.103; -793.814
665.373; -129.570; -766.103; -806.814
665.643; -102.918; -863.103; -918.815
665.913;   12.409; -534.103; -714.815
666.182;  124.536; -685.102; -719.816
666.452;  255.213;  -22.102;  -89.816
666.722;  -36.636; -724.102; -784.816
666.992; -137.459; -948.102; -921.817
667.261; -110.307; -824.102; -808.817
667.531;  194.845;  134.899;   45.183
667.801;  533.222; -440.101; -412.818
668.070;  220.248;  714.899;  697.182
668.340; -103.550; -883.101; -840.819
668.609;  101.752;  588.900;  301.181
668.879;  -90.921; -490.100; -558.819
669.149;  -84.444; -539.100; -516.820
669.418; -105.643; -698.100; -726.820
669.688;  -44.791; -482.100; -666.820
669.957;   59.636; -423.099; -546.821
670.226;  -37.787; -268.099; -331.821
670.496;  -92.110; -431.099; -635.822
670.765;  -73.758; -418.099; -501.822
671.034; -148.332; -872.099; -828.822
671.304;   -8.405;   55.902; -111.823
671.573; -165.728;-1085.098; -957.823
671.842;   66.699; -380.098; -294.823
672.112;   19.076; -692.098; -586.824
672.381;    1.202; -239.098; -214.824
672.650; -133.221;-1005.097;-1021.825
672.919;  -97.719; -631.097; -507.825
673.188;  -96.092; -681.097; -878.825
673.457; -166.890;-1101.097;-1143.826
673.726;  -88.189; -579.096; -646.826
673.995;  -52.062; -533.096; -479.826
674.265;  -19.560; -263.096; -333.827
674.534;   -3.933; -183.096; -235.827
674.802;  -19.331; -618.096; -703.828
675.071;  932.095; -886.095; -801.828
675.340; 3728.247; -464.095; -339.828
675.609; 1232.974;  103.905;   82.171
675.878;   48.276; -949.095; -893.829
676.147;   22.953;  -26.095;   -8.829
676.416;   86.329; -210.094; -294.830
676.685;  705.506; 1000.906; -622.830
676.953;   77.908; -603.094; -452.831
677.222;  -40.840; -193.094; -273.831
677.491;  -24.663;  -24.094; -127.831
677.759;  -14.011;   11.907;  172.168
678.028;  -37.810; -279.093; -222.832
678.297;   -9.658;   71.907;  197.168
678.565; -155.756; -898.093; -944.833
678.834;  -54.979; -311.093; -268.833
679.102;  -81.627; -411.092; -391.834
679.371; -156.401; -898.092; -727.834
679.639; -143.599; -797.092; -786.834
679.908; -114.597; -794.092; -724.835
680.176; -157.145; -895.091; -941.835
680.445;  -81.068; -346.091; -352.835
680.713;  -27.292;  -58.091;  -23.836
680.982;  -95.615; -523.091; -525.836
681.250; -120.888; -578.091; -507.837
681.518; -112.561; -534.090; -751.837
681.787;  -29.134; -204.090; -167.837
682.055;  -72.058; -490.090; -422.838
682.323; -153.456; -993.090; -992.838
682.591;   21.371; -216.090; -538.838
682.859;   65.848;    9.911;  -35.839
683.128;   -2.675;  232.911;  497.161
683.396; -163.724;-1102.089;-1122.840
683.664;  -43.222; -241.089;   21.160
683.932;  -14.070;  144.911;  -76.840
684.200;  -80.843; -576.088; -320.841
684.468;  -24.541;  -73.088; -124.841
684.736;  -26.065; -214.088; -175.841
685.004; -124.463;-1024.088; -982.842
685.272;  -67.036; -880.088; -774.842
685.540;  -68.309; -499.087; -557.843
685.808;  -88.107; -651.087; -682.843
686.076; -112.230; -894.087; -969.843
686.343;  -72.504; -601.087; -815.844
686.611;   37.823; -195.087; -224.844
686.879;  429.700; -530.086; -553.844
687.147; 3176.602; -483.086; -480.845
687.414;  894.954;  -12.086; -169.845
687.682;   -4.095; -658.086; -757.846
687.950;  292.457;  259.915;  263.154
688.217;    2.534; -792.085; -760.846
688.485;   -9.614; -632.085; -636.847
688.753;  507.038;  -11.085; -102.847
689.020;  140.114; -820.085; -851.847
689.288; -100.959; -853.084; -787.848
689.555;  -38.432; -195.084; -148.848
689.823;  -45.605; -241.084; -345.849
690.090;  -80.928; -546.084; -651.849
690.358; -150.527; -877.084; -897.849
690.625;    6.600;  120.917;   45.150
690.892;  -74.973; -403.083; -369.850
691.160;  -21.296;   72.917;  -35.850
691.427;    3.756;  141.917;  130.149
691.694; -140.893; -855.083; -929.851
691.962; -143.291;-1177.082;-1060.852
692.229;    3.361;  127.918;   56.148
692.496;   67.588;  130.918;  -49.852
692.763;   -0.660; -164.082; -201.853
693.031;  -71.633; -739.082; -716.853
693.298;  -41.057; -509.081; -368.853
693.565;  300.370; -155.081; -163.854
693.832; 1224.772;   -5.081;   -9.854
694.099;  127.249; -643.081; -642.855
694.366;  -62.349; -882.081; -896.855
694.633;  -50.398; -920.080; -633.855
694.900;  752.754; 4367.920; -114.856
695.167;  407.381; -214.080; -380.856
695.434;   73.408; -646.080; -623.856
695.701;  188.810;  121.921;  -61.857
695.968;  437.511; -365.079; -361.857
696.234;  971.338; -415.079; -646.858
696.501;10304.990; -776.079; -614.858
696.768; 5187.442; -554.079; -617.858
697.035;  290.969; -632.078; -667.859
697.302;   24.295; -448.078; -552.859
697.568;   13.172; -458.078; -497.859
697.835;  -41.351; -683.078; -624.860
698.102;  -33.249; -498.078; -407.860
698.368;   82.078;  384.923;  396.139
698.635;  -38.121;  -47.077; -424.861
698.901;  -27.744; -240.077; -348.861
699.168;   55.458; -534.077; -456.862
699.435;   65.435;  -72.077;  -13.862
699.701; -126.888; -868.076; -764.862
699.968;    9.314;  144.924; -441.863
700.234; -111.110; -783.076; -822.863
700.500;  -65.558; -448.076; -539.864
700.767;  -21.331;   -1.075;   26.136
701.033; -142.804;-1015.075; -963.864
701.299;  -62.277; -450.075; -483.865
701.566;  114.424;  950.925;  763.135
701.832;   13.951;  -31.075;  -76.865
702.098; -103.897;-1054.074;-1034.866
702.365; -100.245;-1098.074;-1030.866
702.631;  -30.143;-1038.074;-1063.867
702.897; 1317.808; -765.074; -676.867
703.163; 2180.035;  348.926;  254.133
703.429;  156.062; -256.073; -273.868
703.695;  -39.086; -796.073; -792.868
703.961;   14.241; -214.073; -210.868
704.227;  -64.008; -630.073; -725.869
704.493;  107.719;  613.927;  510.131
704.759;  -28.354; -565.072; -540.870
705.025;   23.723; -203.072; -194.870
705.291;   -4.450; -666.072; -562.870
705.557;  193.901;  719.928;   34.129
705.823;   23.303; -742.072; -694.871
706.089;  139.255; -307.071; -326.871
706.355;  348.732; -315.071; -244.872
706.620; 5607.059; -776.071; -729.872
706.886; 7843.811; -309.071; -362.873
707.152;  724.637; -818.070; -973.873
707.418;  -19.136;-1153.070;-1186.873
707.683;   -6.884; -550.070; -530.874
707.949;  -39.007; -547.070; -578.874
708.215;   -3.705; -129.070; -207.874
708.480;  -35.529; -520.069; -420.875
708.746;   89.873;   68.931;   28.125
709.011;  -70.250; -578.069; -612.876
709.277;  -85.273; -538.069; -543.876
709.542;  -55.221; -428.069; -387.876
709.808;   -1.620;  -59.068;   89.123
710.073;  -90.993; -577.068; -695.877
710.339;  -47.566; -242.068; -228.877
710.604;   84.086; -780.068; -845.878
710.869;  321.113; -277.068; -366.878
711.135;  -84.786; -715.067; -628.879
711.400; -104.659; -507.067; -608.879
711.665;  -69.632; -404.067; -479.879
711.931;  -90.255; -661.067; -677.880
712.196; -118.978; -876.067; -954.880
712.461;   87.248; -402.066; -490.880
712.726;  126.550; -727.066; -771.881
712.991;  -92.998; -647.066; -664.881
713.256;  -44.296; -350.066; -332.882
713.521;  -73.344; -417.065; -381.882
713.787;  -63.193; -454.065; -472.882
714.052;  -20.966; -214.065; -400.883
714.317;  -94.389;-1045.065; -981.883
714.581; 1036.438; -374.065; -268.883
714.846; 1419.915; -822.064; -888.884
715.111;  127.717;  261.936;  257.116
715.376;  -28.682;  -86.064; -223.885
715.641;  -24.155; -365.064; -367.885
715.906;  285.247;   15.936; -551.885
716.171;  136.874;  221.937;  209.114
716.436;   27.176;  -78.063; -104.886
716.700; -117.023; -818.063; -692.886
716.965; -129.696; -794.063; -807.887
717.230;  -89.319; -339.063; -392.887
717.494;  -33.817;  -40.062; -134.888
717.759; -103.740; -784.062; -640.888
718.024;   -5.639;  269.938;  250.112
718.288;   69.663;  685.938;  395.111
718.553; -152.760; -803.062; -977.889
718.817; -159.283; -883.061; -899.889
719.082;  -36.706; -115.061; -125.890
719.346; -142.005;-1000.061; -947.890
719.611;  -61.703; -300.061; -255.891
719.875; -106.276; -568.060; -537.891
720.140;  -69.949; -453.060; -603.891
720.404;   19.878; -136.060; -249.892
720.668;  818.029; -475.060; -411.892
720.933;  316.656;  146.940;  137.108
721.197; -103.367; -667.059; -600.893
721.461; -143.015; -851.059; -826.893
721.725;  -12.663;  -21.059; -250.894
721.990;  -66.486; -284.059; -204.894
722.254;  -27.910;  -26.059; -108.894
722.518;  -89.508; -286.058; -442.895
722.782;  -94.806; -743.058; -594.895
723.046;  146.421;  614.942;  570.105
723.310;   18.223;  374.942;  210.104
723.574; -105.176; -654.058; -614.896
723.838; -105.149; -576.057; -642.897
724.102;  -40.797; -226.057; -239.897
724.366; -153.045;-1032.057; -978.897
724.630; -121.818; -749.057; -571.898
724.894;  -73.542; -722.057; -514.898
725.158;  -27.015;   38.944; -295.898
725.422;  -56.288; -394.056; -327.899
725.685;  -68.836; -441.056; -349.899
725.949;  -91.909; -566.056; -519.900
726.213;  -82.483; -732.056; -811.900
726.477;  158.694;-1020.055; -933.900
726.740;  133.396; -274.055; -104.901
727.004;  332.098; -384.055; -510.901
727.268; 3315.350; -442.055; -400.901
727.531;  911.076; -961.055; -775.902
727.795;  -50.872; -713.054; -673.902
728.059;  -61.295; -552.054; -557.903
728.322;  -83.993; -841.054; -669.903
728.586;    9.784; -692.054; -701.903
728.849;  -84.314; -695.053; -756.904
729.112; -107.613; -812.053; -912.904
729.376; -127.061; -959.053; -905.904
729.639;  -89.459; -536.053; -536.905
729.903; -108.457; -733.053; -699.905
730.166;  -53.955; -437.052; -399.906
730.429;  -44.254; -317.052; -468.906
730.693;  -78.777; -355.052; -894.906
730.956;  193.050;  810.948;  651.093
731.219;  678.752; -310.052; -103.907
731.482;  104.279;-1003.051; -894.907
731.745;   84.230; -794.051; -935.908
732.009;   16.782;  -30.051;   50.092
732.272; -102.791; -904.051; -771.909
732.535;  -53.314; -300.051; -310.909
732.798; -152.837;-1083.050;-1166.909
733.061;  -73.011; -430.050; -456.910
733.324;   -6.084;   31.950; -180.910
733.587;   56.468;  290.950;  365.090
733.850;  -75.855; -973.049;-1050.911
734.113;   23.922;   33.951;   32.089
734.376;    8.648; -328.049; -447.912
734.639;  190.325; 1188.951; 1011.088
734.901;   52.627; -180.049; -402.912
735.164;  488.104; -883.048; -837.913
735.427; 1279.056; -166.048; -355.913
735.690;  110.858; -205.048; -234.913
735.952;  -39.091; -923.048; -925.914
736.215;  -37.939;-1113.048;-1009.914
736.478;   25.888; -771.047; -774.915
736.740;  204.715;   33.953;  129.085
737.003;  650.367; -658.047; -672.915
737.266; 3906.118;  -94.047;   46.084
737.528;  421.145; -682.047; -660.916
737.791;  309.747; -316.046; -327.916
738.053;  776.999;  465.954;  649.083
738.316;10738.826; -162.046; -136.917
738.578; 7603.252; -770.046; -736.918
738.841;  443.454; -382.046; -446.918
739.103;  169.706; -875.045; -777.918
739.365;  502.383;   79.955;  -69.919
739.628;  -19.565; -884.045; -805.919
739.890;  -27.214; -758.045; -710.919
740.152;  -55.337; -692.044; -754.920
740.414;  -21.485; -408.044; -359.920
740.677;  -55.208; -785.044; -634.921
740.939;  -42.506; -587.044; -487.921
741.201;  247.370; -432.044; -572.921
741.463;   13.572; -689.043; -745.922
741.725;    7.049;  -21.043; -199.922
741.987;   41.051;  220.957;  116.078
742.249;  -19.622; -751.043; -859.923
742.511;  200.304; -703.043; -794.923
742.773;    4.356; -546.042; -546.924
743.035;  121.033;  796.958;  533.076
743.297;  -51.965; -963.042;-1013.924
743.559;  734.387; -278.042; -262.925
743.821;   41.889; -735.042; -744.925
744.083;   14.890;  -44.041; -149.925
744.345;  -91.583; -869.041; -892.926
744.607;   31.319;   75.959;  122.074
744.868;  -65.904; -490.041; -554.927
745.130; -126.302; -994.041;-1008.927
745.392;   14.049;   -1.040;  -44.927
745.653;  -21.549; -411.040; -378.928
745.915;  141.953;  896.960;  631.072
746.177;   45.555;   35.960;  -43.928
746.438;   -2.068; -428.040; -543.929
746.700;  -53.592; -947.039; -988.929
746.961;   -5.015; -659.039; -740.930
747.223;  134.112; -190.039;  -74.930
747.484;   80.639; -391.039; -471.930
747.746;  139.866;  -23.038; -106.931
748.007;  100.042; -647.038; -689.931
748.269;  284.144; -468.038; -440.931
748.530;  456.546; -852.038; -638.932
748.791;  236.948; -354.038; -420.932
749.053;  427.775;  286.963;  163.067
749.314;  424.226; -236.037; -169.933
749.575;  515.753; -945.037; -905.933
749.836;  817.405; -217.037;   86.066
750.098; 2374.432;  -60.037;  -21.934
750.359;35999.334;  414.964;  555.066
750.620; 9178.361; -121.036; -220.935
750.881;  993.087; -585.036; -513.935
751.142; 1298.589; -950.036; -938.936
751.403;16512.816; -789.036; -705.936
751.664; 7275.918;-1034.035; -999.936
751.925;  477.570; -175.035; -262.937
752.186;  265.696; -298.035; -278.937
752.447;  118.473; -590.035; -445.937
752.708;   29.900; -532.035; -648.938
752.969;   -8.498; -566.034; -576.938
753.230;  -12.946; -777.034; -672.939
753.491;  -13.795; -650.034; -631.939
753.751;   60.957;  109.966;   19.061
754.012;   96.434;  258.967;  181.060
754.273;   63.861; -174.033;  -71.940
754.534;   -1.862; -487.033; -580.940
754.794;  -93.086; -926.033; -911.941
755.055;  140.116; 1051.967;  881.059
755.316;  -48.907; -700.032; -566.942
755.576;  -38.980; -606.032; -576.942
755.837;  -46.503; -527.032; -695.942
756.097;  -33.777; -530.032; -564.943
756.358;  -81.850; -725.032; -770.943
756.618;  -50.598; -705.031; -641.943
756.879;   -6.646; -254.031; -349.944
757.139; -126.444;-1098.031;-1116.944
757.400;  -62.717; -538.031; -553.945
757.660;  -21.916; -365.031; -401.945
757.920;   -3.164; -266.030; -228.945
758.181;  -37.637; -468.030; -351.946
758.441;  -98.210; -870.030; -809.946
758.701;  -39.683; -308.030; -215.946
758.961;  -26.307; -220.030; -278.947
759.222;  -57.380; -574.029; -502.947
759.482;  -86.228; -683.029; -723.948
759.742;  -70.701; -706.029; -547.948
760.002;  -14.774;  -83.029; -143.948
760.262;   18.402;   50.972;  182.051
760.522;  -37.096; -498.028; -574.949
760.782;  -60.119; -738.028; -612.949
761.042;  -31.917; -618.028; -573.950
761.302;   46.135;   55.972;  -18.950
761.562;   45.411; -164.027; -154.951
761.822;   88.163; -710.027; -551.951
762.082;  -43.385;-1104.027;-1093.951
762.342;   67.992; -328.027; -403.952
762.601;   70.869; -567.027; -506.952
762.861;  337.045; -281.026; -207.952
763.121;  405.322; -406.026; -411.953
763.381; 7379.074; -499.026; -485.953
763.640; 8168.576; -139.026; -307.954
763.900;  360.478; -242.026; -203.954
764.160;   84.505; -458.025; -491.954
764.419;  -36.069; -726.025; -782.955
764.679;  -71.367; -795.025; -726.955
764.939;  -15.065; -124.025; -210.955
765.198;  -88.288; -608.025; -563.956
765.458;  -81.836; -710.024; -612.956
765.717;  -73.535; -454.024; -590.957
765.976;  -80.358; -428.024; -411.957
766.236;  -82.931; -475.024; -610.957
766.495;   14.421;  260.977;   73.042
766.755; -103.052;-1090.023; -987.958
767.014;   11.099; -594.023; -665.958
767.273;  -61.149; -373.023; -397.959
767.533;  -51.347; -228.023; -307.959
767.792;  -27.595; -151.022; -188.960
768.051;  -55.993; -228.022; -276.960
768.310;  -85.217; -546.022; -650.960
768.569;   -8.740; -161.022;    4.039
768.828;  -30.088; -285.022; -363.961
769.088; -135.361;-1050.021; -942.961
769.347;  -85.534; -755.021; -599.962
769.606; -102.308; -876.021; -857.962
769.865; -138.681;-1016.021;-1033.963
770.124;   -4.804; -411.021; -336.963
770.383;  -56.852; -778.020; -910.963
770.641;   -9.175; -398.020; -400.964
770.900;  -69.624; -953.020; -846.964
771.159;  -51.872; -851.020; -951.964
771.418;  -20.570; -917.020; -779.965
771.677;  115.932; -224.019; -293.965
771.936;  143.009; -794.019; -865.966
772.194; 2187.811; -465.019; -437.966
772.453;11074.712; -213.019; -391.966
772.712;  762.639;  416.982;  329.033
772.970;  109.791;   32.982;   63.033
773.229;   69.318;  -22.018;  102.033
773.488; -100.180; -814.018; -770.968
773.746;   44.571;  296.982;  335.032
774.005;   -3.002;  190.983;  -22.969
774.263;   12.575;  243.983;  177.031
774.522;  -49.673; -422.017; -548.969
774.780;  -84.421; -484.017; -417.970
775.039;  -87.070; -551.017; -531.970
775.297;  -43.043; -135.016; -351.970
775.555; -104.791; -489.016; -612.971
775.814; -119.589; -618.016; -570.971
776.072; -130.812; -749.016; -740.971
776.330; -105.861; -630.016; -520.972
776.589; -129.684; -703.015; -721.972
776.847; -133.332; -645.015; -624.973
777.105; -185.555;-1016.015;-1032.973
777.363;  -98.803; -459.015; -454.973
777.621; -142.827; -660.015; -717.974
777.879;  -28.425;  -42.014;   32.026
778.138; -115.373; -554.014; -717.974
778.396;  -98.971; -585.014; -526.975
778.654; -163.969;-1015.014; -970.975
778.912;  -81.792; -269.014; -371.976
779.170; -139.116; -880.013; -803.976
779.427; -162.964; -922.013; -897.976
779.685; -157.362; -880.013; -832.977
779.943; -104.235; -654.013; -593.977
780.201; -154.883; -964.012; -883.978
780.459; -138.907; -651.012; -610.978
780.717;  -88.930; -440.012; -390.978
780.974;  -95.703; -449.012; -490.979
781.232;  -83.351; -358.012; -338.979
781.490;  -95.599; -551.011; -472.979
781.747;  -94.548; -555.011; -476.980
782.005;   14.454;  462.989;  254.020
782.263; -172.069; -542.011;-1004.981
782.520;  -86.892; -326.011; -501.981
782.778; -170.215;-1013.010;-1051.981
783.035; -169.689; -962.010; -938.982
783.293;  -57.462; -248.010; -206.982
783.550;  -80.185; -134.010; -198.982
783.808; -137.033; -764.010; -776.983
784.065; -163.756; -745.009; -874.983
784.322;  -60.755;   25.991;  -86.984
784.580; -161.278; -915.009; -771.984
784.837;  -99.251; -392.009; -466.984
785.094; -148.899; -783.009; -762.985
785.352;  -81.272; -304.008; -404.985
785.609; -104.570; -934.008; -839.985
785.866;  -91.369; -345.008; -401.986
786.123;  -63.342; -639.008; -583.986
786.380; -107.190; -665.008; -604.987
786.637;  -52.013; -225.007; -380.987
786.895;  -39.536; -456.007; -543.987
787.152;  -53.160; -135.007; -267.988
787.409;  -44.933; -123.007; -225.988
787.666;  -92.181; -299.006; -378.988
787.923; -129.154; -616.006; -695.989
788.179; -107.977; -551.006; -584.989
788.436; -109.701; -585.006; -585.990
788.693;  -50.449;  -92.006;  -87.990
788.950;  122.653; -125.005; -112.990
789.207;  210.455; -381.005; -372.991
789.464;  -58.568; -161.005; -301.991
789.720;  -15.467;  150.995;  110.009
789.977; -178.940;-1003.005; -671.992
790.234;  -36.763;   44.996;  -66.992
790.490; -141.711; -884.004;-1031.993
790.747;  -32.559;  -85.004;   22.007
791.004;  -32.958; -426.004; -348.993
791.260;  -83.831; -430.004; -560.994
791.517; -113.029; -843.003; -788.994
791.773;  -57.027; -379.003; -342.994
792.030; -127.225; -596.003; -660.995
792.286; -100.648; -686.003; -636.995
792.543;  -14.397;  -74.002; -159.995
792.799;  -67.570; -584.002; -382.996
793.055; -175.118;-1179.002;-1210.996
793.312; -112.441; -827.002; -816.997
793.568;  -59.189; -746.002; -599.997
793.824;    5.912; -226.001; -284.997
794.081;    4.239; -447.001; -508.998
794.337;   57.916; -664.001; -561.998
794.593; 1303.643; -319.001; -271.999
794.849; 6528.370; -746.001; -772.999
795.105;  335.596; -270.000; -261.999
795.361;   10.898; -490.000; -457.000
795.617;  -75.625; -875.000; -945.000
795.873;  -64.825; -360.000; -407.000
796.129;  -54.325; -368.000; -306.000
796.385;  -37.150; -124.000; -156.000
796.641;   63.975;  412.000;  550.000
796.897;  -96.600; -666.000; -635.000
797.153;   53.450;  453.000;  357.000
797.409;  -98.050; -785.000; -868.000
797.665;  -81.275; -625.000; -732.000
797.921;  -89.450; -775.000; -762.000
798.176;  -70.350; -744.000; -747.000
798.432;  -54.325; -824.000; -596.000
798.688;  -81.350;-1174.000;-1078.000
798.943;   77.875; -165.000; -147.000
799.199;  -24.300;-1005.000; -959.000
799.455;  208.800;  369.000;  316.000
799.710;  126.550; -813.000; -380.000
799.966;  293.475; -162.000; -160.000
800.221;  464.100; -638.000; -721.000
800.477;10419.500; -743.000; -710.000
800.732; 9334.150; -773.000; -800.000
800.988;  619.275;  205.000;  -19.000
801.243; 1795.575; -454.000; -344.000
801.498; 7963.800; -814.000; -739.000
801.754;  458.650; -289.000; -163.000
802.009;   75.150; -257.000; -335.000
802.264;  -61.275; -967.000;-1033.000
802.520;    9.550;  222.000;   -3.000
802.775;  -56.175; -524.000; -359.000
803.030;   38.600;  395.000;  356.000
803.285; -123.400; -840.000; -903.000
803.540;  -59.875; -686.000; -699.000
803.795;  -63.025; -648.000; -583.000
804.051;  -40.275; -279.000; -346.000
804.306;   11.175;  168.000;  128.000
804.561;  138.350;  451.000;  362.000
804.816;  121.300;  714.000;  861.000
805.071;   -8.075; -185.000; -280.000
805.325;  186.750; -257.000; -427.000
805.580; -115.050; -841.000; -877.000
805.835;  -30.725; -204.000; -297.000
806.090;  -80.375; -760.000; -676.000
806.345;  -38.650; -344.000; -264.000
806.600;  -39.250; -549.000; -632.000
806.854;  -33.300; -408.000; -538.000
807.109;  -29.075; -493.000; -577.000
807.364;  -17.050; -407.000; -328.000
807.618;   -7.150; -415.000; -381.000
807.873;   36.700; -470.000; -494.000
808.128;   90.675; -257.000; -518.000
808.382;  111.900; -224.000; -332.000
808.637;   66.600; -440.000; -511.000
808.891;  152.225; -257.000; -180.000
809.146;   87.775; -902.000; -794.000
809.400;  239.850; -848.000; -923.000
809.654;  322.850; -779.000; -551.000
809.909;  452.075; -841.000; -927.000
810.163; 6417.900; -813.000; -651.000
810.418;16887.100; -940.000; -861.000
810.672; 1021.025; -685.000; -690.000
810.926;  696.075; -993.000; -973.000
811.180; 1377.825; -439.000; -372.000
811.434;31850.975;  240.000;  135.000
811.689;12961.500; -231.000; -365.000
811.943;  635.775; -936.000; -953.000
812.197;  327.600; -893.000; -671.000
812.451;  139.900; -379.000; -514.000
812.705;  -31.350; -809.000; -619.000
812.959;   -7.325; -263.000; -388.000
813.213;   -3.125; -283.000; -209.000
813.467;   61.650;  470.000;  253.000
813.721; -123.150; -764.000; -792.000
813.975; -120.175; -826.000; -877.000
814.229;   30.575;  430.000;  353.000
814.482;  -71.675; -517.000; -566.000
814.736; -129.350; -766.000; -744.000
814.990; -128.975; -779.000; -872.000
815.244;  -49.750; -228.000; -285.000
815.497; -103.025; -636.000; -601.000
815.751;  -22.775; -141.000;   82.000
816.005;  -81.825; -470.000; -586.000
816.258;  -66.825; -510.000; -363.000
816.512; -113.450; -693.000; -610.000
816.766;    0.100;  121.000;  157.000
817.019;    8.175;  148.000;  149.000
817.273; -125.950;-1000.000; -802.000
817.526;  -31.825; -206.000; -173.000
817.779;  -49.700;-1049.000; -960.000
818.033;  -88.475; -693.000; -807.000
818.286; -127.100; -725.000; -792.000
818.540;  -92.250; -403.000; -403.000
818.793;  -94.000; -402.000; -489.000
819.046; -110.325; -582.000; -520.000
819.299;  -52.050; -157.000; -166.000
819.553; -113.925; -552.000; -592.000
819.806; -173.350;-1016.000; -838.000
820.059;  -70.450; -334.000; -354.000
820.312;   -5.350;  152.000;  185.000
820.565;  -22.625;  110.000;  -27.000
820.818;  -55.900;  -59.000; -173.000
821.071; -169.100;-1041.000; -957.000
821.324; -119.725; -536.000; -540.000
821.577; -112.050; -457.000; -483.000
821.830;  -68.425; -270.000; -172.000
822.083; -132.150; -733.000; -288.000
822.336;  -57.800; -261.000; -167.000
822.589; -140.725; -805.000; -688.000
822.842; -138.025; -875.000; -770.000
823.094; -189.450;-1076.000;-1114.000
823.347; -136.800; -925.000; -729.000
823.600;    4.500;  402.000;  187.000
823.853;  -65.150; -311.000; -267.000
824.105;  -78.475; -331.000; -575.000
824.358;  -96.100; -617.000; -716.000
824.611;   11.650;  234.000;   40.000
824.863;  -52.175; -612.000; -591.000
825.116;   49.650;  -33.000;   27.000
825.368;   81.200; -366.000; -372.000
825.621;  159.275; -186.000; -240.000
825.873;   77.600; -704.000; -737.000
826.126;  577.000; -669.000; -641.000
826.378;11483.525; -389.000; -505.000
826.630; 2849.425; -890.000; -898.000
826.883;   38.625; -754.000; -693.000
827.135;   49.275; -279.000; -270.000
827.387; -118.750; -893.000; -839.000
827.639;  -47.150;  -86.000;   32.000
827.892; -127.425; -742.000; -582.000
828.144; -159.775; -848.000; -804.000
828.396;  -33.700;  104.000;  -80.000
828.648; -113.375; -440.000; -333.000
828.900; -151.400; -702.000; -795.000
829.152; -117.200; -684.000; -683.000
829.404;  -84.325; -215.000; -267.000
829.656;  -61.900;  321.000;  214.000
829.908;  -32.525;  393.000;  229.000
830.160; -175.125;-1064.000;-1047.000
830.412; -103.175; -481.000; -430.000
830.664; -129.025; -557.000; -665.000
830.916;  -71.875; -268.000; -206.000
831.167; -189.075;-1073.000; -951.000
831.419; -125.975; -623.000; -566.000
831.671; -158.375; -764.000; -809.000
831.923;  -98.275; -311.000; -447.000
832.174;  -80.700; -273.000; -331.000
832.426; -123.450; -493.000; -582.000
832.678; -198.025;-1043.000;-1091.000
832.929; -160.500; -947.000; -935.000
833.181;  -74.800; -575.000; -677.000
833.432;  -64.875;  -59.000; -186.000
833.684;  -30.150;  112.000;  -27.000
833.935; -127.375; -610.000; -566.000
834.187; -131.075; -829.000; -823.000
834.438;  -56.500;  -58.000;  -25.000
834.689;  -75.675; -255.000; -123.000
834.941;  -69.275; -343.000; -244.000
835.192; -106.875; -590.000; -533.000
835.443; -104.900; -419.000; -506.000
835.695;  -26.375;  138.000;  -16.000
835.946;  -96.200; -608.000; -378.000
836.197; -121.025; -599.000; -622.000
836.448; -107.325; -528.000; -395.000
836.699;  -59.575; -253.000; -341.000
836.950;   -4.875;   72.000;    7.000
837.201; -155.775;-1003.000; -987.000
837.452;  -56.625; -356.000; -170.000
837.703; -121.450; -791.000; -737.000
837.954;  -35.050; -205.000; -365.000
838.205;  -91.925;-1029.000;-1008.000
838.456;  166.125; -196.000; -282.000
838.707;  -16.475; -423.000; -519.000
838.958;   -1.975; -634.000; -647.000
839.209;  254.225;   18.000;   40.000
839.460;  115.700; -439.000; -201.000
839.710;  150.975; -135.000; -297.000
839.961;  401.275;  730.000;  612.000
840.212;  319.775; -382.000; -497.000
840.462; 1100.175; -328.000; -277.000
840.713;17701.850; -571.000; -536.000
840.964; 7245.100;  -62.000; -143.000
841.214;  487.825; -384.000; -624.000
841.465;  547.150; -214.000; -141.000
841.715;  486.800; -417.000; -380.000
841.966;  633.525; -746.000; -685.000
842.216; 8738.500; -330.000; -431.000
842.466;33793.325; -169.000; -313.000
842.717; 1886.825; -964.000; -952.000
842.967;  302.275; -635.000; -641.000
843.217;  248.000;   20.000;   28.000
843.468;   70.950; -104.000; -132.000
843.718;  -37.975; -718.000; -726.000
843.968; -100.600; -837.000; -765.000
844.218;   12.500; -315.000; -262.000
844.469;  -54.875; -577.000; -561.000
844.719; -120.075; -537.000; -682.000
844.969; -114.250; -550.000; -580.000
845.219; -148.475; -814.000; -862.000
845.469;  -84.425; -392.000; -342.000
845.719; -138.200; -792.000; -884.000
845.969;  -19.625;  119.000;  174.000
846.219; -124.650; -738.000; -720.000
846.469;   19.400;  464.000;  432.000
846.718;  -44.875; -115.000;   31.000
846.968; -130.575; -827.000; -827.000
847.218;  -54.825; -224.000; -371.000
847.468;   -1.025; -586.000; -555.000
847.718; -143.725; -827.000; -798.000
847.967; -145.600; -826.000; -915.000
848.217;  -89.975; -449.000; -569.000
848.467;  -69.350; -405.000; -376.000
848.716; -121.400; -708.000; -725.000
848.966;  -14.500; -372.000; -358.000
849.215;  -76.225; -428.000; -419.000
849.465;  -93.325; -785.000; -615.000
849.714; -145.625;-1132.000;-1150.000
849.964;  -76.025; -551.000; -613.000
850.213;  -31.450; -393.000; -355.000
850.463;   78.225;  137.000;  340.000
850.712;   -4.875; -542.000; -567.000
850.961;   18.625; -739.000; -678.000
851.211;  101.425; -513.000; -504.000
851.460;  152.675; -635.000; -650.000
851.709;  552.550;  -25.000;   18.000
851.958;10232.725; -912.000; -750.000
852.208;12746.025; -859.000; -879.000
852.457;  468.600; -181.000;  -13.000
852.706;   61.750; -791.000; -823.000
852.955;    9.375; -507.000; -528.000
853.204;  -72.425; -521.000; -461.000
853.453;  -83.750; -418.000; -458.000
853.702; -142.225; -660.000; -750.000
853.951; -110.100; -532.000; -520.000
854.200; -117.175; -613.000; -562.000
854.449; -146.450; -695.000; -661.000
854.698;  -99.550; -340.000; -279.000
854.946;  -68.750; -181.000; -284.000
855.195; -162.050; -843.000; -868.000
855.444;  -94.525; -395.000; -420.000
855.693; -133.200; -345.000; -432.000
855.941; -117.125; -387.000; -516.000
856.190;  -60.925; -256.000; -382.000
856.439; -136.800; -652.000; -703.000
856.687;  -66.475;  -99.000;  -72.000
856.936; -133.675; -621.000; -323.000
857.184; -198.950;-1067.000;-1020.000
857.433; -100.975; -423.000; -512.000
857.681; -187.725; -989.000; -953.000
857.930;  -87.975; -282.000; -433.000
858.178; -174.650; -856.000; -929.000
858.427; -161.275; -802.000; -781.000
858.675; -126.650; -377.000; -544.000
858.923; -113.925; -527.000; -819.000
859.172; -192.525;-1094.000;-1070.000
859.420;  -88.400; -339.000; -239.000
859.668; -147.500; -624.000; -628.000
859.916;  -42.950;  109.000;  115.000
860.164; -132.875; -699.000; -603.000
860.413;  255.450; -878.000; -696.000
860.661;  208.225; -709.000; -577.000
860.909;  -93.300; -339.000; -325.000
861.157;  -95.575; -277.000; -444.000
861.405; -132.000; -534.000; -670.000
861.653;    9.025;  310.000;  310.000
861.901;  152.775; -543.000; -613.000
862.149;  -19.275; -801.000; -824.000
862.396;  -91.225; -297.000; -187.000
862.644; -107.125; -368.000; -347.000
862.892;  -34.325;   98.000;  138.000
863.140; -135.075; -549.000; -530.000
863.388; -162.250; -815.000; -759.000
863.635; -130.100; -642.000; -601.000
863.883;  -19.875;  231.000;  190.000
864.131; -119.200; -288.000; -357.000
864.378; -151.350; -675.000; -540.000
864.626;  -97.775; -347.000; -415.000
864.873; -131.075; -556.000; -505.000
865.121; -153.900; -714.000; -799.000
865.368;  -59.950; -173.000;   75.000
865.616;  -45.300;  -33.000;  -40.000
865.863;  -79.275; -462.000; -506.000
866.111; -107.200; -795.000; -824.000
866.358;   30.350; -426.000; -420.000
866.605; 2297.300;  -64.000; -804.000
866.853; 2390.200; -621.000; -537.000
867.100;  -49.250; -728.000; -775.000
867.347; -104.275; -672.000; -611.000
867.594; -102.050; -740.000; -714.000
867.841;   63.275;   97.000;   17.000
868.089; -152.925; -746.000; -698.000
868.336; -116.925; -477.000; -420.000
868.583; -160.675; -637.000; -741.000
868.830;  -64.750; -131.000; -170.000
869.077; -171.850; -859.000; -787.000
869.324; -136.575; -502.000; -458.000
869.571; -139.125; -398.000; -430.000
869.818; -132.375; -485.000; -439.000
870.065; -118.275; -439.000; -513.000
870.311; -116.800; -456.000; -542.000
870.558; -117.425; -332.000; -311.000
870.805;  -95.200; -320.000; -384.000
871.052; -120.900; -494.000; -369.000
871.298;  -77.550; -204.000; -131.000
871.545;  -87.675; -151.000; -185.000
871.792;  -92.175; -173.000; -222.000
872.038;  -85.800;   43.000; -126.000
872.285; -133.975; -496.000; -387.000
872.532; -107.925; -357.000; -387.000
872.778;    1.700;  556.000;  403.000
873.025; -102.675; -384.000; -359.000
873.271;   14.950;  501.000;  578.000
873.517;  -40.125; -133.000; -209.000
873.764;  -37.500; -193.000;  -80.000
874.010;  -80.325; -143.000; -230.000
874.257;  -43.400;  123.000;   90.000
874.503; -138.450; -579.000; -479.000
874.749;  -68.275;   31.000;  275.000
874.995;  -69.500;  -80.000;  -20.000
875.242; -128.100; -540.000; -478.000
875.488; -131.775; -414.000; -439.000
875.734;  -57.050; -106.000; -234.000
875.980;  163.625; -872.000;-1032.000
876.226;  350.500; -157.000; -255.000
876.472;  -14.175;  343.000;  237.000
876.718;  -45.900;  184.000;  158.000
876.964;  -52.800;   56.000;   55.000
877.210; -163.250; -547.000; -677.000
877.456; -141.825; -630.000; -557.000
877.702; -180.975; -821.000; -832.000
877.948; -121.475; -377.000; -497.000
878.193;    7.725;  361.000;  255.000
878.439; -106.325; -487.000; -472.000
878.685; -111.700; -272.000; -343.000
878.931; -144.000; -618.000; -676.000
879.176;  -76.600; -201.000; -201.000
879.422; -176.550; -933.000; -820.000
879.668;   13.550;   10.000;   79.000
879.913;  122.725;   53.000;  137.000
880.159;  -69.175; -112.000;  -17.000
880.404;  -73.925; -152.000; -162.000
880.650;  -52.225;   91.000;  141.000
880.895; -162.325; -670.000; -710.000
881.141; -119.425; -454.000; -428.000
881.386; -155.900; -503.000; -658.000
881.631; -105.050; -311.000; -166.000
881.877;  -43.300;  112.000;  -13.000
882.122; -156.450; -684.000; -600.000
882.367; -100.825; -136.000; -186.000
882.612;  -76.800;  -80.000; -176.000
882.858; -188.050; -877.000; -823.000
883.103; -105.150; -297.000; -267.000
883.348; -162.400; -759.000; -852.000
883.593; -143.375; -677.000; -602.000
883.838;  -58.425; -311.000;  -24.000
884.083;   16.250;  353.000;  288.000
884.328; -102.750; -564.000; -545.000
884.573;  -74.450; -196.000; -143.000
884.818;  168.875; -694.000; -531.000
885.063;  180.375; -348.000; -315.000
885.308; -118.350; -475.000; -398.000
885.553;  -11.450;  245.000;  325.000
885.797; -136.250; -545.000; -615.000
886.042;  -51.625;    8.000;   58.000
886.287;  -98.325; -253.000; -211.000
886.532;  -54.125;   26.000;  204.000
886.776; -109.300; -407.000; -525.000
887.021; -157.050; -621.000; -574.000
887.265; -163.650; -685.000; -689.000
887.510; -139.625; -557.000; -496.000
887.755;  -91.400; -194.000; -164.000
887.999; -142.375; -552.000; -575.000
888.244;  -69.325;  -58.000;  161.000
888.488;  -12.500;  371.000;  393.000
888.732; -146.725; -368.000; -520.000
888.977; -140.650; -622.000; -567.000
889.221; -165.900; -683.000; -659.000
889.465; -137.725; -422.000; -566.000
889.710; -104.050;  -56.000; -299.000
889.954;   -1.700;  579.000;  467.000
890.198; -147.450; -584.000; -707.000
890.442; -174.650; -716.000; -712.000
890.687; -179.775; -800.000; -753.000
890.931;  -96.900; -273.000; -210.000
891.175; -151.600; -502.000; -500.000
891.419;  -75.400; -105.000; -110.000
891.663;  -99.800; -239.000; -112.000
891.907; -169.100; -801.000; -545.000
892.151; -185.350; -920.000; -815.000
892.395; -117.800; -274.000; -387.000
892.638;  -39.200;  408.000;  291.000
892.882; -192.050; -780.000; -867.000
893.126;    5.525;  758.000;  558.000
893.370; -102.500; -167.000; -168.000
893.614; -156.875; -714.000; -715.000
893.857; -110.775; -183.000; -197.000
894.101; -146.225; -527.000; -631.000
894.345;  -59.650;  300.000;  150.000
894.588;   15.225;  569.000;  380.000
894.832;  -91.725; -178.000;  -84.000
895.075;  -98.825;   15.000;  -92.000
895.319; -138.425; -552.000; -420.000
895.563; -124.200; -413.000; -353.000
895.806; -161.575; -628.000; -741.000
896.049;  -72.450; -576.000; -368.000
896.293;   90.425;  527.000;  405.000
896.536;  -78.775; -465.000; -468.000
896.779;  -70.150; -149.000;   -1.000
897.023; -157.825; -751.000; -714.000
897.266;  -38.025;  325.000;  269.000
897.509; -199.475; -900.000; -901.000
897.752;  -42.875;  149.000;  171.000
897.996; -200.225; -972.000; -864.000
898.239;  -54.625;  168.000;  102.000
898.482; -140.750; -431.000; -453.000
898.725;  -53.325;  101.000;   53.000
898.968; -160.600; -609.000; -744.000
899.211; -118.375; -513.000; -361.000
899.454; -136.400; -633.000; -539.000
899.697;  -64.550;   90.000;  -43.000
899.940; -168.075; -761.000; -757.000
900.182; -119.425; -335.000; -405.000
900.425; -106.300; -150.000; -298.000
900.668;  -21.575;  491.000;  350.000
900.911; -110.250; -292.000; -345.000
901.154;  -66.825;  141.000;   -3.000
901.396; -146.000; -407.000; -412.000
901.639; -148.550; -430.000; -496.000
901.882; -186.725; -790.000; -809.000
902.124;  -94.625;  -29.000; -143.000
902.367; -129.725; -315.000; -361.000
902.609; -135.475; -476.000; -453.000
902.852;  -92.150; -108.000; -260.000
903.094; -141.025; -458.000; -337.000
903.337;  -71.575;  -26.000;   53.000
903.579; -111.475; -228.000; -441.000
903.821; -161.400; -597.000; -744.000
904.064;  -77.525;   85.000;  127.000
904.306;  -96.500; -126.000; -166.000
904.548; -112.100; -152.000; -366.000
904.790; -108.050; -195.000; -340.000
905.033; -133.275; -625.000; -577.000
905.275; -137.425; -513.000; -524.000
905.517;   34.000;  468.000;  256.000
905.759;  -78.375; -667.000; -761.000
906.001; -103.725; -322.000; -369.000
906.243;  -66.350; -162.000; -224.000
906.485;   98.500; -265.000; -207.000
906.727;   94.600; -499.000; -542.000
906.969;  -59.125;  -30.000; -135.000
907.211;  112.825; -316.000; -382.000
907.453;  249.800; -188.000; -237.000
907.695;   -0.350; -158.000; -385.000
907.936;   27.825;  818.000;  706.000
908.178;  -57.300;   92.000; -135.000
908.420;  -83.625; -111.000; -162.000
908.662; -148.225; -633.000; -682.000
908.903;  -85.750; -208.000; -123.000
909.145;  -79.100; -240.000; -305.000
909.386;   -0.525;  315.000;  280.000
909.628;   21.350;  363.000;  397.000
909.870;   -1.875;   29.000;  264.000
910.111;  -99.350; -809.000; -949.000
910.353;    2.650; -123.000; -161.000
910.594;   -1.500; -574.000; -606.000
910.835;   83.025; -265.000; -326.000
911.077;  127.075; -503.000; -604.000
911.318;  281.925; -505.000; -471.000
911.559;  448.125; -577.000; -880.000
911.801; 1330.250; -284.000; -280.000
912.042;10331.550;  -50.000; -159.000
912.283;27063.650;  404.000;  371.000
912.524; 4160.750; -396.000; -457.000
912.765;  461.125; -193.000;   79.000
913.006;  237.800; -307.000; -338.000
913.247;   40.825; -270.000; -290.000
913.488;   -8.225;  -43.000;   30.000
913.729;  -93.800; -373.000; -373.000
913.970;  -59.675;  -96.000; -292.000
914.211;  -79.825; -160.000; -198.000
914.452;  -63.550; -118.000;  -11.000
914.693;    9.475;  510.000;  592.000
914.934;   -2.575;  510.000;  440.000
915.175;  -78.050;   53.000;  -95.000
915.415;  -69.250; -137.000;   27.000
915.656;  -74.825;  -28.000;  192.000
915.897; -115.450; -252.000;  -82.000
916.137;  -80.900;   74.000;   -9.000
916.378; -133.350; -573.000; -517.000
916.619;  -80.350; -159.000;  -63.000
916.859;  -34.825;  303.000;  330.000
917.100;  125.150; 1655.000; 1070.000
917.340;   33.750;  930.000;  728.000
917.581;   43.850;  965.000;  789.000
917.821;  -48.375; -171.000;  143.000
918.061;   -4.150; -199.000;  -72.000
918.302;  -56.475; -152.000; -211.000
918.542;  -40.050;  -22.000;    3.000
918.782;   22.725;  369.000;  377.000
919.023;  117.825;  360.000;  427.000
919.263; 1727.725; 8131.000;  202.000
919.503; 1111.075; -137.000;  -54.000
919.743;  590.675;  390.000;  266.000
919.983;  254.425; -134.000;  -26.000
920.223;   67.825;  135.000;   14.000
920.463;  130.875;  631.000;  554.000
920.703;  129.100;   84.000;   39.000
920.943;  165.325; -110.000;   90.000
921.183;  231.225; -414.000; -405.000
921.423;  490.425;  307.000;  546.000
921.663;  725.550; -174.000; -257.000
921.903; 1561.725;  237.000;  173.000
922.143; 8736.800;  372.000;  389.000
922.383;33655.025;  158.000;  115.000
922.622;11488.375; -120.000;  -15.000
922.862; 1218.700;  796.000;  785.000
923.102;  464.550;  -51.000;   33.000
923.341;  196.325;   59.000;   74.000
923.581;   75.550;  450.000;  360.000
923.821;    5.700;  301.000;  398.000
924.060;    3.800;  351.000;  193.000
924.300;  -77.525;  -16.000; -128.000
924.539;  -14.300;  584.000;  473.000
924.779;    8.475;  812.000;  597.000
925.018;  -52.675;  247.000;  353.000
925.257;   -3.975;  595.000;  666.000
925.497;  -55.275;  447.000;  412.000
925.736;  -70.575;  -35.000;  102.000
925.975;    1.750;  687.000;  669.000
926.214;   26.725;  907.000;  850.000
926.454;   -1.675;  706.000;  757.000
926.693;  -47.550;  419.000;  543.000
926.932;   25.850; 1021.000;  825.000
927.171;   65.425; 1107.000; 1044.000
927.410;   43.450; 1144.000;  967.000
927.649;   22.400;  924.000;  742.000
927.888;   -8.125;  590.000;  564.000
928.127;  -27.775;  680.000;  678.000
928.366;   24.600;  842.000;  826.000
928.605;   30.225;  831.000;  737.000
928.844;  228.575; 1451.000; 1393.000
929.083;  615.175;  770.000;  613.000
929.321;  322.150; 1335.000; 1359.000
929.560;   67.850; 1158.000; 1122.000
929.799;  -34.975;  574.000;  475.000
930.038;   74.450; 1025.000; 1394.000
930.276;  -63.175;  334.000;  397.000
930.515;   -2.800;  827.000;  681.000
930.753;  -28.425;  614.000;  589.000
930.992;  -19.375;  664.000;  717.000
931.230;   -6.800;  847.000;  847.000
931.469;  163.825; 2162.000;  892.000
931.707;   77.525;  840.000;  751.000
931.946;   58.625; 1278.000; 1344.000
932.184;   59.150; 1437.000; 1175.000
932.423;   29.125; 1265.000;  963.000
932.661;   81.225; 1296.000; 1428.000
932.899;   18.625;  987.000;  821.000
933.137;   -6.125;  754.000;  564.000
933.376;  150.350; 1664.000; 1335.000
933.614;  165.975; 1759.000; 1196.000
933.852;   50.925; 1357.000; 1171.000
934.090;  128.075; 1722.000; 1747.000
934.328;   99.750; 1252.000; 1457.000
934.566;   81.350; 1431.000; 1110.000
934.804;  125.350; 1263.000; 1309.000
935.042;  461.425; 1861.000; 1850.000
935.280; 1820.375; 2088.000; 2063.000
935.518; 1722.200; 2113.000; 2007.000
935.756;  357.150; 2481.000; 2316.000
935.994;  170.550; 1808.000; 1751.000
936.231;  356.975; 2890.000; 2950.000
936.469;  175.475; 2367.000; 2378.000
936.707;  161.925; 2220.000; 2167.000
936.945;  225.475; 2825.000; 2882.000
937.182;  203.700; 2679.000; 2741.000
937.420;  304.200; 3602.000; 3031.000
937.657;  399.325; 3365.000; 3478.000
937.895;  362.225; 3331.000; 3488.000
938.133;  318.400; 3540.000; 3528.000
938.370;  336.275; 3896.000; 4191.000
938.607;  393.400; 4488.000; 4205.000
938.845;  541.225; 5587.000; 5549.000
939.082;  479.125; 5387.000; 5177.000
939.320;  539.400; 5799.000; 5728.000
939.557;  651.450; 6549.000; 6491.000
939.794;  710.300; 7285.000; 7097.000
940.031;  915.350; 8421.000; 8368.000
940.269; 1077.350; 9552.000; 9107.000
940.506; 1104.050;10901.000;10507.000

