
Integration time [ms]: 100.000
Averaging Nr. [scans]: 40
Smoothing Nr. [pixels]: 0
Data measured with spectrometer [name]: 2101013U2
Wave   ;Sample   ;Dark     ;Reference
[nm]   ;[counts] ;[counts] ;[counts] 

394.013;   49.222; -450.257; -315.536
394.305;  196.095; -461.258; -419.536
394.596; 1111.592; -676.269; -527.514
394.887; 2819.683; -796.268; -654.518
395.178; 1079.914;  145.736;   11.476
395.470;   75.675; -210.263; -356.526
395.761;  193.223;  305.734;  394.479
396.052;  302.166; -545.284; -306.489
396.343;  292.861; -557.276; -454.503
396.634;  106.105; -200.279; -290.497
396.926;  107.406; -618.268; -565.517
397.217;  101.441;   11.725;  -17.504
397.508;   48.382; -366.273; -154.507
397.799;   32.030; -555.279; -571.497
398.090;    7.049; -973.280; -902.495
398.381;  107.141;   11.708;  -11.473
398.672;  -18.757; -585.292; -742.473
398.963;   37.236; -348.279; -373.498
399.254;  107.327;   54.709; -209.475
399.545;  -35.105;-1017.266; -883.520
399.836;   47.600; -407.277; -343.501
400.127;   47.593; -205.295; -209.468
400.418;   54.826; -423.274; -392.506
400.709;   59.586; -359.281; -333.493
401.000;   60.481; -268.291; -309.476
401.290;  106.804;  225.698;  115.545
401.581;   76.324; -166.286; -228.485
401.872;   18.015; -542.298; -486.462
402.163;   47.935; -313.296; -252.467
402.454;   79.427; -123.291; -163.475
402.744;   67.852; -844.297; -813.465
403.035;  408.233; -226.293;  -86.471
403.326;  529.145; -366.292; -384.474
403.617;  351.759;  204.701;  165.539
403.907;  249.297; -593.283; -679.490
404.198; 2443.683; -545.307; -599.446
404.489; 6374.727; -618.283; -588.491
404.779; 2055.583; -618.302; -660.456
405.070;  235.561;  -67.304; -174.451
405.360;  339.510; -259.293; -238.472
405.651;  376.444;  125.699;   98.542
405.942;  174.769;  209.714;  127.516
406.232;  234.859; -432.285; -413.487
406.523;  434.928;  641.706;  758.530
406.813;   81.347; -579.286; -644.484
407.104;  301.615;  261.708;  144.527
407.394;  164.935; -604.299; -591.462
407.685;  146.333;  336.715;  222.513
407.975;   46.251; -400.283; -382.490
408.265;  110.317; -134.289; -190.478
408.556;   66.224; -472.291; -459.475
408.846;  169.178;  474.706;  429.530
409.137;   91.250;   -1.288; -216.480
409.427;   51.284; -193.285; -271.487
409.717;   29.535; -776.273; -692.508
410.007;  140.577;    4.715; -170.486
410.298;   85.495; -360.295; -342.469
410.588;   50.731; -495.285; -510.486
410.878;   46.911; -792.287; -873.482
411.168;  114.742; -481.298; -478.463
411.459;  128.220; -295.283; -242.489
411.749;   59.773; -609.292; -507.474
412.039;   62.823; -755.289; -386.480
412.329;  193.518;   40.722;  132.501
412.619;  206.372;  -62.286; -148.485
412.909;  359.045;  639.711;  594.521
413.199;  319.375; -130.280; -251.495
413.490;  372.185;  521.710;  352.523
413.780;  152.204;-1013.279; -913.496
414.070;  325.912;  -46.276;  235.497
414.360;  374.564; -729.278; -666.498
414.650;  419.132; -726.288; -688.482
414.940;  546.203; -538.280; -441.496
415.230;  926.054;   50.712;   74.519
415.520; 6164.116;  155.730;   66.486
415.809;24409.136; -305.281; -125.493
416.099;18842.053; -388.277; -229.501
416.389; 5270.899;  435.726;  236.494
416.679; 3118.554;   91.738;   85.473
416.969;  523.291; -527.287; -503.483
417.259;  454.455;  341.721;  171.503
417.549;  685.260;  522.718;  318.508
417.838; 1681.583; -205.268; -147.518
418.128; 5668.115;  650.710;  492.522
418.418; 4727.616; -491.272; -579.509
418.708; 3185.949;    9.726;  -48.506
418.997;12072.195; -474.275; -480.505
419.287;12447.681; -733.273; -790.507
419.577;11910.945; -160.283; -123.489
419.866;39384.275; -588.277; -498.501
420.156;40013.912; -242.270;  -55.513
420.446; 7076.046; -112.263;  -26.526
420.735;  823.356; -376.271; -446.512
421.025;  819.064; 1830.722;  315.502
421.314;  656.404; -203.271; -226.512
421.604; 1267.525;   89.732;  233.484
421.893;  723.900; -705.271; -602.511
422.183;  209.946; -487.263; -461.526
422.472;  365.427;  -36.271; -107.511
422.762;  431.801; -416.266; -379.521
423.051;  242.638; -916.276; -916.503
423.341;  311.583; -491.273; -439.507
423.630;  393.882; -121.265;   15.477
423.919;  391.719;   58.725;   49.495
424.209;  388.127;  -31.263;   56.473
424.498;  492.005;   68.732;  161.483
424.787; 1108.236; -535.267; -601.518
425.077; 3359.655;   34.735;   29.478
425.366; 4652.857; -734.262; -744.528
425.655;10108.533;  639.727;  259.493
425.945;22781.661; -313.247; -268.554
426.234;12546.180;  117.741;  300.467
426.523; 5154.435;  -86.259; -350.534
426.812; 7054.846;  107.734;  159.480
427.101;10514.372; -127.269; -323.515
427.390;13059.216;  -55.270;  -86.514
427.680; 2803.230; -624.257; -411.538
427.969;  467.316; -330.255; -301.540
428.258;  317.871; -385.257; -477.536
428.547;  524.295;  449.728;  397.490
428.836; 1190.407; -421.253; -398.543
429.125; 1657.337; -199.259;  -72.534
429.414;  778.254; -330.251; -294.548
429.703; 3192.329; -231.251; -213.548
429.992; 9656.533; -938.250; -828.549
430.281; 6248.214; -397.264; -331.524
430.570;  573.995;  -21.252;   32.454
430.859;  526.435;  279.741;  352.466
431.148;  407.282;  636.752;  631.446
431.437;  272.344;  391.748;  367.454
431.725;  157.598; -544.257; -481.536
432.014;  126.139; -845.253; -756.545
432.303;  366.108; -149.239; -105.569
432.592;  570.346; -460.263; -178.525
432.881; 1043.108; -601.248; -437.554
433.169; 6356.116; -343.255;  -61.540
433.458;12994.916;  445.765;  540.424
433.747; 5353.888; -397.261; -289.529
434.036;  859.933; -275.242; -280.564
434.324; 2112.145; -395.249; -379.551
434.613; 3739.877;   40.757;  159.437
434.902; 1205.098;  333.760;  439.433
435.190;  505.781;   75.761;  295.431
435.479;  273.234;  -52.245;   83.441
435.767;  104.642; -411.244; -427.561
436.056;  195.779; -340.242; -294.563
436.345;  375.325; -372.240; -223.568
436.633;  366.841;   60.750;  383.450
436.922;  253.027;  208.760;  414.432
437.210;  497.856; -194.236;    1.426
437.499; 1595.114; -583.235; -432.576
437.787; 1753.581; -339.236;  -10.574
438.075;  479.562;   56.761;  162.430
438.364;  623.914;  -44.238;  250.429
438.652;  357.819; -286.226; -138.592
438.941;  116.883;    3.770;  269.415
439.229;    4.567; -665.252; -466.545
439.517;   31.398; -160.234;  -85.577
439.806;    1.660; -501.225; -290.595
440.094;  169.855;  377.766;  650.421
440.382;  151.809; -653.233; -302.580
440.670;  172.839; -361.235; -285.576
440.959;   26.627; -347.223; -170.599
441.247;   58.295; -151.229; -109.587
441.535;   90.296; -266.235;   31.423
441.823;   20.278; -497.234; -305.578
442.111;  173.524;  173.771;  327.412
442.400;  445.633; -628.245; -335.559
442.688; 1172.005; -111.234; -620.579
442.976;  849.240; -786.213; -450.617
443.264;   89.116; -324.224; -364.597
443.552;  100.820; -258.226;   51.408
443.840;  159.345;  602.765;  876.423
444.128;   96.133;  265.767;  269.420
444.416;   -5.124; -694.228; -312.588
444.704;   22.907; -465.219;  -92.605
444.992;   68.473;   -0.226;  240.407
445.280;   42.484; -517.230;  -94.585
445.568;   37.068; -694.212; -396.618
445.856;  307.966; -174.221;  357.398
446.143;  680.203;  -54.220;   -7.604
446.431;  560.630;  -25.228;  625.411
446.719;  234.551;  489.783;  675.391
447.007;  187.353;  481.769;  705.416
447.295;  179.624;  597.777;  871.402
447.583;   87.892; -464.229;  -34.587
447.870;  144.263; -434.221; -202.601
448.158;  370.033; -104.230;  129.415
448.446;  277.104; -800.219; -338.604
448.733;  168.668;   13.776;  269.403
449.021;  234.718;   60.788;  341.382
449.309;  166.433; -296.210;  208.379
449.596;  215.997;  128.783;   59.392
449.884;  156.156; -571.222; -325.600
450.172;  170.860; -756.227; -406.590
450.459;  436.323;  645.786;  780.387
450.747; 2513.571; -411.218; -147.608
451.034; 7969.431;  493.772;  889.411
451.322; 6552.451; -413.214; -170.614
451.609;  537.269;  292.777;  508.403
451.897;  620.121; -550.203; -183.634
452.184; 1858.199; -622.223; -400.598
452.472; 1713.804;   97.792;  269.375
452.759;  330.080;  512.781;  864.395
453.047;  107.290; -407.212; -125.617
453.334;   65.137; -732.219; -216.606
453.621;   65.578; -438.214; -161.615
453.909;  104.463;   13.796;  384.368
454.196;  101.383; -299.199; -123.641
454.483;  195.409;  317.798;  540.364
454.771;  123.507; -215.208;  196.374
455.058;   37.110; -316.207;  102.374
455.345;  111.038;   71.807;  344.347
455.632;   87.089; -128.207;  235.373
455.919;   47.955;  -82.196;  182.354
456.207;  -80.963; -774.198; -450.642
456.494;  -13.529; -475.200;  -66.639
456.781;    1.979; -399.202; -198.635
457.068;   56.120; -253.206;  -29.628
457.355;   -3.129; -698.206; -401.629
457.642;    0.677; -552.205; -290.630
457.929;   -6.196; -778.194; -417.651
458.216;   76.066; -575.212; -354.617
458.503;  233.234; -173.193;  -19.652
458.790;  237.330; -864.208; -630.625
459.077;  278.434;  -77.202;  110.364
459.364;  799.197; -350.195; -210.649
459.651; 1728.168;  -46.206;  220.372
459.938;  800.720; -864.209; -665.623
460.225;  132.087;  132.799;  276.363
460.512;  -35.047; -836.197; -688.645
460.799;   81.369;  -32.218;  320.392
461.086;   69.075; -370.200; -251.640
461.372;   28.963; -509.198; -279.642
461.659;   86.982; -165.196;  108.354
461.946;   63.282; -445.193;  -54.651
462.233;  231.798;  842.800;  888.361
462.519;  338.745; -814.201; -464.639
462.806; 1032.953; -768.197; -497.645
463.093;  906.253; -445.191;  -66.656
463.380;  -18.631; -920.186; -824.664
463.666;   49.430; -259.197;  -18.646
463.953;   92.267; -406.195; -243.648
464.239;  180.217; -173.195;  -77.648
464.526;  387.353;  413.806;  743.350
464.813;  324.340; -565.190; -304.658
465.099;  346.008;  606.807;  607.348
465.386;  302.787;  903.807;  921.348
465.672;   20.653; -694.197; -522.645
465.959;   27.082; -598.188; -520.662
466.245;    7.712; -468.193; -359.652
466.532;   89.540; -109.195;   63.352
466.818;   77.819; -357.186; -216.664
467.104;  -15.966; -488.182; -415.672
467.391;  -19.134; -628.189; -459.658
467.677;   25.297; -289.186;    9.335
467.964;    1.073; -682.189; -471.660
468.250;   37.325; -331.186; -160.665
468.536;   77.143;   90.811;  180.341
468.822;  -23.763; -821.184; -574.668
469.109;  142.839;  351.827;  471.311
469.395;  182.247;  729.808;  787.346
469.681;  203.396;   46.811;  156.341
469.967; 1255.325; -699.188; -382.660
470.254; 2795.408; -494.188; -306.662
470.540; 1774.755; -601.196; -476.646
470.826;  247.570; -488.181; -397.675
471.112;  311.116;  288.816;  113.331
471.398;   88.920; -253.183;  -58.670
471.684;   40.823; -626.177; -447.680
471.970;   -5.301; -918.180; -981.675
472.256;   21.346; -521.192; -441.654
472.542;   13.075; -499.171; -434.691
472.828;   -4.270; -743.182; -607.672
473.114;   35.919; -380.166; -283.700
473.400;    4.940; -504.175; -293.684
473.686;   27.925; -452.166; -400.701
473.972;   40.804; -230.174; -131.687
474.258;  -35.810; -925.173; -843.689
474.544;  223.815; -183.178;   -2.679
474.830;  329.791;  -65.175;   45.316
475.116;  516.616; -123.190; -196.658
475.401;  721.776; -558.180; -467.676
475.687;  183.450; -725.180; -718.676
475.973;   -5.537; -673.181; -770.673
476.259;  234.994;  736.825;  764.315
476.544;  382.281; -539.176; -437.682
476.830;  870.021; -398.172; -322.690
477.116;  764.980; -430.177; -336.682
477.401;  140.901;  346.820;  358.324
477.687;   -8.035; -289.175; -405.684
477.973;   42.491;   21.819;   28.326
478.258;    1.970; -448.163; -348.706
478.544;   41.930;   21.815;   61.334
478.829;  -53.544; -818.171; -738.692
479.115;  -50.104; -749.172; -651.690
479.401;  -27.075; -444.174; -449.686
479.686;   43.124; -253.180;  -74.676
479.972;  -32.205; -886.178; -776.680
480.257;   38.695; -258.166;  -65.700
480.542;    2.185; -614.170; -469.693
480.828;  215.313; 1288.824; 1392.317
481.113;  -36.139; -464.176; -426.683
481.399;  -25.131; -236.161; -202.711
481.684;  -64.430; -620.166; -462.700
481.969;   18.558; -158.159;  -73.713
482.255;    0.895; -439.169; -285.695
482.540;    1.020; -569.178; -441.680
482.825;    9.964; -395.187; -404.663
483.110;   91.099;  -85.169; -105.696
483.396;  205.729; -840.157; -652.718
483.681;  519.229;  543.826;  730.313
483.966;  174.677; -696.160; -700.712
484.251;   -8.622; -404.174; -310.687
484.536;   -7.320; -356.165; -378.703
484.822;    8.781; -205.173; -218.687
485.107;  -23.108; -599.152; -502.726
485.392;  128.661;  662.836;  541.296
485.677;   81.283;  354.832;  163.302
485.962;  102.577;  160.843;  270.283
486.247;   92.078;  -14.162;   -8.707
486.532;   30.946; -178.166; -325.701
486.817;  149.164;  381.839;  431.291
487.102;  116.000; -453.154; -514.722
487.387;  700.331; -637.156; -652.718
487.672; 1256.166; -154.164;  -38.705
487.957;  772.721; -394.160; -286.711
488.241;  197.334; -290.150; -314.729
488.526;  790.819; -280.152; -148.726
488.811; 1280.347; -881.177; -818.680
489.096;  933.203; -666.154; -702.723
489.381;  495.115;    3.847;  162.275
489.666;  410.619; -428.161; -510.710
489.950;  182.706;  558.846;  627.277
490.235;  -19.521; -480.151; -458.728
490.520;  -42.757; -756.161; -723.710
490.804;  -48.992; -827.156; -736.719
491.089;    3.675; -469.149; -299.732
491.374;   30.140; -132.164;  -75.704
491.658;  -25.164; -817.147; -717.735
491.943;  169.273; -657.152; -609.727
492.227;  232.121; -178.155;  -38.721
492.512;   47.676; -294.157; -341.717
492.797;  -71.707; -713.149; -716.731
493.081;  -38.361; -588.147; -598.735
493.366;  -47.955; -751.161; -635.711
493.650;  213.467;  831.859;  917.254
493.935;   35.485; -648.147; -447.734
494.219;  -46.271; -778.142; -687.743
494.503;  -29.662; -585.150; -487.730
494.788;   38.768;   46.842;   74.285
495.072;  104.860;  184.850;  434.271
495.356;  193.903; -463.148; -343.733
495.641;  456.970; -812.146; -736.736
495.925;  432.913; -976.156; -903.719
496.209;   33.199; -599.149; -451.732
496.494;  -38.395; -763.142; -544.744
496.778;    5.825; -364.154; -360.722
497.062;  -44.088; -819.156; -627.719
497.346;  -28.727; -869.160; -640.711
497.631;  143.381;  580.852;  560.266
497.915;   63.981;  -64.145;  175.261
498.199;   51.654; -341.157; -277.718
498.483;   45.067; -562.152; -508.725
498.767;  204.361;  301.850;  300.271
499.051;  193.347; -126.149; -100.732
499.335;   23.645; -693.149; -739.731
499.619;  -38.232; -381.129; -423.767
499.903;   28.545; -272.155;  -65.721
500.187;   20.657; -588.153; -316.724
500.471;   26.447; -796.152; -595.727
500.755;  106.143;   62.839;  -96.710
501.039;   31.470; -270.155; -357.721
501.323;   77.918;  -21.141;  264.254
501.607;   36.171; -447.163; -503.706
501.891;   -9.169; -607.156; -512.718
502.174;  -32.858; -726.144; -585.741
502.458;   72.626;   89.849;  370.273
502.742;   32.242; -180.138; -191.751
503.026;  106.210; -412.147; -254.734
503.310;  201.782; -437.159; -375.713
503.593;  110.287; -464.147; -325.735
503.877;  126.532; -232.133; -156.760
504.161;  165.385;    2.847;  -50.724
504.444;  157.020; -841.158; -710.716
504.728;  489.489; -487.164; -522.704
505.012;  746.408; -257.150;  -76.729
505.295;  542.119; -417.161; -212.711
505.579;  552.687; -256.156; -496.719
505.862;  800.402; -555.145; -333.738
506.146;  790.759; -681.159; -758.714
506.429;  431.109;  568.841;  461.286
506.713;   64.505; -732.151; -667.728
506.996;  321.450;   90.846;  295.278
507.280;  359.434; -633.165; -474.703
507.563;  245.468; -469.155; -261.721
507.847;  107.208; -423.153; -112.724
508.130;   94.470; -665.161; -456.711
508.413;  134.791; -758.167; -577.700
508.697;  262.091; -151.167;   12.300
508.980;  161.860; -422.153; -312.724
509.263;    3.890; -466.155; -450.720
509.547;   51.158; -124.150;   82.271
509.830;   52.072; -172.160;  140.289
510.113;   88.287;  128.844;  298.281
510.396;   36.665; -530.152; -300.725
510.680;  133.903; -818.145; -812.738
510.963;  528.079;  184.846;  180.277
511.246;  435.091; -493.150; -357.730
511.529;  251.358; -482.145;  -83.739
511.812;  405.104; -250.134;   10.241
512.095;  286.227; -740.151; -396.728
512.378;   83.741; -317.147; -245.736
512.661;   12.150; -703.137; -623.753
512.944;   49.956; -750.142; -637.744
513.227;   49.697; -170.137; -171.752
513.510;   25.667; -479.144; -671.741
513.793;   18.673; -485.140; -435.747
514.076;  134.888;  -43.127;  -39.771
514.359;  111.450; -294.149; -135.732
514.642;   81.534; -442.142; -567.744
514.925;  777.521;  581.860;  561.253
515.208; 1079.500; -498.134; -443.758
515.491;  690.989; -276.133; -182.761
515.773;  385.321; -410.143; -337.742
516.056; 2195.731;  249.864;  409.246
516.339; 2923.860; -754.136; -652.755
516.622; 1887.713; -518.150; -488.730
516.904; 1109.503;  882.857;  975.257
517.187;  507.971; -730.138; -523.752
517.470;  408.101; -568.143; -510.743
517.752;  448.113; -624.136; -470.756
518.035;  368.133; -708.139; -725.749
518.318;  376.060; -799.136; -744.755
518.600; 2563.093; -300.132; -325.762
518.883; 3543.283;  310.858;   88.256
519.165; 1688.439; -585.138; -426.751
519.448;  390.367;  -61.132;  -19.762
519.730;  188.021; -573.126; -415.773
520.013;  294.685;  588.867;  664.240
520.295;  745.181;  -94.134;  -15.759
520.578; 1623.780; -335.131; -305.764
520.860; 1887.668; -254.132;   56.238
521.143;  988.765; -763.135; -584.756
521.425;  489.884; -251.125; -279.775
521.707;  704.614; -622.127; -380.771
521.990; 1890.464; -199.127;  167.229
522.272; 2153.374; -116.140;   -4.748
522.554;  954.146; -237.143; -157.742
522.836;  351.579;  -24.134;   99.241
523.119;  228.234; -496.148; -189.734
523.401;  151.637; -448.130; -314.766
523.683;  103.075; -865.137; -693.753
523.965;  281.994;  408.862;  260.248
524.247;  303.155;   54.878;  170.220
524.529;  208.731; -451.134; -367.759
524.812;  380.264;   -3.130;  191.234
525.094;  902.818; -773.138; -631.751
525.376; 1461.418; -143.124;   78.223
525.658;  885.832; -441.136; -339.754
525.940;   22.102; -805.131; -671.764
526.222;   36.311; -188.136;  -88.755
526.504;  115.875; -190.131;   32.237
526.786;  147.333; -960.133; -647.760
527.068;  291.298; -124.123;  -67.778
527.349;  116.204; -865.137; -774.754
527.631;  130.792; -137.132;   22.238
527.913;  145.588; -664.127; -450.771
528.195;  203.027; -761.125; -639.774
528.477;  265.451;  -93.134;  -30.758
528.759;  165.539; -648.130; -522.766
529.040;   68.947; -569.123; -293.778
529.322;   63.079; -235.125;  -10.774
529.604;  135.141;  -47.130;   93.233
529.886;  142.470; -546.126; -302.773
530.167;  122.033;  232.870;  192.235
530.449;   62.965;    1.853;   63.265
530.731;   27.454; -572.122; -459.779
531.012;   80.200; -513.120; -216.784
531.294;   78.989; -118.116;  -43.792
531.575;  143.259;  290.875;  538.225
531.857;   55.945; -548.135; -266.757
532.138;  105.942; -113.141;   40.254
532.420;  163.267;  294.865;  403.244
532.701;  218.985; -722.133; -751.760
532.983;  311.688;  232.867;  182.239
533.264;  119.419; -243.126;  175.228
533.546;  -31.864; -491.136; -508.755
533.827;   43.832;  173.867;   -1.759
534.109;   38.995; -352.135;  -80.757
534.390;  101.971; -725.132; -582.762
534.671;  253.891; -270.135;  -82.756
534.953;  142.700; -751.123; -611.779
535.234;   28.174; -426.117; -255.789
535.515;  -64.592; -891.119; -735.785
535.796;  -12.016; -431.128; -193.770
536.078; -103.933;-1050.124; -904.777
536.359;   -2.525;  -22.123;    3.221
536.640;    4.028; -480.125; -197.774
536.921;  153.621;  225.871;  143.232
537.202;  406.715;  -87.138;  -16.751
537.483;  476.605;  251.869;  377.236
537.764;  183.133;   17.870;   98.235
538.045;  -59.650; -543.134; -371.758
538.326;  -33.302; -596.129; -447.768
538.607;   15.540; -686.127; -476.771
538.888;  173.916;   98.879;    5.218
539.169;  195.060; -704.122; -535.781
539.450;  341.995;  236.871;   16.233
539.731;  221.770; -361.121; -182.783
540.012;  154.850;  199.880;  412.216
540.293;   88.862;   82.876;  158.224
540.574;    9.659; -895.113; -717.796
540.855;  445.718;  435.879;  377.218
541.136;  537.033;   47.878;  139.220
541.416;  292.640; -161.130; -220.766
541.697;  218.725; -274.131; -170.763
541.978; 1081.094; -270.135; -315.757
542.259; 1431.339; -211.127; -236.771
542.539;  671.032; -191.116; -186.790
542.820;  194.133;  461.875;  480.225
543.101;  123.530;  -52.145;  -77.738
543.381;   37.264; -638.127; -591.771
543.662;  260.462;  159.873; -254.771
543.942;  613.460; -751.127; -830.770
544.223; 1099.584;  193.878;  161.219
544.504;  714.792; -275.124; -182.777
544.784;  593.770; -592.126; -408.773
545.065; 1699.536;  104.884; -254.791
545.345; 2027.658;  227.881;   14.215
545.626; 1347.183;  -14.113; -108.796
545.906;  928.007;   77.869;   98.235
546.186;  393.575;   92.874;  -95.773
546.467;  191.645;   99.877;  -95.778
546.747;  355.407;  264.884;  327.210
547.027;  369.541;   91.876;  111.223
547.308;  350.334; -376.127; -530.770
547.588;  402.149;  299.871;  371.232
547.868;  199.609;  458.870;  588.235
548.149;  191.669;  609.885;  593.207
548.429;  139.413; -347.127; -299.771
548.709;  214.024; -645.120; -461.784
548.989;  501.868;   84.882;   88.213
549.269; 2224.891;   10.868;  139.239
549.550; 5102.149;  215.877;  117.222
549.830; 4591.826; -758.111; -556.799
550.110;  885.759; -468.110; -320.801
550.390;  866.804; -128.122;  -56.779
550.670; 1185.354; -868.114; -783.795
550.950;  833.893; -509.121; -471.782
551.230;  200.939;  549.879;  460.218
551.510;   -9.183; -381.121; -326.782
551.790;   41.292; -173.109; -127.803
552.070;  254.320;  940.877; 1181.223
552.350;  437.787; -492.119; -377.786
552.630;  626.937;   -2.121;   77.219
552.909;  394.162;  181.884;   73.209
553.189;  245.397;  -49.132;   33.237
553.469;  219.287; -703.119; -514.786
553.749;  201.991; -469.127; -357.772
554.029;  195.053;   33.883;  -24.790
554.308;  154.723; -154.115;  -37.794
554.588;   76.883; -196.128; -204.770
554.868;   80.869; -366.121;  -47.782
555.147;  163.020; -114.115;  -46.793
555.427;  620.414; -260.116; -250.792
555.707; 4092.693; -284.115; -200.793
555.986; 4989.680; -719.111; -538.800
556.266; 2586.706;   23.884;   72.210
556.546;  139.592; -888.121; -675.782
556.825;  281.052; -657.114; -556.794
557.105; 1872.456; -125.128;   17.230
557.384; 2227.611;  122.884;  187.209
557.664;  861.463; -717.116; -508.792
557.943;  127.743; -557.121; -411.782
558.222;  204.421; -345.118; -344.788
558.502;  297.046; -116.115;  -76.793
558.781;  537.492;  194.885;  499.208
559.061;  444.345; -232.118; -227.788
559.340;  309.850;  302.883;  353.211
559.619;  747.956;   93.884;  148.210
559.899; 1089.752; -239.117; -266.789
560.178; 1015.521; -778.115; -593.793
560.457; 3323.829; -623.117; -562.790
560.736; 4648.081; -472.111; -482.800
561.015; 3070.529; -500.128; -502.769
561.295;  404.711;  180.893;  215.193
561.574;  362.318;  119.885;  116.207
561.853;  518.821;  274.891;  303.197
562.132;  515.873;  -45.114;  182.206
562.411;  483.687;  396.879;  553.219
562.690;  152.142; -592.115; -458.792
562.969;  143.016;  472.888;  630.203
563.248;  503.785; 2966.878; 2487.219
563.527;  292.205; -290.111; -408.800
563.806;  409.363; -650.127; -521.771
564.085;  457.101; -297.105; -206.810
564.364;  253.505; -594.117; -405.790
564.643;  522.363; -276.121; -223.781
564.922; 2012.990;  221.890;  397.198
565.201; 2012.468; -640.109; -700.803
565.479;  876.665; -297.115; -219.792
565.758;  350.506; -810.128; -712.770
566.037;  505.845; -155.109; -100.803
566.316;  260.286; -286.116;  -28.791
566.595;   57.918;  -17.115;  -12.793
566.873;  104.357; -166.111;  -79.801
567.152;  -57.110; -490.113; -590.797
567.431;   26.832; -113.116;    6.210
567.709;   25.037; -344.107; -212.807
567.988;  278.177; -810.114; -769.794
568.266;  562.268; -160.115;  -68.793
568.545;  420.998; -644.100; -514.819
568.824;  607.965;  160.885;  356.208
569.102;  600.176; -351.114; -235.794
569.381;  235.139; -492.116; -407.792
569.659;  -28.964; -553.113; -553.796
569.938;   48.958; -743.122; -465.780
570.216;  106.972; -225.109; -225.804
570.494;  -11.745; -632.114; -572.795
570.773;   33.341;  202.879;  114.218
571.051;    7.698; -373.123; -357.778
571.330;   67.359; -221.113; -174.796
571.608;   40.341; -181.098; -173.823
571.886;  -51.451; -671.111; -581.799
572.164;  -66.081; -739.121; -621.782
572.443;  -31.595; -562.105; -512.811
572.721;  -38.221; -399.117; -289.790
572.999;  -26.652; -280.117; -168.788
573.277;   89.249;  379.894;  620.191
573.555;  302.051;   94.894;   37.190
573.834; 1422.222;  -86.117; -114.788
574.112; 1663.114;  880.893;  811.193
574.390;  502.956; -143.111;  -96.801
574.668;   14.716;  -91.112;  -61.797
574.946;  -19.974; -165.106; -187.810
575.224;    6.193;   71.891;  -16.803
575.502;  -20.941; -200.116; -204.791
575.780;  -70.583; -767.112; -829.798
576.058;  239.530; 1589.889; 1004.200
576.336;   -8.489; -210.110; -129.801
576.614;  -59.207; -511.112; -340.798
576.891;   73.822; -711.115; -823.794
577.169;  512.155; -158.108; -285.805
577.447;  617.763;  169.893;  202.193
577.725;  273.222;  629.888;  854.201
578.003;   25.670;  -71.112; -371.798
578.280;  101.064; -208.104; -242.812
578.558;   70.671; -450.115; -422.793
578.836;  125.279; -210.114; -145.795
579.114;   64.016; -630.112; -670.797
579.391;   56.674;   -6.117;  -18.789
579.669;  -69.177; -595.114; -704.794
579.947;  181.435; -326.107; -127.806
580.224;  356.335; -692.107; -524.806
580.502;  338.964;  127.893;   76.193
580.779;   38.430;  -42.117;   75.210
581.057;  -62.953; -584.109; -470.804
581.334;  -91.171; -726.102; -695.815
581.612;   38.752;   54.895;  511.190
581.889;  -23.783;  -83.101; -129.818
582.167;  -32.369; -298.099; -190.821
582.444;  -94.488; -845.102; -814.817
582.721;   94.587;  657.899;  715.183
582.999;   54.654; -326.100; -167.821
583.276;  563.052; -812.123; -713.779
583.553;  776.782; -364.102; -294.816
583.831;  256.161; -607.104; -631.812
584.108;   67.203;  349.892;  174.195
584.385;    5.628; -122.102;  -98.815
584.662;  -62.792; -651.111; -828.801
584.940;   35.007;  204.889;  204.199
585.217;  -16.514;  -73.113; -303.796
585.494;   28.966;   71.890;  118.198
585.771;  215.148; -250.109; -354.804
586.048;  511.586; -196.113;  -76.796
586.325;  331.810; -721.110; -773.801
586.602;  100.514;  230.896;  213.188
586.879;   -5.100; -499.100; -580.820
587.156;   51.503; -156.105; -331.810
587.433;  -35.965; -701.102; -667.817
587.710;   77.593;  152.888;  234.202
587.987;  305.533; -264.105; -236.811
588.264;  799.845;  315.888;  387.202
588.541; 1390.867;  -61.104;   26.187
588.818; 2782.125;   72.892;  171.196
589.095; 2375.812; -163.104; -174.812
589.371;  379.621; -459.109; -414.804
589.648;   36.914; -581.107; -437.807
589.925;   27.605; -517.114; -621.795
590.202;   22.093; -741.112; -607.798
590.478;   82.935; -166.105;  -73.811
590.755;  289.456; -241.108; -132.806
591.032; 2585.612; -741.110; -699.802
591.308; 3613.531; -732.094; -790.831
591.585; 1850.387; -573.110; -560.802
591.862;  168.986;-1056.102; -950.817
592.138;   57.654; -475.108; -474.805
592.415;  160.090; -486.104; -495.813
592.691; 1497.463;  460.896;  518.188
592.968; 1927.093; -208.098; -123.824
593.244;  910.332; -695.116; -595.790
593.521;   72.361; -105.102;  -42.817
593.797;  -26.620; -810.122; -720.780
594.074;  340.881; -611.096; -588.826
594.350;  670.267;  828.905;  729.172
594.626;  318.833; -303.111; -283.801
594.903;  121.337; -643.101; -645.817
595.179;  191.694;  243.896;  418.187
595.455;   12.915; -136.107; -150.807
595.731;    1.871;  -19.103;  -38.814
596.008;  -39.598; -464.111; -434.800
596.284;   49.827; -187.100; -242.820
596.560;   51.687; -501.093; -493.833
596.836;  210.280; -173.105;  -70.810
597.112;  347.355; -582.108; -437.805
597.388;  297.253;  -49.097;  -48.826
597.665;  127.913;  437.887;  530.203
597.941;  -44.683; -572.089; -658.839
598.217;   10.790; -323.110; -293.802
598.493;  272.800;   61.891; -204.804
598.769;  529.422; -175.100;  -50.819
599.045;  327.308; -490.108; -562.806
599.321;   53.876; -193.100; -261.820
599.597;  152.674; -355.109; -476.804
599.872;  499.092;  409.896;  429.187
600.148;  396.730;  -61.097; -172.826
600.424;  313.912;   91.893;  202.193
600.700;  265.765; -170.107; -280.807
600.976;  125.699; -442.097; -464.825
601.252;  262.496; -226.109; -272.803
601.527;  213.793; -833.104; -840.813
601.803;  156.885; -453.105; -404.812
602.079;  178.347; -124.100; -118.819
602.354;  595.697; -620.092; -531.835
602.630;  857.236; -140.113; -482.796
602.906; 2426.942; -910.101; -863.818
603.181; 7049.262; -627.119; -534.786
603.457; 5916.303;   98.903; -278.826
603.733;  874.445; -605.120; -626.783
604.008; 1009.676; -245.106; -164.810
604.284; 3155.363; -636.101; -580.817
604.559; 2760.622;   -3.112;  -42.799
604.835;  501.479; -163.105; -225.810
605.110;  459.432; -732.099; -892.821
605.385;  733.340;  224.907;  267.167
605.661;  688.344; -625.095; -729.829
605.936; 1216.208; -664.108; -737.806
606.211; 1023.377;  -17.103; -170.815
606.487;  225.675; -329.114; -376.794
606.762;   26.012; -791.119; -745.786
607.037;  -16.595; -501.105; -433.810
607.313;  -39.537; -589.096; -574.828
607.588;    3.626; -375.106; -137.810
607.863;   39.867;  -28.101; -143.818
608.138;  187.214;  513.890;  516.198
608.413;   46.236; -576.099; -592.822
608.688;   48.179; -203.108; -267.805
608.964;  225.820; -509.106; -218.809
609.239;  243.927; -107.105; -212.810
609.514;  254.860;  281.895;  240.188
609.789;  669.764; -187.104; -716.812
610.064;  908.511; -435.096; -609.827
610.339;  909.396; -855.109; -799.804
610.614; 1281.477; -131.100; -315.820
610.889;  673.335;  215.895;  107.188
611.163;   41.636; -407.104; -591.812
611.438;   85.301;   81.886; -167.794
611.713;   27.538; -467.101; -499.817
611.988;   51.016; -144.101; -328.818
612.263;  -20.621; -771.102; -717.815
612.538;  213.760;  385.887;  251.204
612.812;  200.928; -832.100; -911.820
613.087;  134.441; -358.098; -338.823
613.362;  -43.310; -497.107; -557.807
613.637;   44.648;  261.897;  138.186
613.911;   -2.077; -256.092; -345.835
614.186;  123.088; -249.107; -292.807
614.460;  734.191; -842.081; -758.854
614.735;  822.765;  -55.087;  -17.843
615.010;  180.255;   43.912;  -82.841
615.284;  259.304;  360.892;  246.195
615.559;  375.297; -792.092; -955.835
615.833;  295.709;  -76.099;  -87.822
616.108;    4.158; -225.090; -390.837
616.382;  146.566;  274.913;  402.156
616.656;  165.734; -241.090; -232.837
616.931;  511.434; -785.099; -700.822
617.205; 1102.193; -973.104; -979.813
617.480; 1002.056;  -91.125;    6.225
617.754;  180.279; -396.125; -128.774
618.028;   13.175; -369.129; -382.768
618.302;   69.427;   73.892;  -25.805
618.577;  -55.325; -371.103; -518.815
618.851;  -55.757; -399.109; -600.803
619.125;  -45.494; -335.134; -378.759
619.399;  -37.431; -244.104; -374.813
619.673;  -43.860; -330.115; -515.792
619.947;  -52.121; -333.114; -448.795
620.222;  -19.266; -198.110; -204.801
620.496;   10.893;  -47.121;  -96.782
620.770;    0.485; -187.122;  -93.781
621.044;  215.328;  323.895;  346.190
621.318;  747.646; -653.120; -614.783
621.592;  703.469; -430.121; -409.783
621.866;  382.623; -476.112; -572.799
622.140;   31.884; -207.116; -356.791
622.413;   56.852;  138.889;  112.200
622.687;  -20.986; -746.101; -492.817
622.961;    9.402; -130.108; -143.805
623.235;  -46.097; -633.111; -661.800
623.509;  -98.191; -816.105; -848.811
623.783;    8.186;  -12.107;   48.193
624.056;  -30.003; -254.120; -280.783
624.330;   62.491;   63.888;   -3.797
624.604;   46.930; -271.116; -355.790
624.877;   70.588;  180.890;   26.198
625.151;   47.349; -249.114; -238.794
625.425;  -17.755; -150.103; -283.814
625.698;  -67.594; -367.119; -374.785
625.972;  -88.410; -799.110; -765.802
626.245;   58.057;  685.884;  484.210
626.519;  -42.299; -426.120; -340.784
626.792;  -36.960; -192.107; -380.807
627.066;  -92.622; -485.122; -662.779
627.339;  -96.164; -736.110; -663.802
627.613;   43.325;  351.880;  148.216
627.886;   44.342;  187.891; -612.803
628.160;   -8.354;  312.880; -161.783
628.433;  -85.141; -695.125; -703.775
628.706;  -70.399; -517.120; -615.784
628.979;   27.916;  296.876;  117.223
629.253;  -81.989; -785.119; -833.786
629.526;  379.419; -334.126; -253.772
629.799;  369.048; -641.123; -479.778
630.072;  170.301; -497.128; -516.769
630.346;  -48.568;-1115.116;-1080.790
630.619;  480.741; -467.107; -545.808
630.892;  665.178;  709.889;  593.200
631.165;  335.768;  790.896;  679.187
631.438;  -82.780;-1092.112;-1055.798
631.711;   51.826;  453.877;  257.221
631.984;  -38.023; -523.117; -624.789
632.257;  -71.251; -636.117; -681.789
632.530;  -45.943; -412.119; -433.785
632.803;   19.622; -109.115;    7.207
633.076;  -56.455; -360.123; -422.777
633.349;   14.080;  173.872;  121.231
633.622;  -33.395; -187.119; -240.785
633.895; -128.003; -903.120; -823.783
634.167;  -67.704; -496.126; -525.773
634.440;  -21.937;  -19.116; -137.792
634.713;   -0.040;  -22.119; -120.786
634.986;   77.020;  593.871;  453.233
635.258;  -75.755; -507.115; -597.793
635.531;   86.545;  742.882; -343.788
635.804;  -27.249; -303.117; -318.789
636.077;  -85.340; -830.116; -852.791
636.349;   -9.731; -586.115; -474.793
636.622;  375.293; 1695.874; 1392.228
636.894;  256.226; -474.120; -909.784
637.167;  161.462; -836.127; -789.771
637.439;   48.308; -278.128; -213.770
637.712;  -38.255; -312.126; -293.772
637.984;  -72.190; -635.116; -707.791
638.257;  377.045;  515.877;  488.222
638.529;  592.110; -881.125; -924.776
638.802;  245.551; -508.128; -449.769
639.074; -114.216; -927.122; -952.781
639.346; -125.928; -942.135; -930.757
639.619;   -0.668;  -79.142; -319.744
639.891;   -3.147;  -83.122; -168.779
640.163;  -68.970; -689.122; -756.780
640.435;   28.857;  273.878;  103.220
640.708;    7.333;  -72.122; -132.780
640.980;  -19.515; -366.122; -362.781
641.252;  197.712;  -25.121;  -71.781
641.524; 1801.614;  580.879;  573.219
641.796; 1837.866;-1094.121; -907.782
642.068;  321.467; -191.121; -300.782
642.340;  -53.656; -486.121; -566.783
642.613;   26.621;  294.880;  323.217
642.885; -104.102; -787.120; -878.783
643.157;  -49.700; -810.120; -658.784
643.428;   57.727;  170.880;  218.216
643.700;  -81.722; -498.120; -425.784
643.972;  -24.195;  -16.119; -133.785
644.244;  -95.293; -474.119; -559.785
644.516;  -42.291; -250.119; -114.786
644.788;   61.411;  662.881;  548.214
645.060;  -17.462;  -12.119; -124.786
645.332; -103.536; -525.118; -535.787
645.603;   30.966;  479.882;  342.213
645.875;  -69.057; -334.118; -369.787
646.147;  170.220; 1487.882; 1242.212
646.418;  -58.978; -931.117; -918.788
646.690;  151.198; -714.117; -715.789
646.962;   36.925; -413.117; -451.789
647.233;   -5.523;   15.883;   11.211
647.505; -102.846; -595.117; -475.790
647.776;   39.456;  328.884;  229.210
648.048;    6.733; -248.116; -418.790
648.320;  -67.541; -752.116; -679.791
648.591; -152.064;-1055.116; -958.791
648.862;  -77.337; -505.116; -577.792
649.134;   20.890;  115.885;  198.208
649.405;  -40.108; -661.115; -618.792
649.677;  -58.382; -475.115; -598.793
649.948;    4.295; -181.115; -296.793
650.219;   -4.428;  -37.115; -147.793
650.491;  -74.876; -431.114; -520.794
650.762; -112.149; -705.114; -731.794
651.033;  -70.172; -437.114; -424.795
651.304;  -90.146; -743.114; -728.795
651.576;  -66.444; -680.114; -645.795
651.847;  -40.292; -250.113; -140.796
652.118;  -21.840;  -32.113; -189.796
652.389; -103.188; -639.113; -722.796
652.660;  -35.587; -147.113;  -89.797
652.931; -144.985; -897.112; -871.797
653.202;  -77.133; -382.112; -541.798
653.473;  -68.731; -633.112; -533.798
653.744;  157.746; -595.112; -590.798
654.015;  131.723; -356.112; -303.799
654.286;  -51.726; -642.111; -663.799
654.557;  -50.849; -586.111; -521.799
654.828; -150.797;-1114.111;-1088.800
655.099;  -82.595; -404.111; -291.800
655.370;  -83.418; -427.111; -543.801
655.641; -123.867; -656.110; -714.801
655.911; -102.115; -618.110; -638.801
656.182;   41.712;  437.890;  387.198
656.453;   87.639;  830.890;  746.198
656.724;  -74.909; -466.110; -426.802
656.994;  -75.757; -553.109; -568.803
657.265; -121.631; -862.109; -873.803
657.536;  -75.654; -500.109; -377.804
657.806; -113.127; -561.109; -593.804
658.077; -136.000; -866.109; -950.804
658.347;  -90.198; -523.108; -598.805
658.618;  -99.196; -646.108; -694.805
658.888;  -24.445;  -41.108;  112.195
659.159;  -78.893; -432.108; -548.806
659.429;  -33.291; -292.108; -349.806
659.700;   28.136; -435.107; -390.807
659.970;  -18.187; -370.107; -359.807
660.241;   16.914; -754.107; -921.807
660.511;  505.016; -147.107; -174.808
660.781;  101.643; -793.106; -748.808
661.052;  -47.605; -222.106; -381.808
661.322;  -11.853;   21.894;   -9.809
661.592;    4.999;  257.894;  148.191
661.862;  -63.650; -369.106; -382.810
662.133; -108.648; -551.105; -502.810
662.403; -113.171; -770.105; -676.810
662.673;  -61.719; -256.105; -213.811
662.943; -110.892; -612.105; -551.811
663.213;   -3.791;  -85.105;  -81.811
663.483;  -72.064; -593.104; -568.812
663.753;  -48.837; -194.104; -152.812
664.023;  -19.835;   68.896;  -32.813
664.293;  -69.958; -319.104; -126.813
664.563; -103.181; -694.104; -648.813
664.833; -130.205; -743.103; -608.814
665.103; -130.153; -730.103; -793.814
665.373; -119.701; -766.103; -806.814
665.643;  -78.424; -863.103; -918.815
665.913;   39.603; -534.103; -714.815
666.182;  143.954; -685.102; -719.816
666.452;  286.731;  -22.102;  -89.816
666.722;  -22.717; -724.102; -784.816
666.992; -131.115; -948.102; -921.817
667.261;  -87.863; -824.102; -808.817
667.531;  198.114;  134.899;   45.183
667.801;  545.665; -440.101; -412.818
668.070;  240.017;  714.899;  697.182
668.340;  -99.456; -883.101; -840.819
668.609;   92.596;  588.900;  301.181
668.879;  -75.927; -490.100; -558.819
669.149;  -86.001; -539.100; -516.820
669.418;  -86.974; -698.100; -726.820
669.688;  -29.672; -482.100; -666.820
669.957;   73.530; -423.099; -546.821
670.226;  -27.018; -268.099; -331.821
670.496;  -98.866; -431.099; -635.822
670.765;  -86.790; -418.099; -501.822
671.034; -127.163; -872.099; -828.822
671.304;  -18.686;   55.902; -111.823
671.573; -142.084;-1085.098; -957.823
671.842;   82.693; -380.098; -294.823
672.112;   23.945; -692.098; -586.824
672.381;    2.596; -239.098; -214.824
672.650; -141.327;-1005.097;-1021.825
672.919;  -83.425; -631.097; -507.825
673.188;  -79.348; -681.097; -878.825
673.457; -161.671;-1101.097;-1143.826
673.726;  -68.020; -579.096; -646.826
673.995;  -46.568; -533.096; -479.826
674.265;  -11.766; -263.096; -333.827
674.534;   -5.214; -183.096; -235.827
674.802;   16.463; -618.096; -703.828
675.071; 1000.465; -886.095; -801.828
675.340; 4107.591; -464.095; -339.828
675.609; 1367.318;  103.905;   82.171
675.878;   85.095; -949.095; -893.829
676.147;   34.672;  -26.095;   -8.829
676.416;  106.674; -210.094; -294.830
676.685;  734.850; 1000.906; -622.830
676.953;  105.677; -603.094; -452.831
677.222;  -40.196; -193.094; -273.831
677.491;  -33.119;  -24.094; -127.831
677.759;   -2.417;   11.907;  172.168
678.028;  -13.240; -279.093; -222.832
678.297;   -9.939;   71.907;  197.168
678.565; -134.187; -898.093; -944.833
678.834;  -64.385; -311.093; -268.833
679.102;  -63.408; -411.092; -391.834
679.371; -138.606; -898.092; -727.834
679.639; -136.405; -797.092; -786.834
679.908; -132.828; -794.092; -724.835
680.176; -145.801; -895.091; -941.835
680.445;  -77.949; -346.091; -352.835
680.713;   -9.822;  -58.091;  -23.836
680.982; -106.020; -523.091; -525.836
681.250; -101.194; -578.091; -507.837
681.518; -116.242; -534.090; -751.837
681.787;   -1.165; -204.090; -167.837
682.055;  -61.463; -490.090; -422.838
682.323; -140.386; -993.090; -992.838
682.591;   28.316; -216.090; -538.838
682.859;   88.817;    9.911;  -35.839
683.128;    9.944;  232.911;  497.161
683.396; -164.154;-1102.089;-1122.840
683.664;  -36.727; -241.089;   21.160
683.932;    3.975;  144.911;  -76.840
684.200;  -74.899; -576.088; -320.841
684.468;  -17.147;  -73.088; -124.841
684.736;  -32.620; -214.088; -175.841
685.004; -112.593;-1024.088; -982.842
685.272;  -35.041; -880.088; -774.842
685.540;  -66.789; -499.087; -557.843
685.808;  -75.988; -651.087; -682.843
686.076; -100.611; -894.087; -969.843
686.343;  -67.259; -601.087; -815.844
686.611;   46.093; -195.087; -224.844
686.879;  461.520; -530.086; -553.844
687.147; 3422.496; -483.086; -480.845
687.414;  966.923;  -12.086; -169.845
687.682;   15.900; -658.086; -757.846
687.950;  304.077;  259.915;  263.154
688.217;   18.504; -792.085; -760.846
688.485;   -2.319; -632.085; -636.847
688.753;  523.432;  -11.085; -102.847
689.020;  175.634; -820.085; -851.847
689.288;  -94.114; -853.084; -787.848
689.555;  -38.837; -195.084; -148.848
689.823;  -43.260; -241.084; -345.849
690.090;  -87.384; -546.084; -651.849
690.358; -142.557; -877.084; -897.849
690.625;    7.170;  120.917;   45.150
690.892;  -62.878; -403.083; -369.850
691.160;  -12.126;   72.917;  -35.850
691.427;    8.101;  141.917;  130.149
691.694; -132.773; -855.083; -929.851
691.962; -147.246;-1177.082;-1060.852
692.229;    6.156;  127.918;   56.148
692.496;   96.758;  130.918;  -49.852
692.763;   -4.490; -164.082; -201.853
693.031;  -72.514; -739.082; -716.853
693.298;  -39.587; -509.081; -368.853
693.565;  330.165; -155.081; -163.854
693.832; 1320.767;   -5.081;   -9.854
694.099;  161.119; -643.081; -642.855
694.366;  -69.979; -882.081; -896.855
694.633;  -54.353; -920.080; -633.855
694.900;  714.024; 4367.920; -114.856
695.167;  446.151; -214.080; -380.856
695.434;  102.728; -646.080; -623.856
695.701;  204.555;  121.921;  -61.857
695.968;  482.232; -365.079; -361.857
696.234;  961.633; -415.079; -646.858
696.501;10059.185; -776.079; -614.858
696.768; 5256.562; -554.079; -617.858
697.035;  296.639; -632.078; -667.859
697.302;   29.741; -448.078; -552.859
697.568;    5.617; -458.078; -497.859
697.835;  -39.906; -683.078; -624.860
698.102;  -30.829; -498.078; -407.860
698.368;   71.348;  384.923;  396.139
698.635;  -31.525;  -47.077; -424.861
698.901;  -14.898; -240.077; -348.861
699.168;   59.828; -534.077; -456.862
699.435;   76.680;  -72.077;  -13.862
699.701; -110.243; -868.076; -764.862
699.968;   27.434;  144.924; -441.863
700.234; -104.114; -783.076; -822.863
700.500;  -51.438; -448.076; -539.864
700.767;   15.539;   -1.075;   26.136
701.033; -122.434;-1015.075; -963.864
701.299;  -58.532; -450.075; -483.865
701.566;  119.270;  950.925;  763.135
701.832;   24.722;  -31.075;  -76.865
702.098;  -96.352;-1054.074;-1034.866
702.365;  -82.125;-1098.074;-1030.866
702.631;  -11.873;-1038.074;-1063.867
702.897; 1344.654; -765.074; -676.867
703.163; 2320.656;  348.926;  254.133
703.429;  169.657; -256.073; -273.868
703.695;  -27.141; -796.073; -792.868
703.961;   10.686; -214.073; -210.868
704.227;  -60.812; -630.073; -725.869
704.493;  120.090;  613.927;  510.131
704.759;  -14.658; -565.072; -540.870
705.025;   11.193; -203.072; -194.870
705.291;  -17.180; -666.072; -562.870
705.557;  171.122;  719.928;   34.129
705.823;   37.524; -742.072; -694.871
706.089;  133.476; -307.071; -326.871
706.355;  348.278; -315.071; -244.872
706.620; 5200.779; -776.071; -729.872
706.886; 7652.056; -309.071; -362.873
707.152;  730.133; -818.070; -973.873
707.418;  -13.540;-1153.070;-1186.873
707.683;    3.987; -550.070; -530.874
707.949;  -38.587; -547.070; -578.874
708.215;   -6.010; -129.070; -207.874
708.480;  -14.058; -520.069; -420.875
708.746;   95.294;   68.931;   28.125
709.011;  -65.229; -578.069; -612.876
709.277;  -75.977; -538.069; -543.876
709.542;  -40.801; -428.069; -387.876
709.808;   -5.874;  -59.068;   89.123
710.073;  -80.772; -577.068; -695.877
710.339;  -48.770; -242.068; -228.877
710.604;   68.907; -780.068; -845.878
710.869;  326.708; -277.068; -366.878
711.135;  -58.665; -715.067; -628.879
711.400;  -90.063; -507.067; -608.879
711.665;  -52.311; -404.067; -479.879
711.931; -110.634; -661.067; -677.880
712.196; -117.232; -876.067; -954.880
712.461;  110.369; -402.066; -490.880
712.726;  167.046; -727.066; -771.881
712.991;  -81.777; -647.066; -664.881
713.256;  -37.500; -350.066; -332.882
713.521;  -60.548; -417.065; -381.882
713.787;  -57.147; -454.065; -472.882
714.052;  -40.395; -214.065; -400.883
714.317; -106.568;-1045.065; -981.883
714.581;  969.059; -374.065; -268.883
714.846; 1351.561; -822.064; -888.884
715.111;  123.563;  261.936;  257.116
715.376;  -18.111;  -86.064; -223.885
715.641;  -29.659; -365.064; -367.885
715.906;  312.893;   15.936; -551.885
716.171;  142.470;  221.937;  209.114
716.436;   45.622;  -78.063; -104.886
716.700; -106.977; -818.063; -692.886
716.965; -114.750; -794.063; -807.887
717.230;  -77.873; -339.063; -392.887
717.494;  -16.271;  -40.062; -134.888
717.759; -106.519; -784.062; -640.888
718.024;   11.083;  269.938;  250.112
718.288;   83.184;  685.938;  395.111
718.553; -146.464; -803.062; -977.889
718.817; -140.337; -883.061; -899.889
719.082;  -30.260; -115.061; -125.890
719.346; -138.683;-1000.061; -947.890
719.611;  -59.356; -300.061; -255.891
719.875;  -94.980; -568.060; -537.891
720.140;  -60.453; -453.060; -603.891
720.404;   39.924; -136.060; -249.892
720.668;  887.626; -475.060; -411.892
720.933;  341.253;  146.940;  137.108
721.197;  -86.296; -667.059; -600.893
721.461; -135.094; -851.059; -826.893
721.725;   -9.192;  -21.059; -250.894
721.990;  -67.290; -284.059; -204.894
722.254;  -30.238;  -26.059; -108.894
722.518;  -69.886; -286.058; -442.895
722.782;  -92.435; -743.058; -594.895
723.046;  108.892;  614.942;  570.105
723.310;   29.344;  374.942;  210.104
723.574; -103.929; -654.058; -614.896
723.838;  -97.002; -576.057; -642.897
724.102;  -46.951; -226.057; -239.897
724.366; -130.199;-1032.057; -978.897
724.630; -101.472; -749.057; -571.898
724.894;  -72.295; -722.057; -514.898
725.158;  -18.218;   38.944; -295.898
725.422;  -48.816; -394.056; -327.899
725.685;  -67.565; -441.056; -349.899
725.949;  -77.213; -566.056; -519.900
726.213;  -77.411; -732.056; -811.900
726.477;  170.916;-1020.055; -933.900
726.740;  166.368; -274.055; -104.901
727.004;  325.994; -384.055; -510.901
727.268; 3206.046; -442.055; -400.901
727.531;  918.623; -961.055; -775.902
727.795;  -52.125; -713.054; -673.902
728.059;  -50.173; -552.054; -557.903
728.322;  -81.971; -841.054; -669.903
728.586;   15.330; -692.054; -701.903
728.849;  -81.493; -695.053; -756.904
729.112; -112.041; -812.053; -912.904
729.376; -116.814; -959.053; -905.904
729.639;  -74.962; -536.053; -536.905
729.903; -111.361; -733.053; -699.905
730.166;  -60.784; -437.052; -399.906
730.429;  -36.932; -317.052; -468.906
730.693;  -62.755; -355.052; -894.906
730.956;  198.172;  810.948;  651.093
731.219;  698.499; -310.052; -103.907
731.482;  125.175;-1003.051; -894.907
731.745;  114.002; -794.051; -935.908
732.009;   -2.046;  -30.051;   50.092
732.272;  -97.519; -904.051; -771.909
732.535;  -48.617; -300.051; -310.909
732.798; -154.590;-1083.050;-1166.909
733.061;  -60.214; -430.050; -456.910
733.324;   13.663;   31.950; -180.910
733.587;   52.140;  290.950;  365.090
733.850;  -69.608; -973.049;-1050.911
734.113;   51.369;   33.951;   32.089
734.376;    9.270; -328.049; -447.912
734.639;  202.947; 1188.951; 1011.088
734.901;   70.599; -180.049; -402.912
735.164;  504.326; -883.048; -837.913
735.427; 1370.853; -166.048; -355.913
735.690;  136.005; -205.048; -234.913
735.952;  -39.494; -923.048; -925.914
736.215;  -25.642;-1113.048;-1009.914
736.478;   54.435; -771.047; -774.915
736.740;  228.387;   33.953;  129.085
737.003;  669.814; -658.047; -672.915
737.266; 4185.565;  -94.047;   46.084
737.528;  442.517; -682.047; -660.916
737.791;  306.044; -316.046; -327.916
738.053;  773.696;  465.954;  649.083
738.316;10428.523; -162.046; -136.917
738.578; 7631.700; -770.046; -736.918
738.841;  429.551; -382.046; -446.918
739.103;  163.978; -875.045; -777.918
739.365;  506.280;   79.955;  -69.919
739.628;    2.207; -884.045; -805.919
739.890;  -21.541; -758.045; -710.919
740.152;  -27.065; -692.044; -754.920
740.414;  -25.088; -408.044; -359.920
740.677;  -50.511; -785.044; -634.921
740.939;  -46.634; -587.044; -487.921
741.201;  276.668; -432.044; -572.921
741.463;   39.720; -689.043; -745.922
741.725;   16.946;  -21.043; -199.922
741.987;   46.773;  220.957;  116.078
742.249;    8.100; -751.043; -859.923
742.511;  213.302; -703.043; -794.923
742.773;   25.379; -546.042; -546.924
743.035;  138.356;  796.958;  533.076
743.297;  -38.993; -963.042;-1013.924
743.559;  760.509; -278.042; -262.925
743.821;   90.761; -735.042; -744.925
744.083;   -0.562;  -44.041; -149.925
744.345;  -85.960; -869.041; -892.926
744.607;   33.041;   75.959;  122.074
744.868;  -58.557; -490.041; -554.927
745.130; -112.230; -994.041;-1008.927
745.392;   52.097;   -1.040;  -44.927
745.653;   -9.126; -411.040; -378.928
745.915;  145.551;  896.960;  631.072
746.177;   58.302;   35.960;  -43.928
746.438;    1.929; -428.040; -543.929
746.700;  -53.819; -947.039; -988.929
746.961;   10.808; -659.039; -740.930
747.223;  135.835; -190.039;  -74.930
747.484;   96.036; -391.039; -471.930
747.746;  149.113;  -23.038; -106.931
748.007;  111.390; -647.038; -689.931
748.269;  312.517; -468.038; -440.931
748.530;  503.919; -852.038; -638.932
748.791;  252.721; -354.038; -420.932
749.053;  450.522;  286.963;  163.067
749.314;  464.149; -236.037; -169.933
749.575;  500.476; -945.037; -905.933
749.836;  857.553; -217.037;   86.066
750.098; 2383.255;  -60.037;  -21.934
750.359;36711.506;  414.964;  555.066
750.620; 9800.883; -121.036; -220.935
750.881; 1031.410; -585.036; -513.935
751.142; 1360.987; -950.036; -938.936
751.403;16441.014; -789.036; -705.936
751.664; 7621.866;-1034.035; -999.936
751.925;  497.992; -175.035; -262.937
752.186;  281.094; -298.035; -278.937
752.447;  149.571; -590.035; -445.937
752.708;   50.898; -532.035; -648.938
752.969;    7.600; -566.034; -576.938
753.230;  -14.049; -777.034; -672.939
753.491;    7.403; -650.034; -631.939
753.751;   62.605;  109.966;   19.061
754.012;   82.732;  258.967;  181.060
754.273;   57.809; -174.033;  -71.940
754.534;   -0.164; -487.033; -580.940
754.794;  -78.888; -926.033; -911.941
755.055;  137.139; 1051.967;  881.059
755.316;  -28.384; -700.032; -566.942
755.576;  -13.757; -606.032; -576.942
755.837;  -48.280; -527.032; -695.942
756.097;  -35.103; -530.032; -564.943
756.358;  -67.502; -725.032; -770.943
756.618;  -52.475; -705.031; -641.943
756.879;    4.652; -254.031; -349.944
757.139; -117.346;-1098.031;-1116.944
757.400;  -54.819; -538.031; -553.945
757.660;  -15.068; -365.031; -401.945
757.920;   23.709; -266.030; -228.945
758.181;  -14.864; -468.030; -351.946
758.441;  -93.862; -870.030; -809.946
758.701;  -23.260; -308.030; -215.946
758.961;   -6.483; -220.030; -278.947
759.222;  -58.107; -574.029; -502.947
759.482;  -72.255; -683.029; -723.948
759.742;  -91.978; -706.029; -547.948
760.002;    6.199;  -83.029; -143.948
760.262;   25.226;   50.972;  182.051
760.522;  -45.373; -498.028; -574.949
760.782;  -61.371; -738.028; -612.949
761.042;  -31.819; -618.028; -573.950
761.302;   43.533;   55.972;  -18.950
761.562;   51.235; -164.027; -154.951
761.822;   76.537; -710.027; -551.951
762.082;  -35.387;-1104.027;-1093.951
762.342;   55.465; -328.027; -403.952
762.601;   90.467; -567.027; -506.952
762.861;  358.469; -281.026; -207.952
763.121;  404.921; -406.026; -411.953
763.381; 7107.197; -499.026; -485.953
763.640; 8327.874; -139.026; -307.954
763.900;  359.726; -242.026; -203.954
764.160;   78.978; -458.025; -491.954
764.419;   -7.245; -726.025; -782.955
764.679;  -78.643; -795.025; -726.955
764.939;  -25.767; -124.025; -210.955
765.198;  -75.415; -608.025; -563.956
765.458;  -87.513; -710.024; -612.956
765.717;  -87.761; -454.024; -590.957
765.976;  -51.784; -428.024; -411.957
766.236;  -86.457; -475.024; -610.957
766.495;   18.769;  260.977;   73.042
766.755;  -80.454;-1090.023; -987.958
767.014;   13.098; -594.023; -665.958
767.273;  -52.400; -373.023; -397.959
767.533;  -60.198; -228.023; -307.959
767.792;  -21.422; -151.022; -188.960
768.051;  -63.720; -228.022; -276.960
768.310;  -90.168; -546.022; -650.960
768.569;    1.109; -161.022;    4.039
768.828;  -23.389; -285.022; -363.961
769.088; -112.212;-1050.021; -942.961
769.347;  -78.736; -755.021; -599.962
769.606; -103.584; -876.021; -857.962
769.865; -116.257;-1016.021;-1033.963
770.124;    7.245; -411.021; -336.963
770.383;  -58.203; -778.020; -910.963
770.641;   -5.977; -398.020; -400.964
770.900;  -69.300; -953.020; -846.964
771.159;  -55.448; -851.020; -951.964
771.418;  -15.371; -917.020; -779.965
771.677;  121.456; -224.019; -293.965
771.936;  127.333; -794.019; -865.966
772.194; 1961.109; -465.019; -437.966
772.453;10843.111; -213.019; -391.966
772.712;  772.688;  416.982;  329.033
772.970;  124.515;   32.982;   63.033
773.229;   70.792;  -22.018;  102.033
773.488;  -88.032; -814.018; -770.968
773.746;   52.120;  296.982;  335.032
774.005;   -3.928;  190.983;  -22.969
774.263;    7.024;  243.983;  177.031
774.522;  -43.624; -422.017; -548.969
774.780;  -92.247; -484.017; -417.970
775.039;  -82.346; -551.017; -531.970
775.297;  -21.094; -135.016; -351.970
775.555; -110.392; -489.016; -612.971
775.814; -123.365; -618.016; -570.971
776.072; -116.663; -749.016; -740.971
776.330; -104.162; -630.016; -520.972
776.589; -111.935; -703.015; -721.972
776.847; -131.783; -645.015; -624.973
777.105; -169.781;-1016.015;-1032.973
777.363;  -79.479; -459.015; -454.973
777.621; -141.502; -660.015; -717.974
777.879;  -22.551;  -42.014;   32.026
778.138;  -84.374; -554.014; -717.974
778.396; -118.472; -585.014; -526.975
778.654; -157.920;-1015.014; -970.975
778.912;  -73.143; -269.014; -371.976
779.170; -118.241; -880.013; -803.976
779.427; -152.615; -922.013; -897.976
779.685; -143.338; -880.013; -832.977
779.943;  -86.711; -654.013; -593.977
780.201; -139.259; -964.012; -883.978
780.459; -124.782; -651.012; -610.978
780.717;  -81.681; -440.012; -390.978
780.974; -109.129; -449.012; -490.979
781.232;  -64.702; -358.012; -338.979
781.490;  -92.675; -551.011; -472.979
781.747;  -95.273; -555.011; -476.980
782.005;   19.279;  462.989;  254.020
782.263; -156.170; -542.011;-1004.981
782.520;  -91.268; -326.011; -501.981
782.778; -164.716;-1013.010;-1051.981
783.035; -165.039; -962.010; -938.982
783.293;  -61.362; -248.010; -206.982
783.550;  -71.361; -134.010; -198.982
783.808; -129.934; -764.010; -776.983
784.065; -172.007; -745.009; -874.983
784.322;  -52.805;   25.991;  -86.984
784.580; -138.203; -915.009; -771.984
784.837;  -89.551; -392.009; -466.984
785.094; -145.225; -783.009; -762.985
785.352;  -75.023; -304.008; -404.985
785.609; -105.446; -934.008; -839.985
785.866;  -83.519; -345.008; -401.986
786.123;  -76.667; -639.008; -583.986
786.380; -103.191; -665.008; -604.987
786.637;  -46.139; -225.007; -380.987
786.895;   -7.787; -456.007; -543.987
787.152;  -56.760; -135.007; -267.988
787.409;  -46.908; -123.007; -225.988
787.666;  -91.481; -299.006; -378.988
787.923; -112.505; -616.006; -695.989
788.179; -116.803; -551.006; -584.989
788.436;  -99.901; -585.006; -585.990
788.693;  -40.674;  -92.006;  -87.990
788.950;  137.203; -125.005; -112.990
789.207;  241.304; -381.005; -372.991
789.464;  -47.694; -161.005; -301.991
789.720;  -24.892;  150.995;  110.009
789.977; -164.390;-1003.005; -671.992
790.234;  -36.113;   44.996;  -66.992
790.490; -152.686; -884.004;-1031.993
790.747;  -35.060;  -85.004;   22.007
791.004;  -24.258; -426.004; -348.993
791.260;  -80.731; -430.004; -560.994
791.517; -106.279; -843.003; -788.994
791.773;  -60.927; -379.003; -342.994
792.030; -106.625; -596.003; -660.995
792.286; -106.599; -686.003; -636.995
792.543;   -6.447;  -74.002; -159.995
792.799;  -42.045; -584.002; -382.996
793.055; -157.593;-1179.002;-1210.996
793.312; -100.716; -827.002; -816.997
793.568;  -67.015; -746.002; -599.997
793.824;   -0.863; -226.001; -284.997
794.081;   22.264; -447.001; -508.998
794.337;   56.416; -664.001; -561.998
794.593; 1222.643; -319.001; -271.999
794.849; 6578.445; -746.001; -772.999
795.105;  343.971; -270.000; -261.999
795.361;   12.848; -490.000; -457.000
795.617;  -62.550; -875.000; -945.000
795.873;  -50.875; -360.000; -407.000
796.129;  -31.100; -368.000; -306.000
796.385;  -27.075; -124.000; -156.000
796.641;   71.000;  412.000;  550.000
796.897;  -81.050; -666.000; -635.000
797.153;   53.425;  453.000;  357.000
797.409; -110.575; -785.000; -868.000
797.665;  -66.650; -625.000; -732.000
797.921;  -86.775; -775.000; -762.000
798.176;  -40.725; -744.000; -747.000
798.432;  -44.925; -824.000; -596.000
798.688;  -66.100;-1174.000;-1078.000
798.943;   72.425; -165.000; -147.000
799.199;    3.475;-1005.000; -959.000
799.455;  220.275;  369.000;  316.000
799.710;  133.575; -813.000; -380.000
799.966;  262.325; -162.000; -160.000
800.221;  465.700; -638.000; -721.000
800.477; 9905.775; -743.000; -710.000
800.732; 9522.050; -773.000; -800.000
800.988;  614.750;  205.000;  -19.000
801.243; 1616.100; -454.000; -344.000
801.498; 7408.150; -814.000; -739.000
801.754;  443.800; -289.000; -163.000
802.009;   72.325; -257.000; -335.000
802.264;  -48.225; -967.000;-1033.000
802.520;   15.500;  222.000;   -3.000
802.775;  -28.700; -524.000; -359.000
803.030;   34.175;  395.000;  356.000
803.285; -109.500; -840.000; -903.000
803.540;  -60.750; -686.000; -699.000
803.795;  -35.400; -648.000; -583.000
804.051;  -34.825; -279.000; -346.000
804.306;   26.825;  168.000;  128.000
804.561;  132.150;  451.000;  362.000
804.816;  131.250;  714.000;  861.000
805.071;    6.825; -185.000; -280.000
805.325;  202.200; -257.000; -427.000
805.580; -105.300; -841.000; -877.000
805.835;   -0.775; -204.000; -297.000
806.090;  -68.800; -760.000; -676.000
806.345;   -8.075; -344.000; -264.000
806.600;  -52.850; -549.000; -632.000
806.854;  -21.225; -408.000; -538.000
807.109;  -17.500; -493.000; -577.000
807.364;    0.650; -407.000; -328.000
807.618;   -9.475; -415.000; -381.000
807.873;   61.375; -470.000; -494.000
808.128;  101.150; -257.000; -518.000
808.382;  120.625; -224.000; -332.000
808.637;   74.150; -440.000; -511.000
808.891;  204.100; -257.000; -180.000
809.146;   99.000; -902.000; -794.000
809.400;  271.175; -848.000; -923.000
809.654;  337.825; -779.000; -551.000
809.909;  483.525; -841.000; -927.000
810.163; 6288.150; -813.000; -651.000
810.418;17759.075; -940.000; -861.000
810.672; 1100.450; -685.000; -690.000
810.926;  718.200; -993.000; -973.000
811.180; 1336.500; -439.000; -372.000
811.434;30231.350;  240.000;  135.000
811.689;13224.050; -231.000; -365.000
811.943;  662.025; -936.000; -953.000
812.197;  333.475; -893.000; -671.000
812.451;  114.375; -379.000; -514.000
812.705;  -15.675; -809.000; -619.000
812.959;   -5.000; -263.000; -388.000
813.213;    2.150; -283.000; -209.000
813.467;   56.425;  470.000;  253.000
813.721; -112.250; -764.000; -792.000
813.975; -115.700; -826.000; -877.000
814.229;   39.725;  430.000;  353.000
814.482;  -68.900; -517.000; -566.000
814.736; -120.475; -766.000; -744.000
814.990; -131.775; -779.000; -872.000
815.244;  -60.275; -228.000; -285.000
815.497;  -88.025; -636.000; -601.000
815.751;  -17.825; -141.000;   82.000
816.005;  -69.250; -470.000; -586.000
816.258;  -79.625; -510.000; -363.000
816.512; -112.400; -693.000; -610.000
816.766;   11.125;  121.000;  157.000
817.019;   26.750;  148.000;  149.000
817.273; -129.250;-1000.000; -802.000
817.526;  -25.525; -206.000; -173.000
817.779;  -45.775;-1049.000; -960.000
818.033;  -63.475; -693.000; -807.000
818.286; -120.050; -725.000; -792.000
818.540;  -76.925; -403.000; -403.000
818.793;  -76.425; -402.000; -489.000
819.046;  -99.050; -582.000; -520.000
819.299;  -45.050; -157.000; -166.000
819.553; -114.100; -552.000; -592.000
819.806; -164.750;-1016.000; -838.000
820.059;  -57.050; -334.000; -354.000
820.312;    6.525;  152.000;  185.000
820.565;  -17.000;  110.000;  -27.000
820.818;  -57.125;  -59.000; -173.000
821.071; -161.150;-1041.000; -957.000
821.324; -118.900; -536.000; -540.000
821.577; -101.575; -457.000; -483.000
821.830;  -73.250; -270.000; -172.000
822.083; -109.425; -733.000; -288.000
822.336;  -61.175; -261.000; -167.000
822.589; -133.575; -805.000; -688.000
822.842; -141.450; -875.000; -770.000
823.094; -189.900;-1076.000;-1114.000
823.347; -131.175; -925.000; -729.000
823.600;   11.275;  402.000;  187.000
823.853;  -61.975; -311.000; -267.000
824.105;  -63.400; -331.000; -575.000
824.358; -105.150; -617.000; -716.000
824.611;   26.700;  234.000;   40.000
824.863;  -63.475; -612.000; -591.000
825.116;   48.025;  -33.000;   27.000
825.368;   70.200; -366.000; -372.000
825.621;  172.750; -186.000; -240.000
825.873;   80.325; -704.000; -737.000
826.126;  537.350; -669.000; -641.000
826.378;11353.125; -389.000; -505.000
826.630; 3046.025; -890.000; -898.000
826.883;   35.000; -754.000; -693.000
827.135;   46.800; -279.000; -270.000
827.387; -116.050; -893.000; -839.000
827.639;  -25.475;  -86.000;   32.000
827.892; -132.250; -742.000; -582.000
828.144; -137.825; -848.000; -804.000
828.396;  -36.775;  104.000;  -80.000
828.648;  -95.175; -440.000; -333.000
828.900; -144.550; -702.000; -795.000
829.152; -112.775; -684.000; -683.000
829.404;  -76.925; -215.000; -267.000
829.656;  -47.225;  321.000;  214.000
829.908;  -20.075;  393.000;  229.000
830.160; -162.625;-1064.000;-1047.000
830.412;  -89.875; -481.000; -430.000
830.664; -123.575; -557.000; -665.000
830.916;  -75.450; -268.000; -206.000
831.167; -172.775;-1073.000; -951.000
831.419; -129.750; -623.000; -566.000
831.671; -126.400; -764.000; -809.000
831.923;  -82.325; -311.000; -447.000
832.174;  -83.900; -273.000; -331.000
832.426; -123.350; -493.000; -582.000
832.678; -178.675;-1043.000;-1091.000
832.929; -168.775; -947.000; -935.000
833.181;  -59.575; -575.000; -677.000
833.432;  -51.900;  -59.000; -186.000
833.684;  -23.275;  112.000;  -27.000
833.935; -124.550; -610.000; -566.000
834.187; -123.075; -829.000; -823.000
834.438;  -43.775;  -58.000;  -25.000
834.689;  -60.550; -255.000; -123.000
834.941;  -70.750; -343.000; -244.000
835.192;  -98.475; -590.000; -533.000
835.443; -105.600; -419.000; -506.000
835.695;  -29.350;  138.000;  -16.000
835.946;  -97.300; -608.000; -378.000
836.197; -103.750; -599.000; -622.000
836.448; -100.525; -528.000; -395.000
836.699;  -61.400; -253.000; -341.000
836.950;   -1.125;   72.000;    7.000
837.201; -142.650;-1003.000; -987.000
837.452;  -48.050; -356.000; -170.000
837.703; -103.100; -791.000; -737.000
837.954;  -50.500; -205.000; -365.000
838.205;  -71.350;-1029.000;-1008.000
838.456;  160.225; -196.000; -282.000
838.707;   12.725; -423.000; -519.000
838.958;    2.275; -634.000; -647.000
839.209;  292.600;   18.000;   40.000
839.460;  109.425; -439.000; -201.000
839.710;  152.825; -135.000; -297.000
839.961;  407.850;  730.000;  612.000
840.212;  343.550; -382.000; -497.000
840.462; 1085.975; -328.000; -277.000
840.713;17371.900; -571.000; -536.000
840.964; 7658.000;  -62.000; -143.000
841.214;  514.700; -384.000; -624.000
841.465;  568.025; -214.000; -141.000
841.715;  523.650; -417.000; -380.000
841.966;  675.875; -746.000; -685.000
842.216; 8700.550; -330.000; -431.000
842.466;36009.575; -169.000; -313.000
842.717; 2204.325; -964.000; -952.000
842.967;  339.100; -635.000; -641.000
843.217;  283.375;   20.000;   28.000
843.468;   76.000; -104.000; -132.000
843.718;  -24.250; -718.000; -726.000
843.968;  -96.875; -837.000; -765.000
844.218;   17.275; -315.000; -262.000
844.469;  -47.375; -577.000; -561.000
844.719;  -96.975; -537.000; -682.000
844.969;  -88.150; -550.000; -580.000
845.219; -147.000; -814.000; -862.000
845.469;  -82.100; -392.000; -342.000
845.719; -137.325; -792.000; -884.000
845.969;  -24.200;  119.000;  174.000
846.219; -118.150; -738.000; -720.000
846.469;    5.950;  464.000;  432.000
846.718;  -49.075; -115.000;   31.000
846.968; -132.075; -827.000; -827.000
847.218;  -40.550; -224.000; -371.000
847.468; -114.975; -586.000; -555.000
847.718; -140.475; -827.000; -798.000
847.967; -131.775; -826.000; -915.000
848.217;  -86.300; -449.000; -569.000
848.467;  -59.850; -405.000; -376.000
848.716; -102.650; -708.000; -725.000
848.966;    6.575; -372.000; -358.000
849.215;  -69.300; -428.000; -419.000
849.465; -106.350; -785.000; -615.000
849.714; -135.175;-1132.000;-1150.000
849.964;  -63.475; -551.000; -613.000
850.213;  -15.650; -393.000; -355.000
850.463;   76.275;  137.000;  340.000
850.712;   -1.425; -542.000; -567.000
850.961;   11.525; -739.000; -678.000
851.211;  101.225; -513.000; -504.000
851.460;  160.950; -635.000; -650.000
851.709;  546.600;  -25.000;   18.000
851.958; 9806.275; -912.000; -750.000
852.208;13102.375; -859.000; -879.000
852.457;  492.275; -181.000;  -13.000
852.706;   81.000; -791.000; -823.000
852.955;    5.900; -507.000; -528.000
853.204;  -58.050; -521.000; -461.000
853.453;  -80.025; -418.000; -458.000
853.702; -129.325; -660.000; -750.000
853.951; -108.475; -532.000; -520.000
854.200; -118.425; -613.000; -562.000
854.449; -139.375; -695.000; -661.000
854.698;  -95.150; -340.000; -279.000
854.946;  -66.750; -181.000; -284.000
855.195; -149.050; -843.000; -868.000
855.444; -101.675; -395.000; -420.000
855.693; -121.300; -345.000; -432.000
855.941; -107.450; -387.000; -516.000
856.190;  -44.400; -256.000; -382.000
856.439; -129.325; -652.000; -703.000
856.687;  -50.700;  -99.000;  -72.000
856.936; -123.225; -621.000; -323.000
857.184; -175.675;-1067.000;-1020.000
857.433; -118.750; -423.000; -512.000
857.681; -158.975; -989.000; -953.000
857.930;  -80.775; -282.000; -433.000
858.178; -159.375; -856.000; -929.000
858.427; -159.525; -802.000; -781.000
858.675; -114.225; -377.000; -544.000
858.923; -112.225; -527.000; -819.000
859.172; -184.875;-1094.000;-1070.000
859.420;  -91.475; -339.000; -239.000
859.668; -141.950; -624.000; -628.000
859.916;  -34.050;  109.000;  115.000
860.164; -107.325; -699.000; -603.000
860.413;  271.325; -878.000; -696.000
860.661;  246.075; -709.000; -577.000
860.909;  -91.325; -339.000; -325.000
861.157;  -81.750; -277.000; -444.000
861.405; -135.850; -534.000; -670.000
861.653;    3.675;  310.000;  310.000
861.901;  179.925; -543.000; -613.000
862.149;   26.950; -801.000; -824.000
862.396;  -93.125; -297.000; -187.000
862.644;  -80.200; -368.000; -347.000
862.892;  -37.650;   98.000;  138.000
863.140; -125.200; -549.000; -530.000
863.388; -170.450; -815.000; -759.000
863.635; -127.725; -642.000; -601.000
863.883;  -25.150;  231.000;  190.000
864.131;  -95.950; -288.000; -357.000
864.378; -129.850; -675.000; -540.000
864.626; -102.900; -347.000; -415.000
864.873; -130.350; -556.000; -505.000
865.121; -144.775; -714.000; -799.000
865.368;  -47.575; -173.000;   75.000
865.616;  -43.450;  -33.000;  -40.000
865.863;  -91.175; -462.000; -506.000
866.111; -113.225; -795.000; -824.000
866.358;   14.250; -426.000; -420.000
866.605; 2013.575;  -64.000; -804.000
866.853; 2275.375; -621.000; -537.000
867.100;  -25.850; -728.000; -775.000
867.347; -100.175; -672.000; -611.000
867.594;  -82.750; -740.000; -714.000
867.841;   76.600;   97.000;   17.000
868.089; -141.575; -746.000; -698.000
868.336; -110.550; -477.000; -420.000
868.583; -133.125; -637.000; -741.000
868.830;  -56.650; -131.000; -170.000
869.077; -152.825; -859.000; -787.000
869.324; -140.600; -502.000; -458.000
869.571; -126.350; -398.000; -430.000
869.818; -130.375; -485.000; -439.000
870.065;  -97.350; -439.000; -513.000
870.311; -119.950; -456.000; -542.000
870.558; -109.075; -332.000; -311.000
870.805;  -89.825; -320.000; -384.000
871.052; -105.650; -494.000; -369.000
871.298;  -65.950; -204.000; -131.000
871.545;  -72.550; -151.000; -185.000
871.792;  -91.450; -173.000; -222.000
872.038;  -72.600;   43.000; -126.000
872.285; -137.750; -496.000; -387.000
872.532;  -94.650; -357.000; -387.000
872.778;    6.150;  556.000;  403.000
873.025; -106.475; -384.000; -359.000
873.271;    8.550;  501.000;  578.000
873.517;  -32.000; -133.000; -209.000
873.764;  -33.600; -193.000;  -80.000
874.010;  -62.975; -143.000; -230.000
874.257;  -56.525;  123.000;   90.000
874.503; -127.875; -579.000; -479.000
874.749;  -71.525;   31.000;  275.000
874.995;  -61.350;  -80.000;  -20.000
875.242; -126.450; -540.000; -478.000
875.488; -103.550; -414.000; -439.000
875.734;  -61.000; -106.000; -234.000
875.980;  181.000; -872.000;-1032.000
876.226;  391.375; -157.000; -255.000
876.472;    0.850;  343.000;  237.000
876.718;  -39.275;  184.000;  158.000
876.964;  -47.975;   56.000;   55.000
877.210; -150.350; -547.000; -677.000
877.456; -134.250; -630.000; -557.000
877.702; -184.800; -821.000; -832.000
877.948; -110.900; -377.000; -497.000
878.193;   -0.350;  361.000;  255.000
878.439;  -99.975; -487.000; -472.000
878.685;  -98.950; -272.000; -343.000
878.931; -132.650; -618.000; -676.000
879.176;  -84.225; -201.000; -201.000
879.422; -169.875; -933.000; -820.000
879.668;   49.225;   10.000;   79.000
879.913;  150.875;   53.000;  137.000
880.159;  -63.250; -112.000;  -17.000
880.404;  -62.425; -152.000; -162.000
880.650;  -49.575;   91.000;  141.000
880.895; -160.675; -670.000; -710.000
881.141; -130.300; -454.000; -428.000
881.386; -136.000; -503.000; -658.000
881.631;  -88.575; -311.000; -166.000
881.877;  -50.850;  112.000;  -13.000
882.122; -136.625; -684.000; -600.000
882.367;  -91.400; -136.000; -186.000
882.612;  -80.750;  -80.000; -176.000
882.858; -165.775; -877.000; -823.000
883.103; -109.475; -297.000; -267.000
883.348; -146.150; -759.000; -852.000
883.593; -151.800; -677.000; -602.000
883.838;  -65.175; -311.000;  -24.000
884.083;   29.250;  353.000;  288.000
884.328; -105.050; -564.000; -545.000
884.573;  -58.300; -196.000; -143.000
884.818;  175.625; -694.000; -531.000
885.063;  204.975; -348.000; -315.000
885.308; -102.200; -475.000; -398.000
885.553;  -25.625;  245.000;  325.000
885.797; -124.300; -545.000; -615.000
886.042;  -66.600;    8.000;   58.000
886.287;  -95.125; -253.000; -211.000
886.532;  -62.925;   26.000;  204.000
886.776; -108.925; -407.000; -525.000
887.021; -153.500; -621.000; -574.000
887.265; -143.350; -685.000; -689.000
887.510; -141.825; -557.000; -496.000
887.755;  -93.025; -194.000; -164.000
887.999; -160.500; -552.000; -575.000
888.244;  -53.650;  -58.000;  161.000
888.488;  -17.825;  371.000;  393.000
888.732; -133.550; -368.000; -520.000
888.977; -135.775; -622.000; -567.000
889.221; -156.500; -683.000; -659.000
889.465; -125.350; -422.000; -566.000
889.710;  -91.550;  -56.000; -299.000
889.954;  -10.625;  579.000;  467.000
890.198; -139.375; -584.000; -707.000
890.442; -169.775; -716.000; -712.000
890.687; -162.600; -800.000; -753.000
890.931; -107.600; -273.000; -210.000
891.175; -143.225; -502.000; -500.000
891.419;  -85.400; -105.000; -110.000
891.663; -100.150; -239.000; -112.000
891.907; -178.075; -801.000; -545.000
892.151; -173.675; -920.000; -815.000
892.395; -123.775; -274.000; -387.000
892.638;  -13.925;  408.000;  291.000
892.882; -172.050; -780.000; -867.000
893.126;   14.775;  758.000;  558.000
893.370; -102.150; -167.000; -168.000
893.614; -144.725; -714.000; -715.000
893.857; -102.800; -183.000; -197.000
894.101; -130.350; -527.000; -631.000
894.345;  -71.625;  300.000;  150.000
894.588;   10.725;  569.000;  380.000
894.832;  -84.750; -178.000;  -84.000
895.075;  -93.475;   15.000;  -92.000
895.319; -143.075; -552.000; -420.000
895.563; -120.625; -413.000; -353.000
895.806; -154.225; -628.000; -741.000
896.049;  -56.725; -576.000; -368.000
896.293;   93.875;  527.000;  405.000
896.536;  -72.900; -465.000; -468.000
896.779;  -63.250; -149.000;   -1.000
897.023; -135.200; -751.000; -714.000
897.266;  -38.600;  325.000;  269.000
897.509; -197.025; -900.000; -901.000
897.752;  -51.575;  149.000;  171.000
897.996; -188.750; -972.000; -864.000
898.239;  -61.375;  168.000;  102.000
898.482; -112.450; -431.000; -453.000
898.725;  -43.375;  101.000;   53.000
898.968; -152.725; -609.000; -744.000
899.211; -117.575; -513.000; -361.000
899.454; -136.250; -633.000; -539.000
899.697;  -80.750;   90.000;  -43.000
899.940; -167.375; -761.000; -757.000
900.182;  -96.300; -335.000; -405.000
900.425; -102.600; -150.000; -298.000
900.668;  -34.250;  491.000;  350.000
900.911;  -96.725; -292.000; -345.000
901.154;  -61.950;  141.000;   -3.000
901.396; -133.450; -407.000; -412.000
901.639; -144.850; -430.000; -496.000
901.882; -176.825; -790.000; -809.000
902.124;  -85.825;  -29.000; -143.000
902.367; -121.125; -315.000; -361.000
902.609; -135.200; -476.000; -453.000
902.852;  -89.025; -108.000; -260.000
903.094; -128.275; -458.000; -337.000
903.337;  -64.050;  -26.000;   53.000
903.579; -116.000; -228.000; -441.000
903.821; -163.125; -597.000; -744.000
904.064;  -60.275;   85.000;  127.000
904.306; -109.100; -126.000; -166.000
904.548; -118.175; -152.000; -366.000
904.790;  -94.275; -195.000; -340.000
905.033; -142.675; -625.000; -577.000
905.275; -127.700; -513.000; -524.000
905.517;   31.150;  468.000;  256.000
905.759;  -69.200; -667.000; -761.000
906.001; -106.175; -322.000; -369.000
906.243;  -72.975; -162.000; -224.000
906.485;  103.700; -265.000; -207.000
906.727;  119.600; -499.000; -542.000
906.969;  -49.725;  -30.000; -135.000
907.211;  127.525; -316.000; -382.000
907.453;  283.425; -188.000; -237.000
907.695;   17.875; -158.000; -385.000
907.936;   36.775;  818.000;  706.000
908.178;  -55.900;   92.000; -135.000
908.420;  -79.500; -111.000; -162.000
908.662; -131.400; -633.000; -682.000
908.903;  -93.025; -208.000; -123.000
909.145;  -59.700; -240.000; -305.000
909.386;  -15.525;  315.000;  280.000
909.628;   29.700;  363.000;  397.000
909.870;  -10.700;   29.000;  264.000
910.111;  -97.000; -809.000; -949.000
910.353;   15.725; -123.000; -161.000
910.594;    5.175; -574.000; -606.000
910.835;   79.675; -265.000; -326.000
911.077;  167.625; -503.000; -604.000
911.318;  273.075; -505.000; -471.000
911.559;  435.975; -577.000; -880.000
911.801; 1281.550; -284.000; -280.000
912.042; 9761.225;  -50.000; -159.000
912.283;27000.650;  404.000;  371.000
912.524; 4486.575; -396.000; -457.000
912.765;  503.975; -193.000;   79.000
913.006;  249.950; -307.000; -338.000
913.247;   49.300; -270.000; -290.000
913.488;   -8.825;  -43.000;   30.000
913.729;  -95.225; -373.000; -373.000
913.970;  -59.175;  -96.000; -292.000
914.211;  -75.075; -160.000; -198.000
914.452;  -65.250; -118.000;  -11.000
914.693;    0.675;  510.000;  592.000
914.934;    7.275;  510.000;  440.000
915.175;  -78.800;   53.000;  -95.000
915.415;  -70.325; -137.000;   27.000
915.656;  -79.375;  -28.000;  192.000
915.897;  -92.875; -252.000;  -82.000
916.137;  -82.225;   74.000;   -9.000
916.378; -122.050; -573.000; -517.000
916.619;  -94.750; -159.000;  -63.000
916.859;  -15.250;  303.000;  330.000
917.100;  132.475; 1655.000; 1070.000
917.340;   51.500;  930.000;  728.000
917.581;   39.075;  965.000;  789.000
917.821;  -22.675; -171.000;  143.000
918.061;   23.950; -199.000;  -72.000
918.302;  -45.050; -152.000; -211.000
918.542;  -40.425;  -22.000;    3.000
918.782;   20.550;  369.000;  377.000
919.023;  116.325;  360.000;  427.000
919.263; 1711.325; 8131.000;  202.000
919.503; 1142.900; -137.000;  -54.000
919.743;  654.975;  390.000;  266.000
919.983;  261.900; -134.000;  -26.000
920.223;   88.050;  135.000;   14.000
920.463;  121.300;  631.000;  554.000
920.703;  123.200;   84.000;   39.000
920.943;  154.450; -110.000;   90.000
921.183;  227.325; -414.000; -405.000
921.423;  503.050;  307.000;  546.000
921.663;  713.325; -174.000; -257.000
921.903; 1475.625;  237.000;  173.000
922.143; 8169.825;  372.000;  389.000
922.383;32523.575;  158.000;  115.000
922.622;11891.050; -120.000;  -15.000
922.862; 1253.475;  796.000;  785.000
923.102;  459.750;  -51.000;   33.000
923.341;  188.100;   59.000;   74.000
923.581;   92.375;  450.000;  360.000
923.821;   16.750;  301.000;  398.000
924.060;   23.200;  351.000;  193.000
924.300;  -53.875;  -16.000; -128.000
924.539;   -3.100;  584.000;  473.000
924.779;   13.000;  812.000;  597.000
925.018;  -54.600;  247.000;  353.000
925.257;   -5.675;  595.000;  666.000
925.497;  -39.300;  447.000;  412.000
925.736;  -73.425;  -35.000;  102.000
925.975;    8.900;  687.000;  669.000
926.214;   15.950;  907.000;  850.000
926.454;   18.275;  706.000;  757.000
926.693;  -52.250;  419.000;  543.000
926.932;   28.975; 1021.000;  825.000
927.171;   52.500; 1107.000; 1044.000
927.410;   56.775; 1144.000;  967.000
927.649;   13.200;  924.000;  742.000
927.888;  -12.375;  590.000;  564.000
928.127;  -14.900;  680.000;  678.000
928.366;   28.525;  842.000;  826.000
928.605;   37.850;  831.000;  737.000
928.844;  245.200; 1451.000; 1393.000
929.083;  614.650;  770.000;  613.000
929.321;  342.950; 1335.000; 1359.000
929.560;   99.150; 1158.000; 1122.000
929.799;  -15.600;  574.000;  475.000
930.038;   75.100; 1025.000; 1394.000
930.276;  -50.375;  334.000;  397.000
930.515;  -22.175;  827.000;  681.000
930.753;  -10.550;  614.000;  589.000
930.992;  -25.125;  664.000;  717.000
931.230;   -3.325;  847.000;  847.000
931.469;  163.250; 2162.000;  892.000
931.707;   78.650;  840.000;  751.000
931.946;   66.100; 1278.000; 1344.000
932.184;   71.125; 1437.000; 1175.000
932.423;   42.775; 1265.000;  963.000
932.661;   85.275; 1296.000; 1428.000
932.899;   35.825;  987.000;  821.000
933.137;    5.975;  754.000;  564.000
933.376;  142.775; 1664.000; 1335.000
933.614;  160.675; 1759.000; 1196.000
933.852;   49.775; 1357.000; 1171.000
934.090;  131.950; 1722.000; 1747.000
934.328;  102.725; 1252.000; 1457.000
934.566;   88.750; 1431.000; 1110.000
934.804;  131.100; 1263.000; 1309.000
935.042;  429.700; 1861.000; 1850.000
935.280; 1631.350; 2088.000; 2063.000
935.518; 1648.275; 2113.000; 2007.000
935.756;  356.625; 2481.000; 2316.000
935.994;  179.600; 1808.000; 1751.000
936.231;  339.300; 2890.000; 2950.000
936.469;  195.000; 2367.000; 2378.000
936.707;  149.050; 2220.000; 2167.000
936.945;  248.675; 2825.000; 2882.000
937.182;  211.225; 2679.000; 2741.000
937.420;  292.775; 3602.000; 3031.000
937.657;  419.425; 3365.000; 3478.000
937.895;  360.425; 3331.000; 3488.000
938.133;  305.150; 3540.000; 3528.000
938.370;  326.950; 3896.000; 4191.000
938.607;  398.050; 4488.000; 4205.000
938.845;  543.800; 5587.000; 5549.000
939.082;  489.850; 5387.000; 5177.000
939.320;  536.875; 5799.000; 5728.000
939.557;  643.200; 6549.000; 6491.000
939.794;  736.675; 7285.000; 7097.000
940.031;  895.950; 8421.000; 8368.000
940.269; 1107.125; 9552.000; 9107.000
940.506; 1124.750;10901.000;10507.000

