
Integration time [ms]: 200.000
Averaging Nr. [scans]: 10
Smoothing Nr. [pixels]: 0
Data measured with spectrometer [name]: 2101013U2
Wave   ;Sample   ;Dark     ;Reference
[nm]   ;[counts] ;[counts] ;[counts] 

394.013;  -93.351; -450.257; -315.536
394.305; -149.251; -461.258; -419.536
394.596; -189.263; -676.269; -527.514
394.887; -211.261; -796.268; -654.518
395.178;   40.742;  145.736;   11.476
395.470;  -61.056; -210.263; -356.526
395.761;  102.141;  305.734;  394.479
396.052; -119.577; -545.284; -306.489
396.343; -135.169; -557.276; -454.503
396.634;  -69.072; -200.279; -290.497
396.926; -140.661; -618.268; -565.517
397.217;  -14.368;   11.725;  -17.504
397.508;  -85.467; -366.273; -154.507
397.799; -164.172; -555.279; -571.497
398.090; -233.473; -973.280; -902.495
398.381;   10.415;   11.708;  -11.473
398.672; -168.485; -585.292; -742.473
398.963; -116.972; -348.279; -373.498
399.254;   16.716;   54.709; -209.475
399.545; -261.960;-1017.266; -883.520
399.836;  -78.670; -407.277; -343.501
400.127;  -48.588; -205.295; -209.468
400.418; -100.167; -423.274; -392.506
400.709;  -46.875; -359.281; -333.493
401.000;  -48.684; -268.291; -309.476
401.290;   63.505;  225.698;  115.545
401.581;   -7.679; -166.286; -228.485
401.872; -108.391; -542.298; -486.462
402.163;  -60.489; -313.296; -252.467
402.454;  -20.684; -123.291; -163.475
402.744; -202.790; -844.297; -813.465
403.035;  -82.986; -226.293;  -86.471
403.326;  -92.585; -366.292; -384.474
403.617;   38.809;  204.701;  165.539
403.907; -150.876; -593.283; -679.490
404.198; -165.100; -545.307; -599.446
404.489; -174.176; -618.283; -588.491
404.779; -180.894; -618.302; -660.456
405.070;  -23.997;  -67.304; -174.451
405.360;  -47.686; -259.293; -238.472
405.651;   70.607;  125.699;   98.542
405.942;   52.721;  209.714;  127.516
406.232; -146.978; -432.285; -413.487
406.523;  243.713;  641.706;  758.530
406.813; -141.079; -579.286; -644.484
407.104;  107.815;  261.708;  144.527
407.394; -177.591; -604.299; -591.462
407.685;   47.922;  336.715;  222.513
407.975; -110.076; -400.283; -382.490
408.265;  -29.882; -134.289; -190.478
408.556; -105.684; -472.291; -459.475
408.846;  139.213;  474.706;  429.530
409.137;   26.119;   -1.288; -216.480
409.427;  -74.078; -193.285; -271.487
409.717; -181.166; -776.273; -692.508
410.007;  -10.178;    4.715; -170.486
410.298;  -83.187; -360.295; -342.469
410.588; -134.278; -495.285; -510.486
410.878; -209.480; -792.287; -873.482
411.168; -105.391; -481.298; -478.463
411.459;  -33.376; -295.283; -242.489
411.749; -153.684; -609.292; -507.474
412.039; -228.982; -755.289; -386.480
412.329;   56.729;   40.722;  132.501
412.619;  -23.379;  -62.286; -148.485
412.909;  204.918;  639.711;  594.521
413.199;  -18.073; -130.280; -251.495
413.490;  138.817;  521.710;  352.523
413.780; -253.173;-1013.279; -913.496
414.070;   29.031;  -46.276;  235.497
414.360; -176.771; -729.278; -666.498
414.650; -190.681; -726.288; -688.482
414.940; -121.873; -538.280; -441.496
415.230;   35.319;   50.712;   74.519
415.520;   33.137;  155.730;   66.486
415.809;  -56.175; -305.281; -125.493
416.099; -118.470; -388.277; -229.501
416.389;  156.932;  435.726;  236.494
416.679;   45.444;   91.738;   85.473
416.969; -123.280; -527.287; -503.483
417.259;   83.028;  341.721;  171.503
417.549;  122.425;  522.718;  318.508
417.838;  -38.161; -205.268; -147.518
418.128;  159.018;  650.710;  492.522
418.418; -132.066; -491.272; -579.509
418.708;   14.532;    9.726;  -48.506
418.997; -147.568; -474.275; -480.505
419.287; -252.067; -733.273; -790.507
419.577;  -22.276; -160.283; -123.489
419.866; -131.570; -588.277; -498.501
420.156;  -16.963; -242.270;  -55.513
420.446;   -2.657; -112.263;  -26.526
420.735; -154.064; -376.271; -446.512
421.025;  547.929; 1830.722;  315.502
421.314;  -35.764; -203.271; -226.512
421.604;   41.538;   89.732;  233.484
421.893; -171.865; -705.271; -602.511
422.183; -162.257; -487.263; -461.526
422.472;  -22.064;  -36.271; -107.511
422.762;  -94.759; -416.266; -379.521
423.051; -250.469; -916.276; -916.503
423.341; -113.167; -491.273; -439.507
423.630;  -14.358; -121.265;   15.477
423.919;   -4.168;   58.725;   49.495
424.209;   16.644;  -31.263;   56.473
424.498;   33.839;   68.732;  161.483
424.787; -132.561; -535.267; -601.518
425.077;   32.542;   34.735;   29.478
425.366; -175.055; -734.262; -744.528
425.655;  207.234;  639.727;  259.493
425.945;  -81.441; -313.247; -268.554
426.234;   -5.153;  117.741;  300.467
426.523;  -78.552;  -86.259; -350.534
426.812;   44.841;  107.734;  159.480
427.101;    6.838; -127.269; -323.515
427.390;  -16.063;  -55.270;  -86.514
427.680; -114.950; -624.257; -411.538
427.969;  -83.549; -330.255; -301.540
428.258; -142.651; -385.257; -477.536
428.547;   74.535;  449.728;  397.490
428.836; -116.647; -421.253; -398.543
429.125;  -39.652; -199.259;  -72.534
429.414;  -91.445; -330.251; -294.548
429.703;  -76.045; -231.251; -213.548
429.992; -241.444; -938.250; -828.549
430.281; -155.258; -397.264; -331.524
430.570;   12.554;  -21.252;   32.454
430.859;   53.648;  279.741;  352.466
431.148;  204.758;  636.752;  631.446
431.437;   81.554;  391.748;  367.454
431.725; -142.951; -544.257; -481.536
432.014; -262.346; -845.253; -756.545
432.303;  -65.233; -149.239; -105.569
432.592; -129.257; -460.263; -178.525
432.881; -188.241; -601.248; -437.554
433.169;  -53.249; -343.255;  -61.540
433.458;  151.171;  445.765;  540.424
433.747; -113.455; -397.261; -289.529
434.036;  -93.636; -275.242; -280.564
434.324; -145.543; -395.249; -379.551
434.613;    0.363;   40.757;  159.437
434.902;   84.166;  333.760;  439.433
435.190;   66.267;   75.761;  295.431
435.479;  -41.539;  -52.245;   83.441
435.767; -135.638; -411.244; -427.561
436.056; -118.536; -340.242; -294.563
436.345; -105.034; -372.240; -223.568
436.633;   49.857;   60.750;  383.450
436.922;   73.366;  208.760;  414.432
437.210;  -74.431; -194.236;    1.426
437.499; -159.230; -583.235; -432.576
437.787;  -79.531; -339.236;  -10.574
438.075;   27.967;   56.761;  162.430
438.364;  -11.432;  -44.238;  250.429
438.652;  -82.021; -286.226; -138.592
438.941;  -22.625;    3.770;  269.415
439.229; -187.146; -665.252; -466.545
439.517;  -56.529; -160.234;  -85.577
439.806; -180.619; -501.225; -290.595
440.094;  102.072;  377.766;  650.421
440.382; -148.227; -653.233; -302.580
440.670; -118.630; -361.235; -285.576
440.959; -140.817; -347.223; -170.599
441.247;  -81.723; -151.229; -109.587
441.535;  -37.629; -266.235;   31.423
441.823; -153.228; -497.234; -305.578
442.111;   76.777;  173.771;  327.412
442.400; -157.739; -628.245; -335.559
442.688;  -39.928; -111.234; -620.579
442.976; -254.607; -786.213; -450.617
443.264; -138.718; -324.224; -364.597
443.552;  -60.321; -258.226;   51.408
443.840;  155.271;  602.765;  876.423
444.128;   76.973;  265.767;  269.420
444.416; -170.623; -694.228; -312.588
444.704; -135.114; -465.219;  -92.605
444.992;  -21.120;   -0.226;  240.407
445.280; -130.325; -517.230;  -94.585
445.568; -179.707; -694.212; -396.618
445.856;  -24.416; -174.221;  357.398
446.143;  -62.614;  -54.220;   -7.604
446.431;   19.478;  -25.228;  625.411
446.719;  148.688;  489.783;  675.391
447.007;  150.875;  481.769;  705.416
447.295;  161.483;  597.777;  871.402
447.583;  -95.224; -464.229;  -34.587
447.870; -126.616; -434.221; -202.601
448.158;  -58.925; -104.230;  129.415
448.446; -208.314; -800.219; -338.604
448.733;  -44.218;   13.776;  269.403
449.021;   -1.307;   60.788;  341.382
449.309;  -42.905; -296.210;  208.379
449.596;   70.788;  128.783;   59.392
449.884; -154.317; -571.222; -325.600
450.172; -232.122; -756.227; -406.590
450.459;  133.991;  645.786;  780.387
450.747; -131.112; -411.218; -147.608
451.034;  193.078;  493.772;  889.411
451.322; -140.709; -413.214; -170.614
451.609;   70.382;  292.777;  508.403
451.897; -179.798; -550.203; -183.634
452.184; -205.617; -622.223; -400.598
452.472;  -45.103;   97.792;  269.375
452.759;  121.486;  512.781;  864.395
453.047; -123.907; -407.212; -125.617
453.334; -198.013; -732.219; -216.606
453.621; -131.809; -438.214; -161.615
453.909;    7.401;   13.796;  384.368
454.196;  -67.494; -299.199; -123.641
454.483;   47.903;  317.798;  540.364
454.771;  -67.703; -215.208;  196.374
455.058;  -55.302; -316.207;  102.374
455.345;   24.412;   71.807;  344.347
455.632;  -52.102; -128.207;  235.373
455.919;  -13.992;  -82.196;  182.354
456.207; -235.694; -774.198; -450.642
456.494; -161.195; -475.200;  -66.639
456.781; -143.097; -399.202; -198.635
457.068;  -55.201; -253.206;  -29.628
457.355; -185.701; -698.206; -401.629
457.642; -149.700; -552.205; -290.630
457.929; -196.389; -778.194; -417.651
458.216; -182.307; -575.212; -354.617
458.503;  -75.188; -173.193;  -19.652
458.790; -245.303; -864.208; -630.625
459.077;  -47.397;  -77.202;  110.364
459.364; -103.890; -350.195; -210.649
459.651;   -9.601;  -46.206;  220.372
459.938; -251.904; -864.209; -665.623
460.225;   -0.996;  132.799;  276.363
460.512; -252.292; -836.197; -688.645
460.799;    4.188;  -32.218;  320.392
461.086; -133.895; -370.200; -251.640
461.372; -142.094; -509.198; -279.642
461.659;   10.509; -165.196;  108.354
461.946; -103.489; -445.193;  -54.651
462.233;  210.905;  842.800;  888.361
462.519; -266.996; -814.201; -464.639
462.806; -213.492; -768.197; -497.645
463.093; -127.586; -445.191;  -66.656
463.380; -259.282; -920.186; -824.664
463.666;  -51.992; -259.197;  -18.646
463.953; -106.190; -406.195; -243.648
464.239;  -81.090; -173.195;  -77.648
464.526;   82.011;  413.806;  743.350
464.813; -151.585; -565.190; -304.658
465.099;  119.912;  606.807;  607.348
465.386;  244.412;  903.807;  921.348
465.672; -207.092; -694.197; -522.645
465.959; -194.383; -598.188; -520.662
466.245; -132.288; -468.193; -359.652
466.532;   -0.191; -109.195;   63.352
466.818;  -84.082; -357.186; -216.664
467.104; -183.377; -488.182; -415.672
467.391; -178.685; -628.189; -459.658
467.677;  -71.881; -289.186;    9.335
467.964; -183.284; -682.189; -471.660
468.250; -102.681; -331.186; -160.665
468.536;  -20.985;   90.811;  180.341
468.822; -216.980; -821.184; -574.668
469.109;  134.832;  351.827;  471.311
469.395;  145.813;  729.808;  787.346
469.681;   11.516;   46.811;  156.341
469.967; -167.184; -699.188; -382.660
470.254;  -90.983; -494.188; -306.662
470.540; -118.492; -601.196; -476.646
470.826; -148.976; -488.181; -397.675
471.112;   13.121;  288.816;  113.331
471.398;  -57.179; -253.183;  -58.670
471.684; -163.273; -626.177; -447.680
471.970; -288.676; -918.180; -981.675
472.256; -171.987; -521.192; -441.654
472.542; -159.267; -499.171; -434.691
472.828; -245.978; -743.182; -607.672
473.114; -109.462; -380.166; -283.700
473.400; -119.371; -504.175; -293.684
473.686;  -99.862; -452.166; -400.701
473.972;  -38.469; -230.174; -131.687
474.258; -261.068; -925.173; -843.689
474.544;  -24.474; -183.178;   -2.679
474.830;   -6.071;  -65.175;   45.316
475.116;  -75.785; -123.190; -196.658
475.401; -144.275; -558.180; -467.676
475.687; -214.675; -725.180; -718.676
475.973; -212.477; -673.181; -770.673
476.259;  199.129;  736.825;  764.315
476.544; -129.572; -539.176; -437.682
476.830; -133.468; -398.172; -322.690
477.116; -126.572; -430.177; -336.682
477.401;  144.025;  346.820;  358.324
477.687; -138.271; -289.175; -405.684
477.973;   19.224;   21.819;   28.326
478.258; -152.359; -448.163; -348.706
478.544;   -5.680;   21.815;   61.334
478.829; -241.966; -818.171; -738.692
479.115; -177.968; -749.172; -651.690
479.401; -130.070; -444.174; -449.686
479.686;  -46.576; -253.180;  -74.676
479.972; -250.473; -886.178; -776.680
480.257;  -76.862; -258.166;  -65.700
480.542; -141.866; -614.170; -469.693
480.828;  385.929; 1288.824; 1392.317
481.113; -184.371; -464.176; -426.683
481.399;  -68.357; -236.161; -202.711
481.684; -190.362; -620.166; -462.700
481.969;  -26.055; -158.159;  -73.713
482.255; -139.665; -439.169; -285.695
482.540; -170.473; -569.178; -441.680
482.825; -143.282; -395.187; -404.663
483.110;  -45.264;  -85.169; -105.696
483.396; -204.453; -840.157; -652.718
483.681;  128.531;  543.826;  730.313
483.966; -222.356; -696.160; -700.712
484.251; -155.670; -404.174; -310.687
484.536; -117.361; -356.165; -378.703
484.822;  -86.869; -205.173; -218.687
485.107; -161.349; -599.152; -502.726
485.392;  195.340;  662.836;  541.296
485.677;   40.037;  354.832;  163.302
485.962;   28.947;  160.843;  270.283
486.247;   11.742;  -14.162;   -8.707
486.532;  -83.262; -178.166; -325.701
486.817;   89.743;  381.839;  431.291
487.102; -149.450; -453.154; -514.722
487.387; -178.653; -637.156; -652.718
487.672;  -49.160; -154.164;  -38.705
487.957; -108.456; -394.160; -286.711
488.241;  -71.547; -290.150; -314.729
488.526; -114.248; -280.152; -148.726
488.811; -259.373; -881.177; -818.680
489.096; -239.950; -666.154; -702.723
489.381;   -9.649;    3.847;  162.275
489.666; -110.557; -428.161; -510.710
489.950;  155.950;  558.846;  627.277
490.235; -162.447; -480.151; -458.728
490.520; -238.257; -756.161; -723.710
490.804; -237.452; -827.156; -736.719
491.089; -124.745; -469.149; -299.732
491.374;  -26.460; -132.164;  -75.704
491.658; -225.344; -817.147; -717.735
491.943; -140.448; -657.152; -609.727
492.227;  -56.751; -178.155;  -38.721
492.512;  -89.153; -294.157; -341.717
492.797; -234.946; -713.149; -716.731
493.081; -187.543; -588.147; -598.735
493.366; -192.057; -751.161; -635.711
493.650;  211.263;  831.859;  917.254
493.935; -161.744; -648.147; -447.734
494.219; -204.139; -778.142; -687.743
494.503; -188.746; -585.150; -487.730
494.788;   -5.254;   46.842;   74.285
495.072;   96.253;  184.850;  434.271
495.356; -140.145; -463.148; -343.733
495.641; -237.043; -812.146; -736.736
495.925; -262.152; -976.156; -903.719
496.209; -172.345; -599.149; -451.732
496.494; -176.739; -763.142; -544.744
496.778;  -69.950; -364.154; -360.722
497.062; -241.552; -819.156; -627.719
497.346; -236.156; -869.160; -640.711
497.631;  166.656;  580.852;  560.266
497.915;    5.659;  -64.145;  175.261
498.199; -131.053; -341.157; -277.718
498.483; -135.949; -562.152; -508.725
498.767;   79.454;  301.850;  300.271
499.051;  -27.345; -126.149; -100.732
499.335; -225.745; -693.149; -739.731
499.619; -133.326; -381.129; -423.767
499.903;  -78.951; -272.155;  -65.721
500.187; -160.250; -588.153; -316.724
500.471; -244.448; -796.152; -595.727
500.755;  -30.657;   62.839;  -96.710
501.039;  -97.451; -270.155; -357.721
501.323;   29.363;  -21.141;  264.254
501.607;  -99.959; -447.163; -503.706
501.891; -164.053; -607.156; -512.718
502.174; -217.340; -726.144; -585.741
502.458;   19.152;   89.849;  370.273
502.742;  -68.435; -180.138; -191.751
503.026;  -98.844; -412.147; -254.734
503.310; -125.955; -437.159; -375.713
503.593; -137.444; -464.147; -325.735
503.877;  -42.530; -232.133; -156.760
504.161;  -42.449;    2.847;  -50.724
504.444; -236.854; -841.158; -710.716
504.728; -179.260; -487.164; -522.704
505.012;  -64.547; -257.150;  -76.729
505.295;  -96.757; -417.161; -212.711
505.579; -117.152; -256.156; -496.719
505.862; -129.242; -555.145; -333.738
506.146; -209.555; -681.159; -758.714
506.429;  124.045;  568.841;  461.286
506.713; -207.047; -732.151; -667.728
506.996;    2.050;   90.846;  295.278
507.280; -188.961; -633.165; -474.703
507.563; -139.451; -469.155; -261.721
507.847; -135.250; -423.153; -112.724
508.130; -182.857; -665.161; -456.711
508.413; -174.263; -758.167; -577.700
508.697;  -12.163; -151.167;   12.300
508.980; -136.749; -422.153; -312.724
509.263; -149.152; -466.155; -450.720
509.547;  -61.447; -124.150;   82.271
509.830;  -12.656; -172.160;  140.289
510.113;   45.748;  128.844;  298.281
510.396; -163.349; -530.152; -300.725
510.680; -271.742; -818.145; -812.738
510.963;   27.250;  184.846;  180.277
511.246; -175.446; -493.150; -357.730
511.529; -131.541; -482.145;  -83.739
511.812;  -29.030; -250.134;   10.241
512.095; -222.547; -740.151; -396.728
512.378; -101.143; -317.147; -245.736
512.661; -219.434; -703.137; -623.753
512.944; -200.739; -750.142; -637.744
513.227;  -76.834; -170.137; -171.752
513.510; -144.940; -479.144; -671.741
513.793; -150.237; -485.140; -435.747
514.076;  -43.024;  -43.127;  -39.771
514.359;  -71.545; -294.149; -135.732
514.642; -161.138; -442.142; -567.744
514.925;  167.263;  581.860;  561.253
515.208; -170.231; -498.134; -443.758
515.491;  -58.929; -276.133; -182.761
515.773; -124.840; -410.143; -337.742
516.056;   86.667;  249.864;  409.246
516.339; -258.233; -754.136; -652.755
516.622; -170.746; -518.150; -488.730
516.904;  245.761;  882.857;  975.257
517.187; -219.134; -730.138; -523.752
517.470; -158.639; -568.143; -510.743
517.752; -166.632; -624.136; -470.756
518.035; -220.836; -708.139; -725.749
518.318; -276.733; -799.136; -744.755
518.600; -118.729; -300.132; -325.762
518.883;   57.562;  310.858;   88.256
519.165; -172.935; -585.138; -426.751
519.448;  -39.729;  -61.132;  -19.762
519.730; -199.423; -573.126; -415.773
520.013;  147.870;  588.867;  664.240
520.295;  -45.330;  -94.134;  -15.759
520.578; -126.228; -335.131; -305.764
520.860;  -52.429; -254.132;   56.238
521.143; -217.732; -763.135; -584.756
521.425; -101.022; -251.125; -279.775
521.707; -173.224; -622.127; -380.771
521.990;    2.576; -199.127;  167.229
522.272;  -79.737; -116.140;   -4.748
522.554;  -67.640; -237.143; -157.742
522.836;  -51.931;  -24.134;   99.241
523.119; -159.644; -496.148; -189.734
523.401; -142.927; -448.130; -314.766
523.683; -229.834; -865.137; -693.753
523.965;   51.566;  408.862;  260.248
524.247;  -17.819;   54.878;  170.220
524.529; -176.330; -451.134; -367.759
524.812;  -20.227;   -3.130;  191.234
525.094; -245.034; -773.138; -631.751
525.376;  -69.921; -143.124;   78.223
525.658; -131.833; -441.136; -339.754
525.940; -246.728; -805.131; -671.764
526.222; -111.032; -188.136;  -88.755
526.504;  -78.928; -190.131;   32.237
526.786; -273.030; -960.133; -647.760
527.068;  -97.620; -124.123;  -67.778
527.349; -256.033; -865.137; -774.754
527.631;  -42.729; -137.132;   22.238
527.913; -199.824; -664.127; -450.771
528.195; -251.222; -761.125; -639.774
528.477;  -65.531;  -93.134;  -30.758
528.759; -205.927; -648.130; -522.766
529.040; -146.920; -569.123; -293.778
529.322;  -78.622; -235.125;  -10.774
529.604;  -44.926;  -47.130;   93.233
529.886; -141.223; -546.126; -302.773
530.167;   33.573;  232.870;  192.235
530.449;  -35.643;    1.853;   63.265
530.731; -163.919; -572.122; -459.779
531.012; -176.117; -513.120; -216.784
531.294;  -80.013; -118.116;  -43.792
531.575;   95.878;  290.875;  538.225
531.857; -177.631; -548.135; -266.757
532.138;  -12.037; -113.141;   40.254
532.420;   41.868;  294.865;  403.244
532.701; -281.430; -722.133; -751.760
532.983;   71.071;  232.867;  182.239
533.264;  -22.923; -243.126;  175.228
533.546; -121.133; -491.136; -508.755
533.827;  -32.230;  173.867;   -1.759
534.109; -163.231; -352.135;  -80.757
534.390; -236.329; -725.132; -582.762
534.671; -107.432; -270.135;  -82.756
534.953; -230.820; -751.123; -611.779
535.234; -149.114; -426.117; -255.789
535.515; -258.216; -891.119; -735.785
535.796; -147.024; -431.128; -193.770
536.078; -324.421;-1050.124; -904.777
536.359;  -50.020;  -22.123;    3.221
536.640; -131.822; -480.125; -197.774
536.921;   31.474;  225.871;  143.232
537.202;  -77.235;  -87.138;  -16.751
537.483;   42.172;  251.869;  377.236
537.764;    7.473;   17.870;   98.235
538.045; -179.131; -543.134; -371.758
538.326; -179.326; -596.129; -447.768
538.607; -218.024; -686.127; -476.771
538.888;  -26.718;   98.879;    5.218
539.169; -213.919; -704.122; -535.781
539.450;   44.274;  236.871;   16.233
539.731; -111.718; -361.121; -182.783
540.012;   25.983;  199.880;  412.216
540.293;  -14.321;   82.876;  158.224
540.574; -286.710; -895.113; -717.796
540.855;   84.582;  435.879;  377.218
541.136;   10.681;   47.878;  139.220
541.416; -109.027; -161.130; -220.766
541.697; -140.928; -274.131; -170.763
541.978; -129.232; -270.135; -315.757
542.259; -139.224; -211.127; -236.771
542.539; -118.813; -191.116; -186.790
542.820;   81.478;  461.875;  480.225
543.101; -120.741;  -52.145;  -77.738
543.381; -268.724; -638.127; -591.771
543.662;  -20.624;  159.873; -254.771
543.942; -278.524; -751.127; -830.770
544.223;   -5.319;  193.878;  161.219
544.504; -123.821; -275.124; -182.777
544.784; -200.123; -592.126; -408.773
545.065; -107.513;  104.884; -254.791
545.345;  -40.016;  227.881;   14.215
545.626;  -70.410;  -14.113; -108.796
545.906;  -45.227;   77.869;   98.235
546.186; -109.023;   92.874;  -95.773
546.467;  -70.620;   99.877;  -95.778
546.747;   17.887;  264.884;  327.210
547.027;  -24.421;   91.876;  111.223
547.308; -173.724; -376.127; -530.770
547.588;   75.675;  299.871;  371.232
547.868;  108.773;  458.870;  588.235
548.149;  128.688;  609.885;  593.207
548.429; -120.124; -347.127; -299.771
548.709; -193.917; -645.120; -461.784
548.989;  -21.815;   84.882;   88.213
549.269; -115.329;   10.868;  139.239
549.550;   -5.220;  215.877;  117.222
549.830; -238.508; -758.111; -556.799
550.110; -167.908; -468.110; -320.801
550.390;  -90.619; -128.122;  -56.779
550.670; -286.511; -868.114; -783.795
550.950; -198.818; -509.121; -471.782
551.230;  114.682;  549.879;  460.218
551.510; -169.418; -381.121; -326.782
551.790;  -96.407; -173.109; -127.803
552.070;  287.080;  940.877; 1181.223
552.350; -151.116; -492.119; -377.786
552.630;   -2.818;   -2.121;   77.219
552.909;   34.187;  181.884;   73.209
553.189;  -74.428;  -49.132;   33.237
553.469; -196.216; -703.119; -514.786
553.749; -177.224; -469.127; -357.772
554.029;  -54.514;   33.883;  -24.790
554.308;  -89.412; -154.115;  -37.794
554.588; -127.924; -196.128; -204.770
554.868; -106.518; -366.121;  -47.782
555.147;  -66.212; -114.115;  -46.793
555.427; -128.013; -260.116; -250.792
555.707; -124.612; -284.115; -200.793
555.986; -236.908; -719.111; -538.800
556.266;  -22.314;   23.884;   72.210
556.546; -276.618; -888.121; -675.782
556.825; -249.911; -657.114; -556.794
557.105;  -31.525; -125.128;   17.230
557.384;   22.987;  122.884;  187.209
557.664; -230.713; -717.116; -508.792
557.943; -184.718; -557.121; -411.782
558.222; -125.215; -345.118; -344.788
558.502;  -70.812; -116.115;  -76.793
558.781;   21.588;  194.885;  499.208
559.061; -122.015; -232.118; -227.788
559.340;   50.286;  302.883;  353.211
559.619;    0.686;   93.884;  148.210
559.899; -127.814; -239.117; -266.789
560.178; -234.212; -778.115; -593.793
560.457; -244.814; -623.117; -562.790
560.736; -157.208; -472.111; -482.800
561.015; -214.025; -500.128; -502.769
561.295;  -28.505;  180.893;  215.193
561.574;  -40.512;  119.885;  116.207
561.853;   44.394;  274.891;  303.197
562.132;  -42.512;  -45.114;  182.206
562.411;   97.182;  396.879;  553.219
562.690; -200.012; -592.115; -458.792
562.969;  149.290;  472.888;  630.203
563.248;  729.181; 2966.878; 2487.219
563.527; -121.508; -290.111; -408.800
563.806; -239.224; -650.127; -521.771
564.085; -108.703; -297.105; -206.810
564.364; -208.614; -594.117; -405.790
564.643; -107.418; -276.121; -223.781
564.922;   26.493;  221.890;  397.198
565.201; -230.507; -640.109; -700.803
565.479; -100.513; -297.115; -219.792
565.758; -284.025; -810.128; -712.770
566.037;  -98.006; -155.109; -100.803
566.316; -128.013; -286.116;  -28.791
566.595;  -66.512;  -17.115;  -12.793
566.873;   80.492; -166.111;  -79.801
567.152; -203.410; -490.113; -590.797
567.431;  -74.813; -113.116;    6.210
567.709; -114.305; -344.107; -212.807
567.988; -314.711; -810.114; -769.794
568.266;  -79.412; -160.115;  -68.793
568.545; -214.398; -644.100; -514.819
568.824;   23.787;  160.885;  356.208
569.102; -129.911; -351.114; -235.794
569.381; -159.813; -492.116; -407.792
569.659; -207.410; -553.113; -553.796
569.938; -224.519; -743.122; -465.780
570.216; -101.206; -225.109; -225.804
570.494; -216.711; -632.114; -572.795
570.773;   24.682;  202.879;  114.218
571.051; -141.020; -373.123; -357.778
571.330;  -71.410; -221.113; -174.796
571.608;  -73.496; -181.098; -173.823
571.886; -235.409; -671.111; -581.799
572.164; -226.118; -739.121; -621.782
572.443; -195.202; -562.105; -512.811
572.721; -166.314; -399.117; -289.790
572.999; -132.414; -280.117; -168.788
573.277;   92.197;  379.894;  620.191
573.555;  -67.003;   94.894;   37.190
573.834; -119.415;  -86.117; -114.788
574.112;  200.796;  880.893;  811.193
574.390;  -16.408; -143.111;  -96.801
574.668;  -83.410;  -91.112;  -61.797
574.946; -106.703; -165.106; -187.810
575.224;  -42.407;   71.891;  -16.803
575.502; -101.813; -200.116; -204.791
575.780; -221.510; -767.112; -829.798
576.058;  460.192; 1589.889; 1004.200
576.336;  -75.707; -210.110; -129.801
576.614; -168.909; -511.112; -340.798
576.891; -220.712; -711.115; -823.794
577.169; -111.005; -158.108; -285.805
577.447;   54.996;  169.893;  202.193
577.725;  139.391;  629.888;  854.201
578.003; -142.309;  -71.112; -371.798
578.280; -113.302; -208.104; -242.812
578.558; -175.612; -450.115; -422.793
578.836; -103.911; -210.114; -145.795
579.114; -221.010; -630.112; -670.797
579.391;  -48.214;   -6.117;  -18.789
579.669; -236.012; -595.114; -704.794
579.947; -116.205; -326.107; -127.806
580.224; -204.105; -692.107; -524.806
580.502;  -46.604;  127.893;   76.193
580.779;  -60.714;  -42.117;   75.210
581.057; -204.106; -584.109; -470.804
581.334; -253.500; -726.102; -695.815
581.612;   11.197;   54.895;  511.190
581.889; -109.298;  -83.101; -129.818
582.167; -109.197; -298.099; -190.821
582.444; -251.799; -845.102; -814.817
582.721;  164.401;  657.899;  715.183
582.999;  -86.997; -326.100; -167.821
583.276; -264.920; -812.123; -713.779
583.553; -157.199; -364.102; -294.816
583.831; -251.902; -607.104; -631.812
584.108;   24.994;  349.892;  174.195
584.385;  -81.700; -122.102;  -98.815
584.662; -222.508; -651.111; -828.801
584.940;    6.592;  204.889;  204.199
585.217; -127.810;  -73.113; -303.796
585.494;    7.393;   71.890;  118.198
585.771; -120.206; -250.109; -354.804
586.048;  -64.410; -196.113;  -76.796
586.325; -240.208; -721.110; -773.801
586.602;    7.799;  230.896;  213.188
586.879; -214.397; -499.100; -580.820
587.156;  -99.603; -156.105; -331.810
587.433; -239.399; -701.102; -667.817
587.710;  -11.309;  152.888;  234.202
587.987; -127.702; -264.105; -236.811
588.264;   66.291;  315.888;  387.202
588.541;  -47.501;  -61.104;   26.187
588.818;  -37.906;   72.892;  171.196
589.095;  -97.702; -163.104; -174.812
589.371; -154.906; -459.109; -414.804
589.648; -188.704; -581.107; -437.807
589.925; -216.911; -517.114; -621.795
590.202; -235.009; -741.112; -607.798
590.478;  -83.902; -166.105;  -73.811
590.755; -133.905; -241.108; -132.806
591.032; -231.807; -741.110; -699.802
591.308; -280.591; -732.094; -790.831
591.585; -194.507; -573.110; -560.802
591.862; -297.699;-1056.102; -950.817
592.138; -148.005; -475.108; -474.805
592.415; -177.501; -486.104; -495.813
592.691;   93.998;  460.896;  518.188
592.968; -111.695; -208.098; -123.824
593.244; -253.613; -695.116; -595.790
593.521;  -56.899; -105.102;  -42.817
593.797; -260.119; -810.122; -720.780
594.074; -226.394; -611.096; -588.826
594.350;  185.507;  828.905;  729.172
594.626;  -72.308; -303.111; -283.801
594.903; -207.999; -643.101; -645.817
595.179;   63.299;  243.896;  418.187
595.455;  -80.404; -136.107; -150.807
595.731;  -80.301;  -19.103;  -38.814
596.008; -149.608; -464.111; -434.800
596.284;  -86.597; -187.100; -242.820
596.560; -195.791; -501.093; -493.833
596.836;  -97.903; -173.105;  -70.810
597.112; -162.605; -582.108; -437.805
597.388;  -60.194;  -49.097;  -48.826
597.665;   68.590;  437.887;  530.203
597.941; -226.187; -572.089; -658.839
598.217; -139.007; -323.110; -293.802
598.493; -113.706;   61.891; -204.804
598.769;  -93.098; -175.100;  -50.819
599.045; -211.405; -490.108; -562.806
599.321; -142.697; -193.100; -261.820
599.597; -143.406; -355.109; -476.804
599.872;   83.599;  409.896;  429.187
600.148;  -82.294;  -61.097; -172.826
600.424;   25.396;   91.893;  202.193
600.700;  -73.304; -170.107; -280.807
600.976; -171.595; -442.097; -464.825
601.252; -122.506; -226.109; -272.803
601.527; -291.901; -833.104; -840.813
601.803; -163.202; -453.105; -404.812
602.079;  -77.498; -124.100; -118.819
602.354; -180.889; -620.092; -531.835
602.630; -102.710; -140.113; -482.796
602.906; -270.598; -910.101; -863.818
603.181; -187.416; -627.119; -534.786
603.457;  -66.094;   98.903; -278.826
603.733; -208.518; -605.120; -626.783
604.008;  -72.703; -245.106; -164.810
604.284; -190.399; -636.101; -580.817
604.559;  -79.009;   -3.112;  -42.799
604.835;  -90.503; -163.105; -225.810
605.110; -269.097; -732.099; -892.821
605.385;   60.410;  224.907;  267.167
605.661; -223.593; -625.095; -729.829
605.936; -243.005; -664.108; -737.806
606.211;  -12.500;  -17.103; -170.815
606.487; -102.811; -329.114; -376.794
606.762; -257.016; -791.119; -745.786
607.037; -136.703; -501.105; -433.810
607.313; -194.993; -589.096; -574.828
607.588;  -81.403; -375.106; -137.810
607.863;  -79.898;  -28.101; -143.818
608.138;   82.593;  513.890;  516.198
608.413; -177.096; -576.099; -592.822
608.688; -113.905; -203.108; -267.805
608.964; -131.204; -509.106; -218.809
609.239;  -83.103; -107.105; -212.810
609.514;   28.298;  281.895;  240.188
609.789; -242.901; -187.104; -716.812
610.064; -195.993; -435.096; -609.827
610.339; -271.306; -855.109; -799.804
610.614; -114.197; -131.100; -315.820
610.889;   13.798;  215.895;  107.188
611.163; -181.402; -407.104; -591.812
611.438; -117.211;   81.886; -167.794
611.713; -169.799; -467.101; -499.817
611.988; -124.699; -144.101; -328.818
612.263; -276.600; -771.102; -717.815
612.538;   57.390;  385.887;  251.204
612.812; -275.497; -832.100; -911.820
613.087; -144.996; -358.098; -338.823
613.362; -205.904; -497.107; -557.807
613.637;   33.600;  261.897;  138.186
613.911; -116.889; -256.092; -345.835
614.186; -160.804; -249.107; -292.807
614.460; -247.979; -842.081; -758.854
614.735;  -62.385;  -55.087;  -17.843
615.010;  -25.286;   43.912;  -82.841
615.284;   45.595;  360.892;  246.195
615.559; -280.290; -792.092; -955.835
615.833;  -60.497;  -76.099;  -87.822
616.108; -119.788; -225.090; -390.837
616.382;   62.815;  274.913;  402.156
616.656;  -93.788; -241.090; -232.837
616.931; -264.996; -785.099; -700.822
617.205; -291.401; -973.104; -979.813
617.480;  -51.022;  -91.125;    6.225
617.754; -126.922; -396.125; -128.774
618.028; -150.325; -369.129; -382.768
618.302;  -17.306;   73.892;  -25.805
618.577; -172.400; -371.103; -518.815
618.851; -195.507; -399.109; -600.803
619.125; -157.430; -335.134; -378.759
619.399;  -71.601; -244.104; -374.813
619.673; -150.513; -330.115; -515.792
619.947; -164.611; -333.114; -448.795
620.222;  -85.708; -198.110; -204.801
620.496;  -57.318;  -47.121;  -96.782
620.770;  -86.319; -187.122;  -93.781
621.044;   53.797;  323.895;  346.190
621.318; -215.217; -653.120; -614.783
621.592; -151.418; -430.121; -409.783
621.866; -176.609; -476.112; -572.799
622.140;  -86.713; -207.116; -356.791
622.413;    8.692;  138.889;  112.200
622.687; -180.599; -746.101; -492.817
622.961;  -53.606; -130.108; -143.805
623.235; -262.908; -633.111; -661.800
623.509; -265.002; -816.105; -848.811
623.783;   31.195;  -12.107;   48.193
624.056; -117.117; -254.120; -280.783
624.330;   25.190;   63.888;   -3.797
624.604;  -96.714; -271.116; -355.790
624.877;  -49.307;  180.890;   26.198
625.151;  -98.112; -249.114; -238.794
625.425;  -79.501; -150.103; -283.814
625.698; -173.016; -367.119; -374.785
625.972; -275.707; -799.110; -765.802
626.245;  107.287;  685.884;  484.210
626.519; -135.317; -426.120; -340.784
626.792;  -96.104; -192.107; -380.807
627.066; -223.019; -485.122; -662.779
627.339; -248.907; -736.110; -663.802
627.613;   33.983;  351.880;  148.216
627.886;   24.193;  187.891; -612.803
628.160;  -90.017;  312.880; -161.783
628.433; -246.522; -695.125; -703.775
628.706; -191.917; -517.120; -615.784
628.979;    5.279;  296.876;  117.223
629.253; -297.316; -785.119; -833.786
629.526; -122.023; -334.126; -253.772
629.799; -196.920; -641.123; -479.778
630.072; -189.625; -497.128; -516.769
630.346; -318.713;-1115.116;-1080.790
630.619; -175.904; -467.107; -545.808
630.892;  144.492;  709.889;  593.200
631.165;  179.299;  790.896;  679.187
631.438; -333.909;-1092.112;-1055.798
631.711;   75.080;  453.877;  257.221
631.984; -168.914; -523.117; -624.789
632.257; -219.414; -636.117; -681.789
632.530; -116.816; -412.119; -433.785
632.803;   18.388; -109.115;    7.207
633.076; -152.420; -360.123; -422.777
633.349;   24.375;  173.872;  121.231
633.622; -128.616; -187.119; -240.785
633.895; -307.217; -903.120; -823.783
634.167; -168.423; -496.126; -525.773
634.440;  -20.713;  -19.116; -137.792
634.713;  -12.216;  -22.119; -120.786
634.986;  140.674;  593.871;  453.233
635.258; -211.112; -507.115; -597.793
635.531;  166.485;  742.882; -343.788
635.804; -104.714; -303.117; -318.789
636.077; -271.313; -830.116; -852.791
636.349; -184.412; -586.115; -474.793
636.622;  501.977; 1695.874; 1392.228
636.894; -156.417; -474.120; -909.784
637.167; -255.224; -836.127; -789.771
637.439; -108.524; -278.128; -213.770
637.712; -123.223; -312.126; -293.772
637.984; -230.713; -635.116; -707.791
638.257;  147.680;  515.877;  488.222
638.529; -270.821; -881.125; -924.776
638.802; -185.325; -508.128; -449.769
639.074; -336.919; -927.122; -952.781
639.346; -279.831; -942.135; -930.757
639.619;  -54.138;  -79.142; -319.744
639.891;  -67.819;  -83.122; -168.779
640.163; -215.919; -689.122; -756.780
640.435;   11.081;  273.878;  103.220
640.708;  -37.919;  -72.122; -132.780
640.980; -161.319; -366.122; -362.781
641.252;  -29.918;  -25.121;  -71.781
641.524;  150.482;  580.879;  573.219
641.796; -307.718;-1094.121; -907.782
642.068; -131.418; -191.121; -300.782
642.340; -181.418; -486.121; -566.783
642.613;   51.483;  294.880;  323.217
642.885; -265.617; -787.120; -878.783
643.157; -257.817; -810.120; -658.784
643.428;   44.983;  170.880;  218.216
643.700; -126.617; -498.120; -425.784
643.972;  -42.216;  -16.119; -133.785
644.244; -198.416; -474.119; -559.785
644.516;  -87.716; -250.119; -114.786
644.788;  162.184;  662.881;  548.214
645.060;  -18.716;  -12.119; -124.786
645.332; -176.415; -525.118; -535.787
645.603;   78.485;  479.882;  342.213
645.875; -140.715; -334.118; -369.787
646.147;  332.985; 1487.882; 1242.212
646.418; -302.815; -931.117; -918.788
646.690; -245.614; -714.117; -715.789
646.962; -151.814; -413.117; -451.789
647.233;   21.686;   15.883;   11.211
647.505; -192.814; -595.117; -475.790
647.776;   87.286;  328.884;  229.210
648.048;  -87.113; -248.116; -418.790
648.320; -244.613; -752.116; -679.791
648.591; -302.213;-1055.116; -958.791
648.862; -161.513; -505.116; -577.792
649.134;    2.187;  115.885;  198.208
649.405; -199.012; -661.115; -618.792
649.677; -173.612; -475.115; -598.793
649.948;  -66.112; -181.115; -296.793
650.219;  -38.212;  -37.115; -147.793
650.491; -139.212; -431.114; -520.794
650.762; -218.011; -705.114; -731.794
651.033; -153.611; -437.114; -424.795
651.304; -265.511; -743.114; -728.795
651.576; -202.011; -680.114; -645.795
651.847;  -64.411; -250.113; -140.796
652.118;  -37.510;  -32.113; -189.796
652.389; -189.510; -639.113; -722.796
652.660;  -56.410; -147.113;  -89.797
652.931; -281.010; -897.112; -871.797
653.202; -164.210; -382.112; -541.798
653.473; -172.609; -633.112; -533.798
653.744; -176.809; -595.112; -590.798
654.015; -163.409; -356.112; -303.799
654.286; -200.909; -642.111; -663.799
654.557; -213.909; -586.111; -521.799
654.828; -322.308;-1114.111;-1088.800
655.099; -171.608; -404.111; -291.800
655.370; -161.508; -427.111; -543.801
655.641; -214.308; -656.110; -714.801
655.911; -205.207; -618.110; -638.801
656.182;   67.793;  437.890;  387.198
656.453;  173.293;  830.890;  746.198
656.724; -147.307; -466.110; -426.802
656.994; -168.307; -553.109; -568.803
657.265; -259.906; -862.109; -873.803
657.536; -143.306; -500.109; -377.804
657.806; -178.406; -561.109; -593.804
658.077; -256.106; -866.109; -950.804
658.347; -168.306; -523.108; -598.805
658.618; -203.705; -646.108; -694.805
658.888;  -64.105;  -41.108;  112.195
659.159; -151.405; -432.108; -548.806
659.429; -131.005; -292.108; -349.806
659.700; -121.105; -435.107; -390.807
659.970; -151.404; -370.107; -359.807
660.241; -283.204; -754.107; -921.807
660.511;  -32.904; -147.107; -174.808
660.781; -203.604; -793.106; -748.808
661.052;  -99.504; -222.106; -381.808
661.322;  -40.303;   21.894;   -9.809
661.592;   28.197;  257.894;  148.191
661.862; -158.303; -369.106; -382.810
662.133; -206.503; -551.105; -502.810
662.403; -237.703; -770.105; -676.810
662.673; -104.102; -256.105; -213.811
662.943; -202.002; -612.105; -551.811
663.213;  -47.202;  -85.105;  -81.811
663.483; -181.302; -593.104; -568.812
663.753;  -89.302; -194.104; -152.812
664.023;   -7.101;   68.896;  -32.813
664.293; -103.401; -319.104; -126.813
664.563; -210.801; -694.104; -648.813
664.833; -217.201; -743.103; -608.814
665.103; -267.601; -730.103; -793.814
665.373; -239.900; -766.103; -806.814
665.643; -283.300; -863.103; -918.815
665.913; -209.200; -534.103; -714.815
666.182; -210.500; -685.102; -719.816
666.452; -103.200;  -22.102;  -89.816
666.722; -251.299; -724.102; -784.816
666.992; -309.899; -948.102; -921.817
667.261; -243.099; -824.102; -808.817
667.531;  -58.599;  134.899;   45.183
667.801; -137.299; -440.101; -412.818
668.070;  180.802;  714.899;  697.182
668.340; -256.598; -883.101; -840.819
668.609;  120.802;  588.900;  301.181
668.879; -181.198; -490.100; -558.819
669.149; -164.098; -539.100; -516.820
669.418; -238.097; -698.100; -726.820
669.688; -177.497; -482.100; -666.820
669.957; -184.197; -423.099; -546.821
670.226; -117.697; -268.099; -331.821
670.496; -170.997; -431.099; -635.822
670.765; -170.896; -418.099; -501.822
671.034; -280.496; -872.099; -828.822
671.304;  -11.896;   55.902; -111.823
671.573; -328.396;-1085.098; -957.823
671.842; -103.196; -380.098; -294.823
672.112; -182.895; -692.098; -586.824
672.381;  -73.895; -239.098; -214.824
672.650; -289.795;-1005.097;-1021.825
672.919; -226.995; -631.097; -507.825
673.188; -214.795; -681.097; -878.825
673.457; -344.694;-1101.097;-1143.826
673.726; -188.694; -579.096; -646.826
673.995; -158.294; -533.096; -479.826
674.265; -150.894; -263.096; -333.827
674.534;  -78.693; -183.096; -235.827
674.802; -157.093; -618.096; -703.828
675.071; -275.693; -886.095; -801.828
675.340; -190.593; -464.095; -339.828
675.609;   14.707;  103.905;   82.171
675.878; -301.792; -949.095; -893.829
676.147;  -30.592;  -26.095;   -8.829
676.416;  -87.992; -210.094; -294.830
676.685;  279.708; 1000.906; -622.830
676.953; -191.292; -603.094; -452.831
677.222;  -96.491; -193.094; -273.831
677.491;  -37.591;  -24.094; -127.831
677.759;  -40.891;   11.907;  172.168
678.028; -109.291; -279.093; -222.832
678.297;  -22.291;   71.907;  197.168
678.565; -250.290; -898.093; -944.833
678.834; -134.090; -311.093; -268.833
679.102; -136.790; -411.092; -391.834
679.371; -287.890; -898.092; -727.834
679.639; -272.990; -797.092; -786.834
679.908; -233.889; -794.092; -724.835
680.176; -292.289; -895.091; -941.835
680.445; -132.989; -346.091; -352.835
680.713;    3.711;  -58.091;  -23.836
680.982; -190.189; -523.091; -525.836
681.250; -187.788; -578.091; -507.837
681.518; -208.188; -534.090; -751.837
681.787;  -90.388; -204.090; -167.837
682.055; -165.788; -490.090; -422.838
682.323; -273.588; -993.090; -992.838
682.591;  -97.687; -216.090; -538.838
682.859;  -58.187;    9.911;  -35.839
683.128;   21.713;  232.911;  497.161
683.396; -358.187;-1102.089;-1122.840
683.664; -109.787; -241.089;   21.160
683.932;   37.314;  144.911;  -76.840
684.200; -155.886; -576.088; -320.841
684.468;  -31.286;  -73.088; -124.841
684.736;  -65.786; -214.088; -175.841
685.004; -336.186;-1024.088; -982.842
685.272; -274.185; -880.088; -774.842
685.540; -195.585; -499.087; -557.843
685.808; -198.085; -651.087; -682.843
686.076; -294.285; -894.087; -969.843
686.343; -221.785; -601.087; -815.844
686.611;  -74.884; -195.087; -224.844
686.879; -159.484; -530.086; -553.844
687.147; -162.884; -483.086; -480.845
687.414;  -72.684;  -12.086; -169.845
687.682; -220.284; -658.086; -757.846
687.950;   46.017;  259.915;  263.154
688.217; -226.283; -792.085; -760.846
688.485; -193.283; -632.085; -636.847
688.753;  -23.083;  -11.085; -102.847
689.020; -260.683; -820.085; -851.847
689.288; -269.582; -853.084; -787.848
689.555;  -82.182; -195.084; -148.848
689.823; -123.282; -241.084; -345.849
690.090; -216.282; -546.084; -651.849
690.358; -329.782; -877.084; -897.849
690.625;   27.119;  120.917;   45.150
690.892; -146.181; -403.083; -369.850
691.160;  -38.081;   72.917;  -35.850
691.427;   14.919;  141.917;  130.149
691.694; -291.481; -855.083; -929.851
691.962; -327.980;-1177.082;-1060.852
692.229;  -10.180;  127.918;   56.148
692.496;   -6.480;  130.918;  -49.852
692.763;  -67.780; -164.082; -201.853
693.031; -193.380; -739.082; -716.853
693.298; -198.779; -509.081; -368.853
693.565;  -67.679; -155.081; -163.854
693.832;  -25.279;   -5.081;   -9.854
694.099; -199.479; -643.081; -642.855
694.366; -289.578; -882.081; -896.855
694.633; -268.178; -920.080; -633.855
694.900; 1299.222; 4367.920; -114.856
695.167;  -75.378; -214.080; -380.856
695.434; -235.878; -646.080; -623.856
695.701;   37.723;  121.921;  -61.857
695.968; -147.677; -365.079; -361.857
696.234; -195.477; -415.079; -646.858
696.501; -179.377; -776.079; -614.858
696.768; -212.577; -554.079; -617.858
697.035; -226.076; -632.078; -667.859
697.302; -206.476; -448.078; -552.859
697.568; -146.676; -458.078; -497.859
697.835; -213.776; -683.078; -624.860
698.102; -172.076; -498.078; -407.860
698.368;   63.125;  384.923;  396.139
698.635; -147.375;  -47.077; -424.861
698.901; -119.475; -240.077; -348.861
699.168; -160.675; -534.077; -456.862
699.435;  -43.175;  -72.077;  -13.862
699.701; -299.874; -868.076; -764.862
699.968; -136.974;  144.924; -441.863
700.234; -260.274; -783.076; -822.863
700.500; -143.174; -448.076; -539.864
700.767;  -10.274;   -1.075;   26.136
701.033; -281.273;-1015.075; -963.864
701.299; -172.273; -450.075; -483.865
701.566;  191.427;  950.925;  763.135
701.832;   14.127;  -31.075;  -76.865
702.098; -302.873;-1054.074;-1034.866
702.365; -331.072;-1098.074;-1030.866
702.631; -338.972;-1038.074;-1063.867
702.897; -211.572; -765.074; -676.867
703.163;   39.228;  348.926;  254.133
703.429; -121.672; -256.073; -273.868
703.695; -230.371; -796.073; -792.868
703.961;  -76.771; -214.073; -210.868
704.227; -241.271; -630.073; -725.869
704.493;  164.029;  613.927;  510.131
704.759; -157.671; -565.072; -540.870
705.025;  -47.570; -203.072; -194.870
705.291; -194.870; -666.072; -562.870
705.557;  207.830;  719.928;   34.129
705.823; -196.370; -742.072; -694.871
706.089; -135.870; -307.071; -326.871
706.355;  -93.969; -315.071; -244.872
706.620; -250.069; -776.071; -729.872
706.886; -119.469; -309.071; -362.873
707.152; -286.469; -818.070; -973.873
707.418; -368.369;-1153.070;-1186.873
707.683; -184.368; -550.070; -530.874
707.949; -196.268; -547.070; -578.874
708.215;  -54.868; -129.070; -207.874
708.480; -136.368; -520.069; -420.875
708.746;  -37.668;   68.931;   28.125
709.011; -169.967; -578.069; -612.876
709.277; -172.667; -538.069; -543.876
709.542; -141.267; -428.069; -387.876
709.808;  -45.767;  -59.068;   89.123
710.073; -217.867; -577.068; -695.877
710.339; -101.166; -242.068; -228.877
710.604; -272.566; -780.068; -845.878
710.869; -131.466; -277.068; -366.878
711.135; -209.366; -715.067; -628.879
711.400; -190.666; -507.067; -608.879
711.665; -163.665; -404.067; -479.879
711.931; -219.765; -661.067; -677.880
712.196; -297.465; -876.067; -954.880
712.461; -174.865; -402.066; -490.880
712.726; -225.664; -727.066; -771.881
712.991; -215.264; -647.066; -664.881
713.256; -137.364; -350.066; -332.882
713.521; -165.864; -417.065; -381.882
713.787; -193.664; -454.065; -472.882
714.052; -123.063; -214.065; -400.883
714.317; -364.063;-1045.065; -981.883
714.581; -110.363; -374.065; -268.883
714.846; -250.363; -822.064; -888.884
715.111;   28.937;  261.936;  257.116
715.376;  -75.062;  -86.064; -223.885
715.641; -129.562; -365.064; -367.885
715.906; -173.062;   15.936; -551.885
716.171;   49.338;  221.937;  209.114
716.436;  -53.062;  -78.063; -104.886
716.700; -246.561; -818.063; -692.886
716.965; -239.061; -794.063; -807.887
717.230; -141.461; -339.063; -392.887
717.494;  -46.261;  -40.062; -134.888
717.759; -213.761; -784.062; -640.888
718.024;   60.140;  269.938;  250.112
718.288;  139.640;  685.938;  395.111
718.553; -287.160; -803.062; -977.889
718.817; -290.560; -883.061; -899.889
719.082;  -42.160; -115.061; -125.890
719.346; -302.359;-1000.061; -947.890
719.611;  -89.259; -300.061; -255.891
719.875; -195.459; -568.060; -537.891
720.140; -172.659; -453.060; -603.891
720.404;  -92.259; -136.060; -249.892
720.668; -108.558; -475.060; -411.892
720.933;   20.242;  146.940;  137.108
721.197; -228.758; -667.059; -600.893
721.461; -291.758; -851.059; -826.893
721.725;   -0.858;  -21.059; -250.894
721.990; -112.157; -284.059; -204.894
722.254;  -49.357;  -26.059; -108.894
722.518; -141.257; -286.058; -442.895
722.782; -175.057; -743.058; -594.895
723.046;  190.643;  614.942;  570.105
723.310;   69.444;  374.942;  210.104
723.574; -199.856; -654.058; -614.896
723.838; -189.856; -576.057; -642.897
724.102;  -91.056; -226.057; -239.897
724.366; -300.056;-1032.057; -978.897
724.630; -221.055; -749.057; -571.898
724.894; -195.055; -722.057; -514.898
725.158;  -21.755;   38.944; -295.898
725.422; -149.355; -394.056; -327.899
725.685; -141.455; -441.056; -349.899
725.949; -210.954; -566.056; -519.900
726.213; -257.354; -732.056; -811.900
726.477; -304.154;-1020.055; -933.900
726.740;  -82.254; -274.055; -104.901
727.004; -159.954; -384.055; -510.901
727.268; -148.353; -442.055; -400.901
727.531; -281.153; -961.055; -775.902
727.795; -223.953; -713.054; -673.902
728.059; -187.453; -552.054; -557.903
728.322; -224.153; -841.054; -669.903
728.586; -192.752; -692.054; -701.903
728.849; -246.752; -695.053; -756.904
729.112; -241.352; -812.053; -912.904
729.376; -289.752; -959.053; -905.904
729.639; -143.752; -536.053; -536.905
729.903; -238.451; -733.053; -699.905
730.166; -107.251; -437.052; -399.906
730.429;  -95.951; -317.052; -468.906
730.693; -192.251; -355.052; -894.906
730.956;  189.549;  810.948;  651.093
731.219;  -86.950; -310.052; -103.907
731.482; -289.950;-1003.051; -894.907
731.745; -302.450; -794.051; -935.908
732.009;  -42.750;  -30.051;   50.092
732.272; -247.149; -904.051; -771.909
732.535; -147.649; -300.051; -310.909
732.798; -356.449;-1083.050;-1166.909
733.061; -179.949; -430.050; -456.910
733.324;  -35.149;   31.950; -180.910
733.587;   90.252;  290.950;  365.090
733.850; -206.948; -973.049;-1050.911
734.113;   17.452;   33.951;   32.089
734.376; -152.848; -328.049; -447.912
734.639;  300.352; 1188.951; 1011.088
734.901;  -83.447; -180.049; -402.912
735.164; -266.147; -883.048; -837.913
735.427;  -43.847; -166.048; -355.913
735.690;  -93.847; -205.048; -234.913
735.952; -307.147; -923.048; -925.914
736.215; -328.746;-1113.048;-1009.914
736.478; -247.846; -771.047; -774.915
736.740;   -3.346;   33.953;  129.085
737.003; -214.446; -658.047; -672.915
737.266;  229.154;  -94.047;   46.084
737.528; -234.045; -682.047; -660.916
737.791; -138.145; -316.046; -327.916
738.053;   58.155;  465.954;  649.083
738.316; -107.345; -162.046; -136.917
738.578; -245.545; -770.046; -736.918
738.841; -148.744; -382.046; -446.918
739.103; -235.144; -875.045; -777.918
739.365;  -42.044;   79.955;  -69.919
739.628; -262.644; -884.045; -805.919
739.890; -205.344; -758.045; -710.919
740.152; -241.143; -692.044; -754.920
740.414; -150.643; -408.044; -359.920
740.677; -200.943; -785.044; -634.921
740.939; -207.443; -587.044; -487.921
741.201; -192.043; -432.044; -572.921
741.463; -191.342; -689.043; -745.922
741.725;  -73.842;  -21.043; -199.922
741.987;   14.158;  220.957;  116.078
742.249; -254.042; -751.043; -859.923
742.511; -234.942; -703.043; -794.923
742.773; -164.941; -546.042; -546.924
743.035;  150.459;  796.958;  533.076
743.297; -306.141; -963.042;-1013.924
743.559;  -74.241; -278.042; -262.925
743.821; -272.641; -735.042; -744.925
744.083; -105.040;  -44.041; -149.925
744.345; -273.040; -869.041; -892.926
744.607;  -15.040;   75.959;  122.074
744.868; -208.240; -490.041; -554.927
745.130; -327.440; -994.041;-1008.927
745.392;  -28.539;   -1.040;  -44.927
745.653; -151.539; -411.040; -378.928
745.915;  213.461;  896.960;  631.072
746.177;  -51.939;   35.960;  -43.928
746.438; -175.639; -428.040; -543.929
746.700; -268.638; -947.039; -988.929
746.961; -259.238; -659.039; -740.930
747.223;  -38.738; -190.039;  -74.930
747.484; -154.038; -391.039; -471.930
747.746;  -70.538;  -23.038; -106.931
748.007; -210.337; -647.038; -689.931
748.269; -103.037; -468.038; -440.931
748.530; -219.137; -852.038; -638.932
748.791; -160.237; -354.038; -420.932
749.053;   49.963;  286.963;  163.067
749.314;  -94.636; -236.037; -169.933
749.575; -274.936; -945.037; -905.933
749.836;  -67.636; -217.037;   86.066
750.098;  -32.836;  -60.037;  -21.934
750.359;  104.665;  414.964;  555.066
750.620;  -64.635; -121.036; -220.935
750.881; -198.335; -585.036; -513.935
751.142; -307.135; -950.036; -938.936
751.403; -204.435; -789.036; -705.936
751.664; -316.734;-1034.035; -999.936
751.925;  -82.734; -175.035; -262.937
752.186; -101.134; -298.035; -278.937
752.447; -171.434; -590.035; -445.937
752.708; -190.734; -532.035; -648.938
752.969; -202.233; -566.034; -576.938
753.230; -214.233; -777.034; -672.939
753.491; -223.233; -650.034; -631.939
753.751;  -15.633;  109.966;   19.061
754.012;   31.067;  258.967;  181.060
754.273;  -88.632; -174.033;  -71.940
754.534; -163.432; -487.033; -580.940
754.794; -284.432; -926.033; -911.941
755.055;  243.568; 1051.967;  881.059
755.316; -182.732; -700.032; -566.942
755.576; -168.931; -606.032; -576.942
755.837; -189.031; -527.032; -695.942
756.097; -173.131; -530.032; -564.943
756.358; -213.431; -725.032; -770.943
756.618; -226.831; -705.031; -641.943
756.879; -124.830; -254.031; -349.944
757.139; -349.730;-1098.031;-1116.944
757.400; -193.830; -538.031; -553.945
757.660; -130.530; -365.031; -401.945
757.920;  -87.530; -266.030; -228.945
758.181; -168.229; -468.030; -351.946
758.441; -246.429; -870.030; -809.946
758.701; -135.829; -308.030; -215.946
758.961;  -93.429; -220.030; -278.947
759.222; -153.629; -574.029; -502.947
759.482; -239.428; -683.029; -723.948
759.742; -223.828; -706.029; -547.948
760.002;  -60.028;  -83.029; -143.948
760.262;  -32.128;   50.972;  182.051
760.522; -188.528; -498.028; -574.949
760.782; -237.927; -738.028; -612.949
761.042; -202.727; -618.028; -573.950
761.302;  -35.227;   55.972;  -18.950
761.562;  -51.827; -164.027; -154.951
761.822; -191.727; -710.027; -551.951
762.082; -350.126;-1104.027;-1093.951
762.342; -134.526; -328.027; -403.952
762.601; -191.726; -567.027; -506.952
762.861;  -95.626; -281.026; -207.952
763.121; -138.426; -406.026; -411.953
763.381; -166.025; -499.026; -485.953
763.640;  -65.625; -139.026; -307.954
763.900;  -90.325; -242.026; -203.954
764.160; -132.525; -458.025; -491.954
764.419; -225.625; -726.025; -782.955
764.679; -235.024; -795.025; -726.955
764.939;  -79.724; -124.025; -210.955
765.198; -179.024; -608.025; -563.956
765.458; -214.124; -710.024; -612.956
765.717; -204.424; -454.024; -590.957
765.976; -130.223; -428.024; -411.957
766.236; -184.123; -475.024; -610.957
766.495;   28.777;  260.977;   73.042
766.755; -337.623;-1090.023; -987.958
767.014; -199.223; -594.023; -665.958
767.273; -120.722; -373.023; -397.959
767.533; -106.522; -228.023; -307.959
767.792;  -54.122; -151.022; -188.960
768.051; -131.822; -228.022; -276.960
768.310; -193.821; -546.022; -650.960
768.569;  -29.421; -161.022;    4.039
768.828; -118.321; -285.022; -363.961
769.088; -330.221;-1050.021; -942.961
769.347; -227.221; -755.021; -599.962
769.606; -266.820; -876.021; -857.962
769.865; -342.720;-1016.021;-1033.963
770.124;  -69.120; -411.021; -336.963
770.383; -278.320; -778.020; -910.963
770.641; -178.920; -398.020; -400.964
770.900; -253.019; -953.020; -846.964
771.159; -298.819; -851.020; -951.964
771.418; -280.719; -917.020; -779.965
771.677;  -83.519; -224.019; -293.965
771.936; -255.219; -794.019; -865.966
772.194; -262.118; -465.019; -437.966
772.453; -108.418; -213.019; -391.966
772.712;  102.782;  416.982;  329.033
772.970;  -28.118;   32.982;   63.033
773.229;  -42.818;  -22.018;  102.033
773.488; -258.917; -814.018; -770.968
773.746;   86.383;  296.982;  335.032
774.005;  -15.717;  190.983;  -22.969
774.263;   24.783;  243.983;  177.031
774.522; -208.717; -422.017; -548.969
774.780; -154.116; -484.017; -417.970
775.039; -175.616; -551.017; -531.970
775.297;  -60.216; -135.016; -351.970
775.555; -197.716; -489.016; -612.971
775.814; -225.016; -618.016; -570.971
776.072; -239.715; -749.016; -740.971
776.330; -204.115; -630.016; -520.972
776.589; -240.715; -703.015; -721.972
776.847; -229.215; -645.015; -624.973
777.105; -340.215;-1016.015;-1032.973
777.363; -130.414; -459.015; -454.973
777.621; -228.014; -660.015; -717.974
777.879;  -31.514;  -42.014;   32.026
778.138; -159.914; -554.014; -717.974
778.396; -208.514; -585.014; -526.975
778.654; -319.613;-1015.014; -970.975
778.912; -131.113; -269.014; -371.976
779.170; -272.713; -880.013; -803.976
779.427; -274.013; -922.013; -897.976
779.685; -303.713; -880.013; -832.977
779.943; -242.212; -654.013; -593.977
780.201; -305.312; -964.012; -883.978
780.459; -221.312; -651.012; -610.978
780.717; -143.812; -440.012; -390.978
780.974; -179.412; -449.012; -490.979
781.232; -128.611; -358.012; -338.979
781.490; -201.511; -551.011; -472.979
781.747; -180.311; -555.011; -476.980
782.005;  100.889;  462.989;  254.020
782.263; -334.911; -542.011;-1004.981
782.520; -153.210; -326.011; -501.981
782.778; -316.510;-1013.010;-1051.981
783.035; -311.410; -962.010; -938.982
783.293;  -83.010; -248.010; -206.982
783.550;  -77.810; -134.010; -198.982
783.808; -246.309; -764.010; -776.983
784.065; -280.009; -745.009; -874.983
784.322;  -46.709;   25.991;  -86.984
784.580; -265.109; -915.009; -771.984
784.837; -175.009; -392.009; -466.984
785.094; -245.108; -783.009; -762.985
785.352; -148.208; -304.008; -404.985
785.609; -290.208; -934.008; -839.985
785.866; -136.908; -345.008; -401.986
786.123; -228.708; -639.008; -583.986
786.380; -203.607; -665.008; -604.987
786.637; -126.207; -225.007; -380.987
786.895; -185.707; -456.007; -543.987
787.152;  -66.007; -135.007; -267.988
787.409;  -57.106; -123.007; -225.988
787.666;  -86.006; -299.006; -378.988
787.923; -199.606; -616.006; -695.989
788.179; -162.806; -551.006; -584.989
788.436; -200.806; -585.006; -585.990
788.693;  -63.605;  -92.006;  -87.990
788.950;  -46.205; -125.005; -112.990
789.207; -149.605; -381.005; -372.991
789.464;  -89.105; -161.005; -301.991
789.720;   19.695;  150.995;  110.009
789.977; -332.104;-1003.005; -671.992
790.234;  -34.304;   44.996;  -66.992
790.490; -296.804; -884.004;-1031.993
790.747;  -62.704;  -85.004;   22.007
791.004; -152.704; -426.004; -348.993
791.260; -166.303; -430.004; -560.994
791.517; -249.203; -843.003; -788.994
791.773; -139.203; -379.003; -342.994
792.030; -230.203; -596.003; -660.995
792.286; -221.003; -686.003; -636.995
792.543;  -46.802;  -74.002; -159.995
792.799; -155.502; -584.002; -382.996
793.055; -374.302;-1179.002;-1210.996
793.312; -291.202; -827.002; -816.997
793.568; -239.802; -746.002; -599.997
793.824; -114.001; -226.001; -284.997
794.081; -150.201; -447.001; -508.998
794.337; -193.901; -664.001; -561.998
794.593; -108.001; -319.001; -271.999
794.849; -235.701; -746.001; -772.999
795.105; -152.300; -270.000; -261.999
795.361; -152.800; -490.000; -457.000
795.617; -299.900; -875.000; -945.000
795.873; -182.100; -360.000; -407.000
796.129; -140.500; -368.000; -306.000
796.385;  -72.900; -124.000; -156.000
796.641;  102.600;  412.000;  550.000
796.897; -192.000; -666.000; -635.000
797.153;  101.300;  453.000;  357.000
797.409; -287.000; -785.000; -868.000
797.665; -247.500; -625.000; -732.000
797.921; -275.300; -775.000; -762.000
798.176; -253.200; -744.000; -747.000
798.432; -263.200; -824.000; -596.000
798.688; -357.300;-1174.000;-1078.000
798.943;  -80.900; -165.000; -147.000
799.199; -308.700;-1005.000; -959.000
799.455;  102.800;  369.000;  316.000
799.710; -259.000; -813.000; -380.000
799.966; -131.600; -162.000; -160.000
800.221; -192.200; -638.000; -721.000
800.477; -249.200; -743.000; -710.000
800.732; -277.600; -773.000; -800.000
800.988;  -12.900;  205.000;  -19.000
801.243; -158.000; -454.000; -344.000
801.498; -256.300; -814.000; -739.000
801.754;  -83.900; -289.000; -163.000
802.009; -117.500; -257.000; -335.000
802.264; -336.100; -967.000;-1033.000
802.520;  -73.000;  222.000;   -3.000
802.775; -168.800; -524.000; -359.000
803.030;   58.500;  395.000;  356.000
803.285; -294.300; -840.000; -903.000
803.540; -221.100; -686.000; -699.000
803.795; -230.600; -648.000; -583.000
804.051; -106.400; -279.000; -346.000
804.306;   30.000;  168.000;  128.000
804.561;   42.000;  451.000;  362.000
804.816;  211.100;  714.000;  861.000
805.071;  -70.400; -185.000; -280.000
805.325; -135.900; -257.000; -427.000
805.580; -293.600; -841.000; -877.000
805.835;  -96.400; -204.000; -297.000
806.090; -249.300; -760.000; -676.000
806.345; -119.400; -344.000; -264.000
806.600; -227.400; -549.000; -632.000
806.854; -188.800; -408.000; -538.000
807.109; -173.400; -493.000; -577.000
807.364; -136.400; -407.000; -328.000
807.618; -181.400; -415.000; -381.000
807.873; -213.000; -470.000; -494.000
808.128; -104.000; -257.000; -518.000
808.382; -121.700; -224.000; -332.000
808.637; -166.100; -440.000; -511.000
808.891;  -84.500; -257.000; -180.000
809.146; -320.800; -902.000; -794.000
809.400; -323.900; -848.000; -923.000
809.654; -245.400; -779.000; -551.000
809.909; -325.300; -841.000; -927.000
810.163; -233.900; -813.000; -651.000
810.418; -321.100; -940.000; -861.000
810.672; -246.500; -685.000; -690.000
810.926; -304.500; -993.000; -973.000
811.180; -163.600; -439.000; -372.000
811.434;   20.400;  240.000;  135.000
811.689; -160.700; -231.000; -365.000
811.943; -302.000; -936.000; -953.000
812.197; -260.500; -893.000; -671.000
812.451; -156.500; -379.000; -514.000
812.705; -303.100; -809.000; -619.000
812.959; -225.800; -263.000; -388.000
813.213;  -95.300; -283.000; -209.000
813.467;  111.400;  470.000;  253.000
813.721; -268.900; -764.000; -792.000
813.975; -264.100; -826.000; -877.000
814.229;   42.200;  430.000;  353.000
814.482; -189.300; -517.000; -566.000
814.736; -246.200; -766.000; -744.000
814.990; -259.000; -779.000; -872.000
815.244; -142.000; -228.000; -285.000
815.497; -214.300; -636.000; -601.000
815.751;  -50.500; -141.000;   82.000
816.005; -206.700; -470.000; -586.000
816.258; -155.700; -510.000; -363.000
816.512; -263.000; -693.000; -610.000
816.766;  -21.800;  121.000;  157.000
817.019;   22.100;  148.000;  149.000
817.273; -303.500;-1000.000; -802.000
817.526;  -72.400; -206.000; -173.000
817.779; -319.800;-1049.000; -960.000
818.033; -268.600; -693.000; -807.000
818.286; -258.200; -725.000; -792.000
818.540; -178.900; -403.000; -403.000
818.793; -152.100; -402.000; -489.000
819.046; -207.100; -582.000; -520.000
819.299;  -58.400; -157.000; -166.000
819.553; -223.800; -552.000; -592.000
819.806; -317.100;-1016.000; -838.000
820.059; -108.000; -334.000; -354.000
820.312;    0.800;  152.000;  185.000
820.565;  -15.400;  110.000;  -27.000
820.818;  -81.000;  -59.000; -173.000
821.071; -333.300;-1041.000; -957.000
821.324; -203.600; -536.000; -540.000
821.577; -203.100; -457.000; -483.000
821.830; -108.900; -270.000; -172.000
822.083; -250.500; -733.000; -288.000
822.336;  -93.800; -261.000; -167.000
822.589; -263.000; -805.000; -688.000
822.842; -283.600; -875.000; -770.000
823.094; -348.800;-1076.000;-1114.000
823.347; -262.600; -925.000; -729.000
823.600;   56.500;  402.000;  187.000
823.853; -109.700; -311.000; -267.000
824.105; -189.900; -331.000; -575.000
824.358; -244.400; -617.000; -716.000
824.611;  -25.900;  234.000;   40.000
824.863; -246.200; -612.000; -591.000
825.116;  -19.700;  -33.000;   27.000
825.368; -160.300; -366.000; -372.000
825.621; -120.400; -186.000; -240.000
825.873; -255.500; -704.000; -737.000
826.126; -244.300; -669.000; -641.000
826.378; -187.100; -389.000; -505.000
826.630; -315.100; -890.000; -898.000
826.883; -310.300; -754.000; -693.000
827.135; -104.900; -279.000; -270.000
827.387; -287.900; -893.000; -839.000
827.639;  -82.100;  -86.000;   32.000
827.892; -234.600; -742.000; -582.000
828.144; -265.100; -848.000; -804.000
828.396;  -57.800;  104.000;  -80.000
828.648; -137.000; -440.000; -333.000
828.900; -270.900; -702.000; -795.000
829.152; -242.700; -684.000; -683.000
829.404; -100.600; -215.000; -267.000
829.656;   54.900;  321.000;  214.000
829.908;  -27.200;  393.000;  229.000
830.160; -307.200;-1064.000;-1047.000
830.412; -199.400; -481.000; -430.000
830.664; -245.700; -557.000; -665.000
830.916; -134.100; -268.000; -206.000
831.167; -348.200;-1073.000; -951.000
831.419; -186.700; -623.000; -566.000
831.671; -271.800; -764.000; -809.000
831.923; -132.600; -311.000; -447.000
832.174; -124.400; -273.000; -331.000
832.426; -198.900; -493.000; -582.000
832.678; -355.400;-1043.000;-1091.000
832.929; -303.700; -947.000; -935.000
833.181; -229.000; -575.000; -677.000
833.432;  -44.400;  -59.000; -186.000
833.684;  -22.800;  112.000;  -27.000
833.935; -221.200; -610.000; -566.000
834.187; -229.600; -829.000; -823.000
834.438;  -53.900;  -58.000;  -25.000
834.689;  -88.300; -255.000; -123.000
834.941;  -94.900; -343.000; -244.000
835.192; -221.800; -590.000; -533.000
835.443; -215.000; -419.000; -506.000
835.695;   -5.000;  138.000;  -16.000
835.946; -176.200; -608.000; -378.000
836.197; -246.700; -599.000; -622.000
836.448; -193.400; -528.000; -395.000
836.699; -117.800; -253.000; -341.000
836.950;  -45.900;   72.000;    7.000
837.201; -343.500;-1003.000; -987.000
837.452; -140.900; -356.000; -170.000
837.703; -274.500; -791.000; -737.000
837.954; -128.800; -205.000; -365.000
838.205; -347.000;-1029.000;-1008.000
838.456; -117.600; -196.000; -282.000
838.707; -167.300; -423.000; -519.000
838.958; -260.100; -634.000; -647.000
839.209;  -35.300;   18.000;   40.000
839.460; -113.900; -439.000; -201.000
839.710; -118.800; -135.000; -297.000
839.961;   98.400;  730.000;  612.000
840.212; -177.900; -382.000; -497.000
840.462; -145.000; -328.000; -277.000
840.713; -224.300; -571.000; -536.000
840.964;  -87.200;  -62.000; -143.000
841.214; -189.100; -384.000; -624.000
841.465;  -85.700; -214.000; -141.000
841.715; -152.500; -417.000; -380.000
841.966; -229.100; -746.000; -685.000
842.216; -158.000; -330.000; -431.000
842.466; -130.100; -169.000; -313.000
842.717; -335.100; -964.000; -952.000
842.967; -220.200; -635.000; -641.000
843.217;  -57.600;   20.000;   28.000
843.468;  -40.400; -104.000; -132.000
843.718; -240.900; -718.000; -726.000
843.968; -276.400; -837.000; -765.000
844.218; -131.700; -315.000; -262.000
844.469; -190.200; -577.000; -561.000
844.719; -222.300; -537.000; -682.000
844.969; -189.500; -550.000; -580.000
845.219; -291.100; -814.000; -862.000
845.469; -158.000; -392.000; -342.000
845.719; -260.400; -792.000; -884.000
845.969;   -3.500;  119.000;  174.000
846.219; -251.300; -738.000; -720.000
846.469;   62.000;  464.000;  432.000
846.718;  -99.100; -115.000;   31.000
846.968; -289.300; -827.000; -827.000
847.218; -114.500; -224.000; -371.000
847.468; -251.300; -586.000; -555.000
847.718; -295.700; -827.000; -798.000
847.967; -290.300; -826.000; -915.000
848.217; -172.400; -449.000; -569.000
848.467; -124.700; -405.000; -376.000
848.716; -258.900; -708.000; -725.000
848.966; -125.200; -372.000; -358.000
849.215; -171.500; -428.000; -419.000
849.465; -218.900; -785.000; -615.000
849.714; -361.900;-1132.000;-1150.000
849.964; -197.400; -551.000; -613.000
850.213; -161.100; -393.000; -355.000
850.463;  -11.900;  137.000;  340.000
850.712; -204.900; -542.000; -567.000
850.961; -222.600; -739.000; -678.000
851.211; -183.300; -513.000; -504.000
851.460; -257.500; -635.000; -650.000
851.709;  -28.900;  -25.000;   18.000
851.958; -262.900; -912.000; -750.000
852.208; -300.600; -859.000; -879.000
852.457;  -72.100; -181.000;  -13.000
852.706; -292.300; -791.000; -823.000
852.955; -213.500; -507.000; -528.000
853.204; -191.800; -521.000; -461.000
853.453; -199.100; -418.000; -458.000
853.702; -267.100; -660.000; -750.000
853.951; -192.500; -532.000; -520.000
854.200; -199.400; -613.000; -562.000
854.449; -254.700; -695.000; -661.000
854.698; -187.400; -340.000; -279.000
854.946; -134.500; -181.000; -284.000
855.195; -275.100; -843.000; -868.000
855.444; -146.200; -395.000; -420.000
855.693; -198.600; -345.000; -432.000
855.941; -174.300; -387.000; -516.000
856.190;  -78.900; -256.000; -382.000
856.439; -255.400; -652.000; -703.000
856.687;  -59.200;  -99.000;  -72.000
856.936; -174.700; -621.000; -323.000
857.184; -322.300;-1067.000;-1020.000
857.433; -177.300; -423.000; -512.000
857.681; -292.700; -989.000; -953.000
857.930; -112.700; -282.000; -433.000
858.178; -312.600; -856.000; -929.000
858.427; -287.600; -802.000; -781.000
858.675; -184.900; -377.000; -544.000
858.923; -170.300; -527.000; -819.000
859.172; -334.400;-1094.000;-1070.000
859.420; -130.600; -339.000; -239.000
859.668; -239.700; -624.000; -628.000
859.916;  -30.700;  109.000;  115.000
860.164; -229.500; -699.000; -603.000
860.413; -301.000; -878.000; -696.000
860.661; -248.800; -709.000; -577.000
860.909; -154.700; -339.000; -325.000
861.157; -137.300; -277.000; -444.000
861.405; -220.300; -534.000; -670.000
861.653;   49.900;  310.000;  310.000
861.901; -240.100; -543.000; -613.000
862.149; -295.900; -801.000; -824.000
862.396; -118.900; -297.000; -187.000
862.644; -122.900; -368.000; -347.000
862.892;  -14.400;   98.000;  138.000
863.140; -163.600; -549.000; -530.000
863.388; -292.300; -815.000; -759.000
863.635; -203.700; -642.000; -601.000
863.883;   28.200;  231.000;  190.000
864.131; -121.800; -288.000; -357.000
864.378; -243.000; -675.000; -540.000
864.626; -157.800; -347.000; -415.000
864.873; -204.400; -556.000; -505.000
865.121; -245.000; -714.000; -799.000
865.368;  -76.800; -173.000;   75.000
865.616;  -63.300;  -33.000;  -40.000
865.863; -171.600; -462.000; -506.000
866.111; -277.100; -795.000; -824.000
866.358; -134.300; -426.000; -420.000
866.605;  -87.900;  -64.000; -804.000
866.853; -199.200; -621.000; -537.000
867.100; -275.600; -728.000; -775.000
867.347; -247.100; -672.000; -611.000
867.594; -261.600; -740.000; -714.000
867.841;  -14.100;   97.000;   17.000
868.089; -261.200; -746.000; -698.000
868.336; -160.600; -477.000; -420.000
868.583; -210.100; -637.000; -741.000
868.830;  -87.900; -131.000; -170.000
869.077; -274.900; -859.000; -787.000
869.324; -199.300; -502.000; -458.000
869.571; -171.300; -398.000; -430.000
869.818; -208.600; -485.000; -439.000
870.065; -204.600; -439.000; -513.000
870.311; -193.100; -456.000; -542.000
870.558; -158.600; -332.000; -311.000
870.805; -102.300; -320.000; -384.000
871.052; -152.300; -494.000; -369.000
871.298;  -99.900; -204.000; -131.000
871.545;  -73.500; -151.000; -185.000
871.792; -130.500; -173.000; -222.000
872.038;  -53.500;   43.000; -126.000
872.285; -229.600; -496.000; -387.000
872.532; -153.900; -357.000; -387.000
872.778;  135.900;  556.000;  403.000
873.025; -127.200; -384.000; -359.000
873.271;   74.200;  501.000;  578.000
873.517;  -78.700; -133.000; -209.000
873.764;  -56.900; -193.000;  -80.000
874.010; -111.600; -143.000; -230.000
874.257;  -21.200;  123.000;   90.000
874.503; -210.900; -579.000; -479.000
874.749;  -49.300;   31.000;  275.000
874.995;  -89.800;  -80.000;  -20.000
875.242; -194.600; -540.000; -478.000
875.488; -210.100; -414.000; -439.000
875.734;  -79.100; -106.000; -234.000
875.980; -340.200; -872.000;-1032.000
876.226; -108.800; -157.000; -255.000
876.472;    0.000;  343.000;  237.000
876.718;  -37.600;  184.000;  158.000
876.964;  -55.000;   56.000;   55.000
877.210; -265.300; -547.000; -677.000
877.456; -230.000; -630.000; -557.000
877.702; -307.400; -821.000; -832.000
877.948; -154.600; -377.000; -497.000
878.193;   66.900;  361.000;  255.000
878.439; -206.400; -487.000; -472.000
878.685; -147.200; -272.000; -343.000
878.931; -213.400; -618.000; -676.000
879.176;  -93.600; -201.000; -201.000
879.422; -320.000; -933.000; -820.000
879.668;  -23.200;   10.000;   79.000
879.913;  -26.200;   53.000;  137.000
880.159;  -94.000; -112.000;  -17.000
880.404;  -78.800; -152.000; -162.000
880.650;  -26.400;   91.000;  141.000
880.895; -268.000; -670.000; -710.000
881.141; -194.000; -454.000; -428.000
881.386; -225.600; -503.000; -658.000
881.631; -136.200; -311.000; -166.000
881.877;  -45.900;  112.000;  -13.000
882.122; -202.500; -684.000; -600.000
882.367;  -95.800; -136.000; -186.000
882.612;  -82.600;  -80.000; -176.000
882.858; -282.400; -877.000; -823.000
883.103; -141.900; -297.000; -267.000
883.348; -233.100; -759.000; -852.000
883.593; -245.200; -677.000; -602.000
883.838; -105.200; -311.000;  -24.000
884.083;   32.300;  353.000;  288.000
884.328; -164.700; -564.000; -545.000
884.573;  -81.700; -196.000; -143.000
884.818; -250.000; -694.000; -531.000
885.063; -152.900; -348.000; -315.000
885.308; -177.000; -475.000; -398.000
885.553;   21.100;  245.000;  325.000
885.797; -197.600; -545.000; -615.000
886.042;  -67.700;    8.000;   58.000
886.287;  -91.800; -253.000; -211.000
886.532;  -41.900;   26.000;  204.000
886.776; -111.000; -407.000; -525.000
887.021; -239.300; -621.000; -574.000
887.265; -266.300; -685.000; -689.000
887.510; -254.600; -557.000; -496.000
887.755; -122.200; -194.000; -164.000
887.999; -227.400; -552.000; -575.000
888.244;  -49.100;  -58.000;  161.000
888.488;   72.400;  371.000;  393.000
888.732; -200.500; -368.000; -520.000
888.977; -222.900; -622.000; -567.000
889.221; -297.300; -683.000; -659.000
889.465; -187.300; -422.000; -566.000
889.710;  -88.100;  -56.000; -299.000
889.954;   50.800;  579.000;  467.000
890.198; -244.500; -584.000; -707.000
890.442; -275.700; -716.000; -712.000
890.687; -281.300; -800.000; -753.000
890.931; -136.400; -273.000; -210.000
891.175; -222.900; -502.000; -500.000
891.419;  -81.200; -105.000; -110.000
891.663; -120.900; -239.000; -112.000
891.907; -273.000; -801.000; -545.000
892.151; -298.300; -920.000; -815.000
892.395; -161.800; -274.000; -387.000
892.638;   -2.000;  408.000;  291.000
892.882; -312.100; -780.000; -867.000
893.126;   99.100;  758.000;  558.000
893.370; -119.800; -167.000; -168.000
893.614; -246.100; -714.000; -715.000
893.857; -161.100; -183.000; -197.000
894.101; -234.900; -527.000; -631.000
894.345;  -40.500;  300.000;  150.000
894.588;  130.700;  569.000;  380.000
894.832; -115.900; -178.000;  -84.000
895.075;  -79.000;   15.000;  -92.000
895.319; -176.600; -552.000; -420.000
895.563; -152.400; -413.000; -353.000
895.806; -262.700; -628.000; -741.000
896.049; -166.300; -576.000; -368.000
896.293;   39.800;  527.000;  405.000
896.536; -208.600; -465.000; -468.000
896.779;  -94.000; -149.000;   -1.000
897.023; -251.300; -751.000; -714.000
897.266;    2.200;  325.000;  269.000
897.509; -288.300; -900.000; -901.000
897.752;   -3.400;  149.000;  171.000
897.996; -307.000; -972.000; -864.000
898.239;  -29.900;  168.000;  102.000
898.482; -192.700; -431.000; -453.000
898.725;  -63.700;  101.000;   53.000
898.968; -290.400; -609.000; -744.000
899.211; -162.900; -513.000; -361.000
899.454; -246.300; -633.000; -539.000
899.697;  -74.900;   90.000;  -43.000
899.940; -288.200; -761.000; -757.000
900.182; -138.100; -335.000; -405.000
900.425; -126.300; -150.000; -298.000
900.668;    5.400;  491.000;  350.000
900.911; -142.700; -292.000; -345.000
901.154;  -45.200;  141.000;   -3.000
901.396; -211.300; -407.000; -412.000
901.639; -200.500; -430.000; -496.000
901.882; -315.300; -790.000; -809.000
902.124; -127.800;  -29.000; -143.000
902.367; -166.900; -315.000; -361.000
902.609; -208.900; -476.000; -453.000
902.852; -128.900; -108.000; -260.000
903.094; -198.200; -458.000; -337.000
903.337;  -19.000;  -26.000;   53.000
903.579; -171.700; -228.000; -441.000
903.821; -248.700; -597.000; -744.000
904.064;  -39.000;   85.000;  127.000
904.306; -133.700; -126.000; -166.000
904.548; -140.900; -152.000; -366.000
904.790; -149.400; -195.000; -340.000
905.033; -202.000; -625.000; -577.000
905.275; -216.100; -513.000; -524.000
905.517;   -9.900;  468.000;  256.000
905.759; -261.200; -667.000; -761.000
906.001; -184.900; -322.000; -369.000
906.243; -155.400; -162.000; -224.000
906.485; -138.600; -265.000; -207.000
906.727; -229.700; -499.000; -542.000
906.969; -118.500;  -30.000; -135.000
907.211; -182.100; -316.000; -382.000
907.453; -132.400; -188.000; -237.000
907.695; -148.800; -158.000; -385.000
907.936;  137.300;  818.000;  706.000
908.178;  -72.300;   92.000; -135.000
908.420; -129.200; -111.000; -162.000
908.662; -285.700; -633.000; -682.000
908.903; -172.700; -208.000; -123.000
909.145; -117.100; -240.000; -305.000
909.386;    9.700;  315.000;  280.000
909.628;   44.800;  363.000;  397.000
909.870;  -56.100;   29.000;  264.000
910.111; -321.000; -809.000; -949.000
910.353; -142.200; -123.000; -161.000
910.594; -238.000; -574.000; -606.000
910.835; -158.200; -265.000; -326.000
911.077; -263.000; -503.000; -604.000
911.318; -243.100; -505.000; -471.000
911.559; -287.700; -577.000; -880.000
911.801; -161.100; -284.000; -280.000
912.042;  -94.800;  -50.000; -159.000
912.283;    3.600;  404.000;  371.000
912.524; -180.500; -396.000; -457.000
912.765; -103.000; -193.000;   79.000
913.006; -167.500; -307.000; -338.000
913.247; -212.500; -270.000; -290.000
913.488; -128.100;  -43.000;   30.000
913.729; -217.700; -373.000; -373.000
913.970; -131.800;  -96.000; -292.000
914.211; -106.300; -160.000; -198.000
914.452; -120.700; -118.000;  -11.000
914.693;   81.500;  510.000;  592.000
914.934;   75.300;  510.000;  440.000
915.175; -100.900;   53.000;  -95.000
915.415; -121.900; -137.000;   27.000
915.656;  -67.500;  -28.000;  192.000
915.897; -150.700; -252.000;  -82.000
916.137;  -90.300;   74.000;   -9.000
916.378; -217.200; -573.000; -517.000
916.619; -138.000; -159.000;  -63.000
916.859;   24.700;  303.000;  330.000
917.100;  328.200; 1655.000; 1070.000
917.340;  127.700;  930.000;  728.000
917.581;   89.600;  965.000;  789.000
917.821; -167.000; -171.000;  143.000
918.061; -145.500; -199.000;  -72.000
918.302; -152.700; -152.000; -211.000
918.542; -112.500;  -22.000;    3.000
918.782;  -12.300;  369.000;  377.000
919.023;  -10.300;  360.000;  427.000
919.263; 2195.300; 8131.000;  202.000
919.503; -138.700; -137.000;  -54.000
919.743;   14.200;  390.000;  266.000
919.983;  -95.200; -134.000;  -26.000
920.223;  -73.600;  135.000;   14.000
920.463;   42.700;  631.000;  554.000
920.703;  -80.400;   84.000;   39.000
920.943; -105.500; -110.000;   90.000
921.183; -208.000; -414.000; -405.000
921.423;   36.900;  307.000;  546.000
921.663; -151.100; -174.000; -257.000
921.903;  -50.000;  237.000;  173.000
922.143;    1.400;  372.000;  389.000
922.383;  -85.700;  158.000;  115.000
922.622; -101.100; -120.000;  -15.000
922.862;  120.000;  796.000;  785.000
923.102; -109.000;  -51.000;   33.000
923.341;  -99.100;   59.000;   74.000
923.581;   23.300;  450.000;  360.000
923.821;  -33.600;  301.000;  398.000
924.060;  -12.200;  351.000;  193.000
924.300; -109.900;  -16.000; -128.000
924.539;   -2.800;  584.000;  473.000
924.779;  109.700;  812.000;  597.000
925.018;  -40.900;  247.000;  353.000
925.257;   65.000;  595.000;  666.000
925.497;  -10.700;  447.000;  412.000
925.736; -107.600;  -35.000;  102.000
925.975;   48.400;  687.000;  669.000
926.214;  115.400;  907.000;  850.000
926.454;  129.500;  706.000;  757.000
926.693;   -5.800;  419.000;  543.000
926.932;  141.800; 1021.000;  825.000
927.171;  204.500; 1107.000; 1044.000
927.410;  163.300; 1144.000;  967.000
927.649;   89.300;  924.000;  742.000
927.888;   20.900;  590.000;  564.000
928.127;   71.100;  680.000;  678.000
928.366;  105.700;  842.000;  826.000
928.605;  108.100;  831.000;  737.000
928.844;  218.700; 1451.000; 1393.000
929.083;   25.300;  770.000;  613.000
929.321;  233.700; 1335.000; 1359.000
929.560;  220.700; 1158.000; 1122.000
929.799;    8.600;  574.000;  475.000
930.038;  237.400; 1025.000; 1394.000
930.276;  -23.200;  334.000;  397.000
930.515;   68.700;  827.000;  681.000
930.753;   16.800;  614.000;  589.000
930.992;   35.400;  664.000;  717.000
931.230;   79.800;  847.000;  847.000
931.469;  441.200; 2162.000;  892.000
931.707;  219.900;  840.000;  751.000
931.946;  182.300; 1278.000; 1344.000
932.184;  164.000; 1437.000; 1175.000
932.423;  199.900; 1265.000;  963.000
932.661;  211.500; 1296.000; 1428.000
932.899;   34.600;  987.000;  821.000
933.137;   -2.000;  754.000;  564.000
933.376;  208.700; 1664.000; 1335.000
933.614;  307.400; 1759.000; 1196.000
933.852;  136.900; 1357.000; 1171.000
934.090;  296.600; 1722.000; 1747.000
934.328;  193.500; 1252.000; 1457.000
934.566;  125.400; 1431.000; 1110.000
934.804;  158.300; 1263.000; 1309.000
935.042;  276.700; 1861.000; 1850.000
935.280;  391.600; 2088.000; 2063.000
935.518;  374.300; 2113.000; 2007.000
935.756;  416.600; 2481.000; 2316.000
935.994;  264.200; 1808.000; 1751.000
936.231;  590.700; 2890.000; 2950.000
936.469;  421.300; 2367.000; 2378.000
936.707;  380.900; 2220.000; 2167.000
936.945;  540.900; 2825.000; 2882.000
937.182;  466.200; 2679.000; 2741.000
937.420;  617.200; 3602.000; 3031.000
937.657;  710.300; 3365.000; 3478.000
937.895;  695.200; 3331.000; 3488.000
938.133;  680.300; 3540.000; 3528.000
938.370;  797.500; 3896.000; 4191.000
938.607;  887.500; 4488.000; 4205.000
938.845; 1202.200; 5587.000; 5549.000
939.082; 1090.400; 5387.000; 5177.000
939.320; 1198.100; 5799.000; 5728.000
939.557; 1374.000; 6549.000; 6491.000
939.794; 1535.100; 7285.000; 7097.000
940.031; 1796.000; 8421.000; 8368.000
940.269; 1983.400; 9552.000; 9107.000
940.506; 2294.300;10901.000;10507.000

