
Integration time [ms]: 100.000
Averaging Nr. [scans]: 40
Smoothing Nr. [pixels]: 0
Data measured with spectrometer [name]: 2101013U2
Wave   ;Sample   ;Dark     ;Reference
[nm]   ;[counts] ;[counts] ;[counts] 

394.013;   57.205; -450.257; -315.536
394.305;  211.578; -461.258; -419.536
394.596; 1163.648; -676.269; -527.514
394.887; 2873.365; -796.268; -654.518
395.178; 1083.346;  145.736;   11.476
395.470;   85.633; -210.263; -356.526
395.761;  196.605;  305.734;  394.479
396.052;  319.021; -545.284; -306.489
396.343;  311.092; -557.276; -454.503
396.634;  105.485; -200.279; -290.497
396.926;   99.188; -618.268; -565.517
397.217;   91.572;   11.725;  -17.504
397.508;   51.638; -366.273; -154.507
397.799;   36.110; -555.279; -571.497
398.090;    3.004; -973.280; -902.495
398.381;  113.845;   11.708;  -11.473
398.672;   -3.129; -585.292; -742.473
398.963;   49.616; -348.279; -373.498
399.254;   92.605;   54.709; -209.475
399.545;  -28.273;-1017.266; -883.520
399.836;   68.581; -407.277; -343.501
400.127;   42.870; -205.295; -209.468
400.418;   50.857; -423.274; -392.506
400.709;   48.291; -359.281; -333.493
401.000;   48.884; -268.291; -309.476
401.290;  106.756;  225.698;  115.545
401.581;   62.328; -166.286; -228.485
401.872;    6.917; -542.298; -486.462
402.163;   53.588; -313.296; -252.467
402.454;   85.606; -123.291; -163.475
402.744;   68.779; -844.297; -813.465
403.035;  405.186; -226.293;  -86.471
403.326;  538.124; -366.292; -384.474
403.617;  373.911;  204.701;  165.539
403.907;  254.127; -593.283; -679.490
404.198; 2516.234; -545.307; -599.446
404.489; 6543.207; -618.283; -588.491
404.779; 2120.334; -618.302; -660.456
405.070;  224.213;  -67.304; -174.451
405.360;  344.938; -259.293; -238.472
405.651;  365.521;  125.699;   98.542
405.942;  188.173;  209.714;  127.516
406.232;  238.813; -432.285; -413.487
406.523;  423.280;  641.706;  758.530
406.813;   75.701; -579.286; -644.484
407.104;  323.993;  261.708;  144.527
407.394;  150.662; -604.299; -591.462
407.685;  147.812;  336.715;  222.513
407.975;   46.805; -400.283; -382.490
408.265;  102.420; -134.289; -190.478
408.556;   77.477; -472.291; -459.475
408.846;  170.306;  474.706;  429.530
409.137;   90.429;   -1.288; -216.480
409.427;   60.138; -193.285; -271.487
409.717;   40.691; -776.273; -692.508
410.007;  122.006;    4.715; -170.486
410.298;   89.523; -360.295; -342.469
410.588;   67.460; -495.285; -510.486
410.878;   32.990; -792.287; -873.482
411.168;  121.019; -481.298; -478.463
411.459;  105.325; -295.283; -242.489
411.749;   72.376; -609.292; -507.474
412.039;   65.052; -755.289; -386.480
412.329;  197.074;   40.722;  132.501
412.619;  214.401;  -62.286; -148.485
412.909;  383.423;  639.711;  594.521
413.199;  332.930; -130.280; -251.495
413.490;  380.013;  521.710;  352.523
413.780;  136.234;-1013.279; -913.496
414.070;  337.743;  -46.276;  235.497
414.360;  365.495; -729.278; -666.498
414.650;  428.311; -726.288; -688.482
414.940;  556.533; -538.280; -441.496
415.230;  942.533;   50.712;   74.519
415.520; 6292.097;  155.730;   66.486
415.809;25037.341; -305.281; -125.493
416.099;19234.733; -388.277; -229.501
416.389; 5452.805;  435.726;  236.494
416.679; 3168.186;   91.738;   85.473
416.969;  539.470; -527.287; -503.483
417.259;  490.911;  341.721;  171.503
417.549;  717.515;  522.718;  318.508
417.838; 1715.915; -205.268; -147.518
418.128; 5781.244;  650.710;  492.522
418.418; 4826.672; -491.272; -579.509
418.708; 3267.355;    9.726;  -48.506
418.997;12332.176; -474.275; -480.505
419.287;12758.387; -733.273; -790.507
419.577;12151.499; -160.283; -123.489
419.866;40222.431; -588.277; -498.501
420.156;40653.068; -242.270;  -55.513
420.446; 7165.079; -112.263;  -26.526
420.735;  847.162; -376.271; -446.512
421.025;  832.119; 1830.722;  315.502
421.314;  655.860; -203.271; -226.512
421.604; 1258.882;   89.732;  233.484
421.893;  752.507; -705.271; -602.511
422.183;  231.079; -487.263; -461.526
422.472;  381.483;  -36.271; -107.511
422.762;  447.183; -416.266; -379.521
423.051;  251.268; -916.276; -916.503
423.341;  312.039; -491.273; -439.507
423.630;  412.039; -121.265;   15.477
423.919;  362.100;   58.725;   49.495
424.209;  382.735;  -31.263;   56.473
424.498;  490.037;   68.732;  161.483
424.787; 1129.094; -535.267; -601.518
425.077; 3485.038;   34.735;   29.478
425.366; 4742.565; -734.262; -744.528
425.655;10314.189;  639.727;  259.493
425.945;23310.171; -313.247; -268.554
426.234;12706.563;  117.741;  300.467
426.523; 5322.894;  -86.259; -350.534
426.812; 7228.279;  107.734;  159.480
427.101;10750.029; -127.269; -323.515
427.390;13382.472;  -55.270;  -86.514
427.680; 2900.314; -624.257; -411.538
427.969;  471.225; -330.255; -301.540
428.258;  326.180; -385.257; -477.536
428.547;  524.527;  449.728;  397.490
428.836; 1175.866; -421.253; -398.543
429.125; 1684.720; -199.259;  -72.534
429.414;  771.764; -330.251; -294.548
429.703; 3281.239; -231.251; -213.548
429.992; 9834.318; -938.250; -828.549
430.281; 6387.572; -397.264; -331.524
430.570;  563.154;  -21.252;   32.454
430.859;  532.018;  279.741;  352.466
431.148;  420.917;  636.752;  631.446
431.437;  293.329;  391.748;  367.454
431.725;  161.132; -544.257; -481.536
432.014;  134.098; -845.253; -756.545
432.303;  366.644; -149.239; -105.569
432.592;  596.778; -460.263; -178.525
432.881; 1079.668; -601.248; -437.554
433.169; 6541.600; -343.255;  -61.540
433.458;13288.404;  445.765;  540.424
433.747; 5425.696; -397.261; -289.529
434.036;  881.695; -275.242; -280.564
434.324; 2165.855; -395.249; -379.551
434.613; 3839.138;   40.757;  159.437
434.902; 1206.609;  333.760;  439.433
435.190;  498.893;   75.761;  295.431
435.479;  274.920;  -52.245;   83.441
435.767;   94.078; -411.244; -427.561
436.056;  210.940; -340.242; -294.563
436.345;  351.737; -372.240; -223.568
436.633;  374.851;   60.750;  383.450
436.922;  243.589;  208.760;  414.432
437.210;  516.118; -194.236;    1.426
437.499; 1650.702; -583.235; -432.576
437.787; 1818.168; -339.236;  -10.574
438.075;  463.524;   56.761;  162.430
438.364;  635.751;  -44.238;  250.429
438.652;  381.833; -286.226; -138.592
438.941;  121.996;    3.770;  269.415
439.229;   11.777; -665.252; -466.545
439.517;   37.060; -160.234;  -85.577
439.806;   -5.126; -501.225; -290.595
440.094;  152.118;  377.766;  650.421
440.382;  158.047; -653.233; -302.580
440.670;  172.326; -361.235; -285.576
440.959;   13.191; -347.223; -170.599
441.247;   61.908; -151.229; -109.587
441.535;   88.758; -266.235;   31.423
441.823;   13.565; -497.234; -305.578
442.111;  173.912;  173.771;  327.412
442.400;  483.194; -628.245; -335.559
442.688; 1216.342; -111.234; -620.579
442.976;  858.581; -786.213; -450.617
443.264;   93.330; -324.224; -364.597
443.552;  100.934; -258.226;   51.408
443.840;  165.582;  602.765;  876.423
444.128;   91.771;  265.767;  269.420
444.416;   11.740; -694.228; -312.588
444.704;   19.122; -465.219;  -92.605
444.992;   73.362;   -0.226;  240.407
445.280;   28.897; -517.230;  -94.585
445.568;   22.909; -694.212; -396.618
445.856;  311.830; -174.221;  357.398
446.143;  649.018;  -54.220;   -7.604
446.431;  577.043;  -25.228;  625.411
446.719;  234.491;  489.783;  675.391
447.007;  167.141;  481.769;  705.416
447.295;  186.638;  597.777;  871.402
447.583;   87.580; -464.229;  -34.587
447.870;  140.052; -434.221; -202.601
448.158;  367.771; -104.230;  129.415
448.446;  293.594; -800.219; -338.604
448.733;  162.632;   13.776;  269.403
449.021;  244.534;   60.788;  341.382
449.309;  192.099; -296.210;  208.379
449.596;  213.862;  128.783;   59.392
449.884;  149.295; -571.222; -325.600
450.172;  164.074; -756.227; -406.590
450.459;  448.114;  645.786;  780.387
450.747; 2558.136; -411.218; -147.608
451.034; 8086.870;  493.772;  889.411
451.322; 6639.367; -413.214; -170.614
451.609;  522.133;  292.777;  508.403
451.897;  630.263; -550.203; -183.634
452.184; 1889.489; -622.223; -400.598
452.472; 1768.971;   97.792;  269.375
452.759;  329.619;  512.781;  864.395
453.047;  115.631; -407.212; -125.617
453.334;   48.177; -732.219; -216.606
453.621;   70.544; -438.214; -161.615
453.909;   94.830;   13.796;  384.368
454.196;  105.751; -299.199; -123.641
454.483;  199.501;  317.798;  540.364
454.771;  129.574; -215.208;  196.374
455.058;   56.502; -316.207;  102.374
455.345;  118.682;   71.807;  344.347
455.632;   92.780; -128.207;  235.373
455.919;   38.024;  -82.196;  182.354
456.207;  -63.819; -774.198; -450.642
456.494;  -16.461; -475.200;  -66.639
456.781;    0.822; -399.202; -198.635
457.068;   48.662; -253.206;  -29.628
457.355;  -27.687; -698.206; -401.629
457.642;    8.419; -552.205; -290.630
457.929;   -4.877; -778.194; -417.651
458.216;   71.382; -575.212; -354.617
458.503;  247.778; -173.193;  -19.652
458.790;  250.747; -864.208; -630.625
459.077;  272.102;  -77.202;  110.364
459.364;  839.866; -350.195; -210.649
459.651; 1786.110;  -46.206;  220.372
459.938;  813.312; -864.209; -665.623
460.225;  133.880;  132.799;  276.363
460.512;  -38.004; -836.197; -688.645
460.799;   78.159;  -32.218;  320.392
461.086;   66.293; -370.200; -251.640
461.372;   25.456; -509.198; -279.642
461.659;   95.850; -165.196;  108.354
461.946;   58.076; -445.193;  -54.651
462.233;  228.341;  842.800;  888.361
462.519;  360.613; -814.201; -464.639
462.806; 1048.047; -768.197; -497.645
463.093;  896.997; -445.191;  -66.656
463.380;  -20.911; -920.186; -824.664
463.666;   55.773; -259.197;  -18.646
463.953;   99.686; -406.195; -243.648
464.239;  194.911; -173.195;  -77.648
464.526;  368.596;  413.806;  743.350
464.813;  334.709; -565.190; -304.658
465.099;  342.977;  606.807;  607.348
465.386;  302.456;  903.807;  921.348
465.672;   29.297; -694.197; -522.645
465.959;   23.427; -598.188; -520.662
466.245;   27.556; -468.193; -359.652
466.532;   97.033; -109.195;   63.352
466.818;   66.739; -357.186; -216.664
467.104;  -20.045; -488.182; -415.672
467.391;  -16.089; -628.189; -459.658
467.677;   23.668; -289.186;    9.335
467.964;   -4.232; -682.189; -471.660
468.250;   44.420; -331.186; -160.665
468.536;   68.312;   90.811;  180.341
468.822;  -27.743; -821.184; -574.668
469.109;  141.062;  351.827;  471.311
469.395;  184.466;  729.808;  787.346
469.681;  194.415;   46.811;  156.341
469.967; 1301.645; -699.188; -382.660
470.254; 2867.203; -494.188; -306.662
470.540; 1813.999; -601.196; -476.646
470.826;  254.841; -488.181; -397.675
471.112;  312.986;  288.816;  113.331
471.398;   85.916; -253.183;  -58.670
471.684;   39.220; -626.177; -447.680
471.970;    5.895; -918.180; -981.675
472.256;   33.940; -521.192; -441.654
472.542;    9.823; -499.171; -434.691
472.828;   -8.199; -743.182; -607.672
473.114;   24.667; -380.166; -283.700
473.400;    5.437; -504.175; -293.684
473.686;   26.849; -452.166; -400.701
473.972;   43.176; -230.174; -131.687
474.258;  -38.613; -925.173; -843.689
474.544;  202.836; -183.178;   -2.679
474.830;  343.763;  -65.175;   45.316
475.116;  529.711; -123.190; -196.658
475.401;  733.122; -558.180; -467.676
475.687;  198.171; -725.180; -718.676
475.973;    9.784; -673.181; -770.673
476.259;  230.116;  736.825;  764.315
476.544;  376.028; -539.176; -437.682
476.830;  892.619; -398.172; -322.690
477.116;  780.302; -430.177; -336.682
477.401;  146.697;  346.820;  358.324
477.687;  -21.513; -289.175; -405.684
477.973;   43.187;   21.819;   28.326
478.258;   -7.431; -448.163; -348.706
478.544;   62.151;   21.815;   61.334
478.829;  -58.672; -818.171; -738.692
479.115;  -44.707; -749.172; -651.690
479.401;   -8.003; -444.174; -449.686
479.686;   51.846; -253.180;  -74.676
479.972;  -32.483; -886.178; -776.680
480.257;   28.094; -258.166;  -65.700
480.542;   -3.543; -614.170; -469.693
480.828;  223.035; 1288.824; 1392.317
481.113;  -37.967; -464.176; -426.683
481.399;  -15.457; -236.161; -202.711
481.684;  -54.032; -620.166; -462.700
481.969;   16.282; -158.159;  -73.713
482.255;    4.393; -439.169; -285.695
482.540;   -5.133; -569.178; -441.680
482.825;   10.809; -395.187; -404.663
483.110;   93.597;  -85.169; -105.696
483.396;  198.304; -840.157; -652.718
483.681;  516.552;  543.826;  730.313
483.966;  173.126; -696.160; -700.712
484.251;   -2.174; -404.174; -310.687
484.536;   -5.146; -356.165; -378.703
484.822;    0.004; -205.173; -218.687
485.107;  -33.407; -599.152; -502.726
485.392;  114.885;  662.836;  541.296
485.677;   68.907;  354.832;  163.302
485.962;   91.751;  160.843;  270.283
486.247;   75.827;  -14.162;   -8.707
486.532;   47.045; -178.166; -325.701
486.817;  167.638;  381.839;  431.291
487.102;  117.476; -453.154; -514.722
487.387;  704.581; -637.156; -652.718
487.672; 1273.490; -154.164;  -38.705
487.957;  792.420; -394.160; -286.711
488.241;  212.610; -290.150; -314.729
488.526;  794.719; -280.152; -148.726
488.811; 1272.219; -881.177; -818.680
489.096;  954.453; -666.154; -702.723
489.381;  511.840;    3.847;  162.275
489.666;  409.118; -428.161; -510.710
489.950;  179.556;  558.846;  627.277
490.235;  -26.895; -480.151; -458.728
490.520;  -41.908; -756.161; -723.710
490.804;  -48.217; -827.156; -736.719
491.089;   -0.424; -469.149; -299.732
491.374;   35.914; -132.164;  -75.704
491.658;   -9.288; -817.147; -717.735
491.943;  164.348; -657.152; -609.727
492.227;  248.321; -178.155;  -38.721
492.512;   61.426; -294.157; -341.717
492.797;  -75.805; -713.149; -716.731
493.081;  -32.185; -588.147; -598.735
493.366;  -44.456; -751.161; -635.711
493.650;  196.794;  831.859;  917.254
493.935;   24.712; -648.147; -447.734
494.219;  -35.019; -778.142; -687.743
494.503;  -59.911; -585.150; -487.730
494.788;   36.518;   46.842;   74.285
495.072;   98.461;  184.850;  434.271
495.356;  182.904; -463.148; -343.733
495.641;  474.772; -812.146; -736.736
495.925;  445.013; -976.156; -903.719
496.209;   34.175; -599.149; -451.732
496.494;  -40.268; -763.142; -544.744
496.778;    2.501; -364.154; -360.722
497.062;  -60.988; -819.156; -627.719
497.346;  -50.828; -869.160; -640.711
497.631;  155.083;  580.852;  560.266
497.915;   79.907;  -64.145;  175.261
498.199;   49.204; -341.157; -277.718
498.483;   32.017; -562.152; -508.725
498.767;  184.912;  301.850;  300.271
499.051;  206.148; -126.149; -100.732
499.335;   40.046; -693.149; -739.731
499.619;  -34.203; -381.129; -423.767
499.903;   32.845; -272.155;  -65.721
500.187;   25.233; -588.153; -316.724
500.471;   18.973; -796.152; -595.727
500.755;  109.292;   62.839;  -96.710
501.039;   18.470; -270.155; -357.721
501.323;   72.196;  -21.141;  264.254
501.607;   34.945; -447.163; -503.706
501.891;  -15.844; -607.156; -512.718
502.174;  -21.781; -726.144; -585.741
502.458;   70.127;   89.849;  370.273
502.742;   33.695; -180.138; -191.751
503.026;  110.961; -412.147; -254.734
503.310;  201.381; -437.159; -375.713
503.593;  123.488; -464.147; -325.735
503.877;  132.186; -232.133; -156.760
504.161;  176.735;    2.847;  -50.724
504.444;  146.245; -841.158; -710.716
504.728;  493.463; -487.164; -522.704
505.012;  765.059; -257.150;  -76.729
505.295;  561.694; -417.161; -212.711
505.579;  563.962; -256.156; -496.719
505.862;  786.804; -555.145; -333.738
506.146;  804.383; -681.159; -758.714
506.429;  407.759;  568.841;  461.286
506.713;   68.681; -732.151; -667.728
506.996;  349.775;   90.846;  295.278
507.280;  358.633; -633.165; -474.703
507.563;  252.093; -469.155; -261.721
507.847;  110.259; -423.153; -112.724
508.130;  103.619; -665.161; -456.711
508.413;  132.314; -758.167; -577.700
508.697;  268.289; -151.167;   12.300
508.980;  171.310; -422.153; -312.724
509.263;   -8.360; -466.155; -450.720
509.547;   43.284; -124.150;   82.271
509.830;   46.696; -172.160;  140.289
510.113;   75.512;  128.844;  298.281
510.396;   28.891; -530.152; -300.725
510.680;  133.605; -818.145; -812.738
510.963;  539.780;  184.846;  180.277
511.246;  463.417; -493.150; -357.730
511.529;  245.685; -482.145;  -83.739
511.812;  403.083; -250.134;   10.241
512.095;  306.353; -740.151; -396.728
512.378;   68.367; -317.147; -245.736
512.661;   27.453; -703.137; -623.753
512.944;   35.058; -750.142; -637.744
513.227;   65.075; -170.137; -171.752
513.510;   21.044; -479.144; -671.741
513.793;   22.150; -485.140; -435.747
514.076;  130.893;  -43.127;  -39.771
514.359;  107.176; -294.149; -135.732
514.642;   94.961; -442.142; -567.744
514.925;  808.749;  581.860;  561.253
515.208; 1091.129; -498.134; -443.758
515.491;  701.393; -276.133; -182.761
515.773;  402.673; -410.143; -337.742
516.056; 2239.734;  249.864;  409.246
516.339; 3027.313; -754.136; -652.755
516.622; 1885.739; -518.150; -488.730
516.904; 1130.405;  882.857;  975.257
517.187;  542.224; -730.138; -523.752
517.470;  422.129; -568.143; -510.743
517.752;  464.666; -624.136; -470.756
518.035;  373.936; -708.139; -725.749
518.318;  386.988; -799.136; -744.755
518.600; 2637.371; -300.132; -325.762
518.883; 3619.236;  310.858;   88.256
519.165; 1731.041; -585.138; -426.751
519.448;  394.046;  -61.132;  -19.762
519.730;  184.826; -573.126; -415.773
520.013;  299.989;  588.867;  664.240
520.295;  759.684;  -94.134;  -15.759
520.578; 1662.959; -335.131; -305.764
520.860; 1891.046; -254.132;   56.238
521.143; 1022.368; -763.135; -584.756
521.425;  490.764; -251.125; -279.775
521.707;  723.518; -622.127; -380.771
521.990; 1908.869; -199.127;  167.229
522.272; 2197.427; -116.140;   -4.748
522.554;  949.773; -237.143; -157.742
522.836;  344.582;  -24.134;   99.241
523.119;  214.260; -496.148; -189.734
523.401;  138.816; -448.130; -314.766
523.683;   99.603; -865.137; -693.753
523.965;  293.272;  408.862;  260.248
524.247;  304.585;   54.878;  170.220
524.529;  207.309; -451.134; -367.759
524.812;  360.568;   -3.130;  191.234
525.094;  921.146; -773.138; -631.751
525.376; 1458.373; -143.124;   78.223
525.658;  868.010; -441.136; -339.754
525.940;   40.331; -805.131; -671.764
526.222;   27.239; -188.136;  -88.755
526.504;  104.229; -190.131;   32.237
526.786;  164.337; -960.133; -647.760
527.068;  287.753; -124.123;  -67.778
527.349;  105.232; -865.137; -774.754
527.631;  126.721; -137.132;   22.238
527.913;  142.342; -664.127; -450.771
528.195;  184.356; -761.125; -639.774
528.477;  261.854;  -93.134;  -30.758
528.759;  151.743; -648.130; -522.766
529.040;   64.627; -569.123; -293.778
529.322;   53.584; -235.125;  -10.774
529.604;  121.820;  -47.130;   93.233
529.886;  139.075; -546.126; -302.773
530.167;  117.512;  232.870;  192.235
530.449;   49.042;    1.853;   63.265
530.731;   24.684; -572.122; -459.779
531.012;   73.555; -513.120; -216.784
531.294;   68.020; -118.116;  -43.792
531.575;  156.964;  290.875;  538.225
531.857;   56.149; -548.135; -266.757
532.138;   97.269; -113.141;   40.254
532.420;  155.470;  294.865;  403.244
532.701;  212.539; -722.133; -751.760
532.983;  324.142;  232.867;  182.239
533.264;  116.023; -243.126;  175.228
533.546;  -37.161; -491.136; -508.755
533.827;   44.086;  173.867;   -1.759
534.109;   47.624; -352.135;  -80.757
534.390;  106.750; -725.132; -582.762
534.671;  256.045; -270.135;  -82.756
534.953;  155.480; -751.123; -611.779
535.234;   25.305; -426.117; -255.789
535.515;  -81.761; -891.119; -735.785
535.796;   -8.512; -431.128; -193.770
536.078; -106.878;-1050.124; -904.777
536.359;   -9.219;  -22.123;    3.221
536.640;  -10.142; -480.125; -197.774
536.921;  156.226;  225.871;  143.232
537.202;  390.218;  -87.138;  -16.751
537.483;  482.684;  251.869;  377.236
537.764;  184.287;   17.870;   98.235
538.045;  -36.872; -543.134; -371.758
538.326;  -25.423; -596.129; -447.768
538.607;   25.069; -686.127; -476.771
538.888;  180.546;   98.879;    5.218
539.169;  195.216; -704.122; -535.781
539.450;  341.575;  236.871;   16.233
539.731;  231.550; -361.121; -182.783
540.012;  128.530;  199.880;  412.216
540.293;   90.617;   82.876;  158.224
540.574;   13.366; -895.113; -717.796
540.855;  451.899;  435.879;  377.218
541.136;  539.563;   47.878;  139.220
541.416;  292.319; -161.130; -220.766
541.697;  206.079; -274.131; -170.763
541.978; 1104.147; -270.135; -315.757
542.259; 1409.844; -211.127; -236.771
542.539;  663.939; -191.116; -186.790
542.820;  184.238;  461.875;  480.225
543.101;  126.257;  -52.145;  -77.738
543.381;   37.994; -638.127; -591.771
543.662;  252.391;  159.873; -254.771
543.942;  622.489; -751.127; -830.770
544.223; 1125.340;  193.878;  161.219
544.504;  745.472; -275.124; -182.777
544.784;  618.775; -592.126; -408.773
545.065; 1734.318;  104.884; -254.791
545.345; 2068.664;  227.881;   14.215
545.626; 1368.365;  -14.113; -108.796
545.906;  930.536;   77.869;   98.235
546.186;  394.230;   92.874;  -95.773
546.467;  177.050;   99.877;  -95.778
546.747;  352.514;  264.884;  327.210
547.027;  399.271;   91.876;  111.223
547.308;  365.889; -376.127; -530.770
547.588;  401.353;  299.871;  371.232
547.868;  211.713;  458.870;  588.235
548.149;  221.025;  609.885;  593.207
548.429;  147.117; -347.127; -299.771
548.709;  218.805; -645.120; -461.784
548.989;  525.049;   84.882;   88.213
549.269; 2267.395;   10.868;  139.239
549.550; 5215.904;  215.877;  117.222
549.830; 4656.683; -758.111; -556.799
550.110;  920.991; -468.110; -320.801
550.390;  870.710; -128.122;  -56.779
550.670; 1232.686; -868.114; -783.795
550.950;  859.398; -509.121; -471.782
551.230;  193.945;  549.879;  460.218
551.510;   -3.828; -381.121; -326.782
551.790;   46.899; -173.109; -127.803
552.070;  254.800;  940.877; 1181.223
552.350;  462.168; -492.119; -377.786
552.630;  644.292;   -2.121;   77.219
552.909;  389.068;  181.884;   73.209
553.189;  252.151;  -49.132;   33.237
553.469;  232.168; -703.119; -514.786
553.749;  200.320; -469.127; -357.772
554.029;  182.059;   33.883;  -24.790
554.308;  159.954; -154.115;  -37.794
554.588;   66.662; -196.128; -204.770
554.868;   70.124; -366.121;  -47.782
555.147;  161.576; -114.115;  -46.793
555.427;  656.145; -260.116; -250.792
555.707; 4186.599; -284.115; -200.793
555.986; 5049.937; -719.111; -538.800
556.266; 2646.112;   23.884;   72.210
556.546;  126.522; -888.121; -675.782
556.825;  287.259; -657.114; -556.794
557.105; 1928.760; -125.128;   17.230
557.384; 2269.642;  122.884;  187.209
557.664;  866.270; -717.116; -508.792
557.943;  132.073; -557.121; -411.782
558.222;  176.677; -345.118; -344.788
558.502;  291.353; -116.115;  -76.793
558.781;  509.623;  194.885;  499.208
559.061;  440.802; -232.118; -227.788
559.340;  315.557;  302.883;  353.211
559.619;  768.712;   93.884;  148.210
559.899; 1106.108; -239.117; -266.789
560.178; 1037.302; -778.115; -593.793
560.457; 3322.060; -623.117; -562.790
560.736; 4744.063; -472.111; -482.800
561.015; 3123.608; -500.128; -502.769
561.295;  412.719;  180.893;  215.193
561.574;  337.300;  119.885;  116.207
561.853;  523.003;  274.891;  303.197
562.132;  528.855;  -45.114;  182.206
562.411;  481.093;  396.879;  553.219
562.690;  154.098; -592.115; -458.792
562.969;  148.797;  472.888;  630.203
563.248;  510.765; 2966.878; 2487.219
563.527;  311.237; -290.111; -408.800
563.806;  413.542; -650.127; -521.771
564.085;  454.510; -297.105; -206.810
564.364;  261.112; -594.117; -405.790
564.643;  529.143; -276.121; -223.781
564.922; 2025.072;  221.890;  397.198
565.201; 2044.951; -640.109; -700.803
565.479;  877.547; -297.115; -219.792
565.758;  379.661; -810.128; -712.770
566.037;  509.827; -155.109; -100.803
566.316;  262.292; -286.116;  -28.791
566.595;   54.675;  -17.115;  -12.793
566.873;   96.914; -166.111;  -79.801
567.152;  -57.828; -490.113; -590.797
567.431;    3.538; -113.116;    6.210
567.709;   17.869; -344.107; -212.807
567.988;  274.608; -810.114; -769.794
568.266;  559.224; -160.115;  -68.793
568.545;  420.557; -644.100; -514.819
568.824;  614.721;  160.885;  356.208
569.102;  599.858; -351.114; -235.794
569.381;  237.795; -492.116; -407.792
569.659;  -32.957; -553.113; -553.796
569.938;   41.588; -743.122; -465.780
570.216;  116.930; -225.109; -225.804
570.494;  -25.338; -632.114; -572.795
570.773;   42.672;  202.879;  114.218
571.051;    4.003; -373.123; -357.778
571.330;   75.566; -221.113; -174.796
571.608;   39.525; -181.098; -173.823
571.886;  -54.643; -671.111; -581.799
572.164;  -63.351; -739.121; -621.782
572.443;  -56.987; -562.105; -512.811
572.721;  -58.890; -399.117; -289.790
572.999;  -25.646; -280.117; -168.788
573.277;   80.907;  379.894;  620.191
573.555;  320.534;   94.894;   37.190
573.834; 1454.678;  -86.117; -114.788
574.112; 1708.297;  880.893;  811.193
574.390;  495.838; -143.111;  -96.801
574.668;   13.273;  -91.112;  -61.797
574.946;  -17.166; -165.106; -187.810
575.224;   17.551;   71.891;  -16.803
575.502;  -28.710; -200.116; -204.791
575.780;  -65.901; -767.112; -829.798
576.058;  224.763; 1589.889; 1004.200
576.336;  -17.457; -210.110; -129.801
576.614;  -60.325; -511.112; -340.798
576.891;   56.354; -711.115; -823.794
577.169;  538.788; -158.108; -285.805
577.447;  609.346;  169.893;  202.193
577.725;  265.704;  629.888;  854.201
578.003;   16.152;  -71.112; -371.798
578.280;  100.572; -208.104; -242.812
578.558;   91.328; -450.115; -422.793
578.836;  135.936; -210.114; -145.795
579.114;   56.373; -630.112; -670.797
579.391;   62.305;   -6.117;  -18.789
579.669;  -59.995; -595.114; -704.794
579.947;  180.768; -326.107; -127.806
580.224;  347.593; -692.107; -524.806
580.502;  334.347;  127.893;   76.193
580.779;   17.461;  -42.117;   75.210
581.057;  -59.695; -584.109; -470.804
581.334;  -90.413; -726.102; -695.815
581.612;   30.260;   54.895;  511.190
581.889;  -29.374;  -83.101; -129.818
582.167;  -29.610; -298.099; -190.821
582.444; -103.155; -845.102; -814.817
582.721;   85.621;  657.899;  715.183
582.999;   48.088; -326.100; -167.821
583.276;  573.682; -812.123; -713.779
583.553;  778.316; -364.102; -294.816
583.831;  264.994; -607.104; -631.812
584.108;   68.986;  349.892;  174.195
584.385;    9.287; -122.102;  -98.815
584.662;  -61.535; -651.111; -828.801
584.940;   30.114;  204.889;  204.199
585.217;  -15.882;  -73.113; -303.796
585.494;   21.373;   71.890;  118.198
585.771;  213.956; -250.109; -354.804
586.048;  556.593; -196.113;  -76.796
586.325;  342.267; -721.110; -773.801
586.602;  103.148;  230.896;  213.188
586.879;  -11.466; -499.100; -580.820
587.156;   54.086; -156.105; -331.810
587.433;  -26.657; -701.102; -667.817
587.710;   60.100;  152.888;  234.202
587.987;  312.316; -264.105; -236.811
588.264;  804.477;  315.888;  387.202
588.541; 1399.825;  -61.104;   26.187
588.818; 2831.183;   72.892;  171.196
589.095; 2433.321; -163.104; -174.812
589.371;  389.254; -459.109; -414.804
589.648;   30.697; -581.107; -437.807
589.925;   29.237; -517.114; -621.795
590.202;   50.075; -741.112; -607.798
590.478;   94.593; -166.105;  -73.811
590.755;  278.914; -241.108; -132.806
591.032; 2630.369; -741.110; -699.802
591.308; 3687.941; -732.094; -790.831
591.585; 1875.219; -573.110; -560.802
591.862;  165.420;-1056.102; -950.817
592.138;   67.362; -475.108; -474.805
592.415;  162.224; -486.104; -495.813
592.691; 1509.071;  460.896;  518.188
592.968; 1963.402; -208.098; -123.824
593.244;  935.138; -695.116; -595.790
593.521;   60.270; -105.102;  -42.817
593.797;  -11.864; -810.122; -720.780
594.074;  360.165; -611.096; -588.826
594.350;  676.626;  828.905;  729.172
594.626;  315.765; -303.111; -283.801
594.903;  122.696; -643.101; -645.817
595.179;  210.602;  243.896;  418.187
595.455;   19.973; -136.107; -150.807
595.731;   15.929;  -19.103;  -38.814
596.008;  -31.791; -464.111; -434.800
596.284;   45.561; -187.100; -242.820
596.560;   51.597; -501.093; -493.833
596.836;  230.088; -173.105;  -70.810
597.112;  367.012; -582.108; -437.805
597.388;  299.938;  -49.097;  -48.826
597.665;  122.420;  437.887;  530.203
597.941;  -52.073; -572.089; -658.839
598.217;   16.873; -323.110; -293.802
598.493;  277.182;   61.891; -204.804
598.769;  546.781; -175.100;  -50.819
599.045;  329.090; -490.108; -562.806
599.321;   62.035; -193.100; -261.820
599.597;  148.357; -355.109; -476.804
599.872;  497.825;  409.896;  429.187
600.148;  393.039;  -61.097; -172.826
600.424;  305.295;   91.893;  202.193
600.700;  269.123; -170.107; -280.807
600.976;  129.659; -442.097; -464.825
601.252;  260.628; -226.109; -272.803
601.527;  221.751; -833.104; -840.813
601.803;  162.918; -453.105; -404.812
602.079;  187.831; -124.100; -118.819
602.354;  618.657; -620.092; -531.835
602.630;  867.518; -140.113; -482.796
602.906; 2431.126; -910.101; -863.818
603.181; 7184.568; -627.119; -534.786
603.457; 6076.212;   98.903; -278.826
603.733;  887.376; -605.120; -626.783
604.008; 1026.860; -245.106; -164.810
604.284; 3231.497; -636.101; -580.817
604.559; 2825.179;   -3.112;  -42.799
604.835;  504.262; -163.105; -225.810
605.110;  459.566; -732.099; -892.821
605.385;  747.500;  224.907;  267.167
605.661;  678.254; -625.095; -729.829
605.936; 1256.891; -664.108; -737.806
606.211; 1069.311;  -17.103; -170.815
606.487;  220.607; -329.114; -376.794
606.762;   28.718; -791.119; -745.786
607.037;  -13.962; -501.105; -433.810
607.313;  -38.203; -589.096; -574.828
607.588;  -12.841; -375.106; -137.810
607.863;   56.425;  -28.101; -143.818
608.138;  187.746;  513.890;  516.198
608.413;   40.820; -576.099; -592.822
608.688;   53.062; -203.108; -267.805
608.964;  200.003; -509.106; -218.809
609.239;  263.760; -107.105; -212.810
609.514;  254.618;  281.895;  240.188
609.789;  677.597; -187.104; -716.812
610.064;  897.021; -435.096; -609.827
610.339;  929.004; -855.109; -799.804
610.614; 1288.536; -131.100; -315.820
610.889;  708.668;  215.895;  107.188
611.163;   36.219; -407.104; -591.812
611.438;   72.133;   81.886; -167.794
611.713;   19.997; -467.101; -499.817
611.988;   65.099; -144.101; -328.818
612.263;   -3.963; -771.102; -717.815
612.538;  221.267;  385.887;  251.204
612.812;  203.237; -832.100; -911.820
613.087;  163.625; -358.098; -338.823
613.362;  -48.077; -497.107; -557.807
613.637;   45.357;  261.897;  138.186
613.911;   -6.367; -256.092; -345.835
614.186;  123.571; -249.107; -292.807
614.460;  739.628; -842.081; -758.854
614.735;  830.576;  -55.087;  -17.843
615.010;  162.341;   43.912;  -82.841
615.284;  238.186;  360.892;  246.195
615.559;  390.007; -792.092; -955.835
615.833;  319.093;  -76.099;  -87.822
616.108;    4.719; -225.090; -390.837
616.382;  139.602;  274.913;  402.156
616.656;  164.694; -241.090; -232.837
616.931;  529.793; -785.099; -700.822
617.205; 1122.302; -973.104; -979.813
617.480; 1034.961;  -91.125;    6.225
617.754;  175.734; -396.125; -128.774
618.028;    5.854; -369.129; -382.768
618.302;   78.285;   73.892;  -25.805
618.577;  -48.392; -371.103; -518.815
618.851;  -56.750; -399.109; -600.803
619.125;  -42.691; -335.134; -378.759
619.399;  -26.523; -244.104; -374.813
619.673;  -45.979; -330.115; -515.792
619.947;  -42.714; -333.114; -448.795
620.222;  -32.184; -198.110; -204.801
620.496;    3.399;  -47.121;  -96.782
620.770;   11.365; -187.122;  -93.781
621.044;  211.161;  323.895;  346.190
621.318;  750.727; -653.120; -614.783
621.592;  721.750; -430.121; -409.783
621.866;  384.255; -476.112; -572.799
622.140;   20.440; -207.116; -356.791
622.413;   49.459;  138.889;  112.200
622.687;  -25.728; -746.101; -492.817
622.961;   15.285; -130.108; -143.805
623.235;  -51.890; -633.111; -661.800
623.509; -102.307; -816.105; -848.811
623.783;    7.969;  -12.107;   48.193
624.056;  -20.447; -254.120; -280.783
624.330;   51.373;   63.888;   -3.797
624.604;   48.637; -271.116; -355.790
624.877;   75.595;  180.890;   26.198
625.151;   50.681; -249.114; -238.794
625.425;  -32.146; -150.103; -283.814
625.698;  -66.938; -367.119; -374.785
625.972;  -97.227; -799.110; -765.802
626.245;   68.663;  685.884;  484.210
626.519;  -40.393; -426.120; -340.784
626.792;  -35.553; -192.107; -380.807
627.066;  -88.542; -485.122; -662.779
627.339;  -97.656; -736.110; -663.802
627.613;   50.106;  351.880;  148.216
627.886;   45.425;  187.891; -612.803
628.160;  -11.499;  312.880; -161.783
628.433;  -93.986; -695.125; -703.775
628.706;  -75.343; -517.120; -615.784
628.979;   24.671;  296.876;  117.223
629.253;  -71.858; -785.119; -833.786
629.526;  375.574; -334.126; -253.772
629.799;  380.378; -641.123; -479.778
630.072;  187.631; -497.128; -516.769
630.346;  -53.186;-1115.116;-1080.790
630.619;  489.348; -467.107; -545.808
630.892;  664.810;  709.889;  593.200
631.165;  332.102;  790.896;  679.187
631.438;  -65.398;-1092.112;-1055.798
631.711;   41.256;  453.877;  257.221
631.984;  -59.491; -523.117; -624.789
632.257;  -59.670; -636.117; -681.789
632.530;  -41.812; -412.119; -433.785
632.803;   19.829; -109.115;    7.207
633.076;  -82.600; -360.123; -422.777
633.349;    1.910;  173.872;  121.231
633.622;  -32.039; -187.119; -240.785
633.895; -116.422; -903.120; -823.783
634.167;  -67.074; -496.126; -525.773
634.440;  -19.530;  -19.116; -137.792
634.713;    4.516;  -22.119; -120.786
634.986;   81.949;  593.871;  453.233
635.258;  -71.548; -507.115; -597.793
635.531;   92.276;  742.882; -343.788
635.804;  -34.343; -303.117; -318.789
636.077; -102.759; -830.116; -852.791
636.349;    7.075; -586.115; -474.793
636.622;  392.348; 1695.874; 1392.228
636.894;  263.407; -474.120; -909.784
637.167;  163.192; -836.127; -789.771
637.439;   43.863; -278.128; -213.770
637.712;  -50.926; -312.126; -293.772
637.984;  -71.858; -635.116; -707.791
638.257;  383.525;  515.877;  488.222
638.529;  602.590; -881.125; -924.776
638.802;  259.855; -508.128; -449.769
639.074; -105.910; -927.122; -952.781
639.346; -129.950; -942.135; -930.757
639.619;    6.259;  -79.142; -319.744
639.891;   -2.742;  -83.122; -168.779
640.163;  -76.990; -689.122; -756.780
640.435;   20.287;  273.878;  103.220
640.708;   10.789;  -72.122; -132.780
640.980;  -38.134; -366.122; -362.781
641.252;  180.443;  -25.121;  -71.781
641.524; 1835.169;  580.879;  573.219
641.796; 1885.121;-1094.121; -907.782
642.068;  322.523; -191.121; -300.782
642.340;  -48.250; -486.121; -566.783
642.613;   27.152;  294.880;  323.217
642.885; -102.271; -787.120; -878.783
643.157;  -48.544; -810.120; -658.784
643.428;   57.807;  170.880;  218.216
643.700;  -72.641; -498.120; -425.784
643.972;  -31.814;  -16.119; -133.785
644.244;  -84.587; -474.119; -559.785
644.516;  -47.360; -250.119; -114.786
644.788;   46.617;  662.881;  548.214
645.060;  -16.307;  -12.119; -124.786
645.332;  -99.605; -525.118; -535.787
645.603;   26.972;  479.882;  342.213
645.875;  -75.826; -334.118; -369.787
646.147;  151.201; 1487.882; 1242.212
646.418;  -52.647; -931.117; -918.788
646.690;  179.380; -714.117; -715.789
646.962;   39.856; -413.117; -451.789
647.233;  -13.042;   15.883;   11.211
647.505; -100.715; -595.117; -475.790
647.776;   34.012;  328.884;  229.210
648.048;   -7.011; -248.116; -418.790
648.320;  -67.559; -752.116; -679.791
648.591; -147.807;-1055.116; -958.791
648.862;  -79.881; -505.116; -577.792
649.134;   11.621;  115.885;  198.208
649.405;  -27.877; -661.115; -618.792
649.677;  -51.500; -475.115; -598.793
649.948;   -0.498; -181.115; -296.793
650.219;   -4.171;  -37.115; -147.793
650.491;  -80.094; -431.114; -520.794
650.762; -121.893; -705.114; -731.794
651.033;  -89.941; -437.114; -424.795
651.304;  -97.564; -743.114; -728.795
651.576;  -61.862; -680.114; -645.795
651.847;  -39.935; -250.113; -140.796
652.118;  -23.908;  -32.113; -189.796
652.389; -111.031; -639.113; -722.796
652.660;  -32.105; -147.113;  -89.797
652.931; -138.903; -897.112; -871.797
653.202;  -75.201; -382.112; -541.798
653.473;  -65.099; -633.112; -533.798
653.744;  155.753; -595.112; -590.798
654.015;  146.830; -356.112; -303.799
654.286;  -71.043; -642.111; -663.799
654.557;  -56.117; -586.111; -521.799
654.828; -150.465;-1114.111;-1088.800
655.099;  -76.513; -404.111; -291.800
655.370;  -94.411; -427.111; -543.801
655.641; -129.709; -656.110; -714.801
655.911;  -97.957; -618.110; -638.801
656.182;   39.219;  437.890;  387.198
656.453;   85.521;  830.890;  746.198
656.724;  -77.427; -466.110; -426.802
656.994;  -70.950; -553.109; -568.803
657.265; -107.098; -862.109; -873.803
657.536;  -78.596; -500.109; -377.804
657.806;  -99.219; -561.109; -593.804
658.077; -136.018; -866.109; -950.804
658.347;  -87.491; -523.108; -598.805
658.618; -111.489; -646.108; -694.805
658.888;  -29.312;  -41.108;  112.195
659.159;  -78.685; -432.108; -548.806
659.429;  -15.058; -292.108; -349.806
659.700;   15.594; -435.107; -390.807
659.970;  -17.230; -370.107; -359.807
660.241;   30.297; -754.107; -921.807
660.511;  530.424; -147.107; -174.808
660.781;  125.451; -793.106; -748.808
661.052;  -51.572; -222.106; -381.808
661.322;  -30.595;   21.894;   -9.809
661.592;    3.907;  257.894;  148.191
661.862;  -91.942; -369.106; -382.810
662.133;  -93.665; -551.105; -502.810
662.403; -121.713; -770.105; -676.810
662.673;  -70.111; -256.105; -213.811
662.943;  -82.559; -612.105; -551.811
663.213;   -5.007;  -85.105;  -81.811
663.483;  -79.755; -593.104; -568.812
663.753;  -58.704; -194.104; -152.812
664.023;   -6.052;   68.896;  -32.813
664.293;  -66.625; -319.104; -126.813
664.563; -108.498; -694.104; -648.813
664.833; -116.671; -743.103; -608.814
665.103; -134.019; -730.103; -793.814
665.373; -121.443; -766.103; -806.814
665.643;  -71.666; -863.103; -918.815
665.913;   36.036; -534.103; -714.815
666.182;  141.988; -685.102; -719.816
666.452;  287.165;  -22.102;  -89.816
666.722;  -23.733; -724.102; -784.816
666.992; -128.331; -948.102; -921.817
667.261;  -88.380; -824.102; -808.817
667.531;  200.847;  134.899;   45.183
667.801;  545.224; -440.101; -412.818
668.070;  236.026;  714.899;  697.182
668.340;  -95.572; -883.101; -840.819
668.609;   96.080;  588.900;  301.181
668.879;  -76.793; -490.100; -558.819
669.149;  -75.892; -539.100; -516.820
669.418; -101.540; -698.100; -726.820
669.688;  -46.938; -482.100; -666.820
669.957;  106.464; -423.099; -546.821
670.226;  -26.259; -268.099; -331.821
670.496;  -94.382; -431.099; -635.822
670.765;  -83.955; -418.099; -501.822
671.034; -134.229; -872.099; -828.822
671.304;  -21.677;   55.902; -111.823
671.573; -137.975;-1085.098; -957.823
671.842;   83.677; -380.098; -294.823
672.112;   49.604; -692.098; -586.824
672.381;   -8.644; -239.098; -214.824
672.650; -132.192;-1005.097;-1021.825
672.919;  -90.791; -631.097; -507.825
673.188;  -89.064; -681.097; -878.825
673.457; -144.937;-1101.097;-1143.826
673.726;  -75.560; -579.096; -646.826
673.995;  -48.158; -533.096; -479.826
674.265;  -22.831; -263.096; -333.827
674.534;   17.596; -183.096; -235.827
674.802;   19.322; -618.096; -703.828
675.071; 1004.274; -886.095; -801.828
675.340; 4139.276; -464.095; -339.828
675.609; 1388.853;  103.905;   82.171
675.878;   87.855; -949.095; -893.829
676.147;   24.082;  -26.095;   -8.829
676.416;   99.108; -210.094; -294.830
676.685;  751.685; 1000.906; -622.830
676.953;  126.687; -603.094; -452.831
677.222;  -22.886; -193.094; -273.831
677.491;  -18.959;  -24.094; -127.831
677.759;  -12.532;   11.907;  172.168
678.028;  -29.105; -279.093; -222.832
678.297;   -8.254;   71.907;  197.168
678.565; -134.652; -898.093; -944.833
678.834;  -55.675; -311.093; -268.833
679.102;  -72.098; -411.092; -391.834
679.371; -146.621; -898.092; -727.834
679.639; -127.944; -797.092; -786.834
679.908; -125.217; -794.092; -724.835
680.176; -149.666; -895.091; -941.835
680.445;  -74.914; -346.091; -352.835
680.713;   -3.187;  -58.091;  -23.836
680.982; -100.010; -523.091; -525.836
681.250;  -95.533; -578.091; -507.837
681.518; -108.681; -534.090; -751.837
681.787;  -21.829; -204.090; -167.837
682.055;  -61.053; -490.090; -422.838
682.323; -137.901; -993.090; -992.838
682.591;   31.426; -216.090; -538.838
682.859;   94.253;    9.911;  -35.839
683.128;   15.555;  232.911;  497.161
683.396; -160.593;-1102.089;-1122.840
683.664;  -44.516; -241.089;   21.160
683.932;   -7.515;  144.911;  -76.840
684.200;  -80.688; -576.088; -320.841
684.468;  -15.111;  -73.088; -124.841
684.736;  -49.509; -214.088; -175.841
685.004; -116.582;-1024.088; -982.842
685.272;  -47.655; -880.088; -774.842
685.540;  -65.153; -499.087; -557.843
685.808;  -86.452; -651.087; -682.843
686.076;  -92.775; -894.087; -969.843
686.343;  -57.998; -601.087; -815.844
686.611;   51.454; -195.087; -224.844
686.879;  463.331; -530.086; -553.844
687.147; 3485.908; -483.086; -480.845
687.414;  995.634;  -12.086; -169.845
687.682;   25.711; -658.086; -757.846
687.950;  322.513;  259.915;  263.154
688.217;   31.015; -792.085; -760.846
688.485;  -14.308; -632.085; -636.847
688.753;  571.494;  -11.085; -102.847
689.020;  187.546; -820.085; -851.847
689.288;  -92.328; -853.084; -787.848
689.555;  -20.376; -195.084; -148.848
689.823;  -48.374; -241.084; -345.849
690.090;  -85.947; -546.084; -651.849
690.358; -143.995; -877.084; -897.849
690.625;   -0.293;  120.917;   45.150
690.892;  -84.891; -403.083; -369.850
691.160;  -15.090;   72.917;  -35.850
691.427;    3.612;  141.917;  130.149
691.694; -129.111; -855.083; -929.851
691.962; -131.809;-1177.082;-1060.852
692.229;    9.918;  127.918;   56.148
692.496;   82.920;  130.918;  -49.852
692.763;    8.672; -164.082; -201.853
693.031;  -73.177; -739.082; -716.853
693.298;  -40.950; -509.081; -368.853
693.565;  310.502; -155.081; -163.854
693.832; 1383.279;   -5.081;   -9.854
694.099;  179.806; -643.081; -642.855
694.366;  -53.892; -882.081; -896.855
694.633;  -48.240; -920.080; -633.855
694.900;  723.061; 4367.920; -114.856
695.167;  436.313; -214.080; -380.856
695.434;  110.815; -646.080; -623.856
695.701;  195.117;  121.921;  -61.857
695.968;  491.569; -365.079; -361.857
696.234;  967.571; -415.079; -646.858
696.501;10277.923; -776.079; -614.858
696.768; 5433.399; -554.079; -617.858
697.035;  291.651; -632.078; -667.859
697.302;   39.903; -448.078; -552.859
697.568;   18.830; -458.078; -497.859
697.835;  -44.068; -683.078; -624.860
698.102;  -21.641; -498.078; -407.860
698.368;   71.535;  384.923;  396.139
698.635;  -37.313;  -47.077; -424.861
698.901;  -15.436; -240.077; -348.861
699.168;   78.741; -534.077; -456.862
699.435;   65.843;  -72.077;  -13.862
699.701;  -96.380; -868.076; -764.862
699.968;    5.522;  144.924; -441.863
700.234;  -92.077; -783.076; -822.863
700.500;  -41.500; -448.076; -539.864
700.767;  -17.173;   -1.075;   26.136
701.033; -131.671;-1015.075; -963.864
701.299;  -47.819; -450.075; -483.865
701.566;  111.283;  950.925;  763.135
701.832;   23.685;  -31.075;  -76.865
702.098;  -91.364;-1054.074;-1034.866
702.365;  -82.662;-1098.074;-1030.866
702.631;   -8.285;-1038.074;-1063.867
702.897; 1365.767; -765.074; -676.867
703.163; 2374.119;  348.926;  254.133
703.429;  161.871; -256.073; -273.868
703.695;  -20.577; -796.073; -792.868
703.961;    8.649; -214.073; -210.868
704.227;  -53.099; -630.073; -725.869
704.493;  103.653;  613.927;  510.131
704.759;  -12.745; -565.072; -540.870
705.025;   22.657; -203.072; -194.870
705.291;  -14.541; -666.072; -562.870
705.557;  166.211;  719.928;   34.129
705.823;   45.487; -742.072; -694.871
706.089;  149.439; -307.071; -326.871
706.355;  345.541; -315.071; -244.872
706.620; 5333.618; -776.071; -729.872
706.886; 7895.320; -309.071; -362.873
707.152;  745.997; -818.070; -973.873
707.418;   -3.576;-1153.070;-1186.873
707.683;   -8.525; -550.070; -530.874
707.949;  -40.973; -547.070; -578.874
708.215;   -9.521; -129.070; -207.874
708.480;  -23.294; -520.069; -420.875
708.746;  101.308;   68.931;   28.125
709.011;  -54.790; -578.069; -612.876
709.277;  -69.114; -538.069; -543.876
709.542;  -33.162; -428.069; -387.876
709.808;   -1.585;  -59.068;   89.123
710.073;  -75.583; -577.068; -695.877
710.339;  -30.781; -242.068; -228.877
710.604;   76.596; -780.068; -845.878
710.869;  338.498; -277.068; -366.878
711.135;  -59.201; -715.067; -628.879
711.400;  -78.849; -507.067; -608.879
711.665;  -65.872; -404.067; -479.879
711.931;  -87.270; -661.067; -677.880
712.196; -117.368; -876.067; -954.880
712.461;   95.234; -402.066; -490.880
712.726;  157.136; -727.066; -771.881
712.991;  -85.638; -647.066; -664.881
713.256;  -47.836; -350.066; -332.882
713.521;  -59.684; -417.065; -381.882
713.787;  -49.957; -454.065; -472.882
714.052;  -29.980; -214.065; -400.883
714.317;  -98.753;-1045.065; -981.883
714.581;  953.099; -374.065; -268.883
714.846; 1433.600; -822.064; -888.884
715.111;  121.952;  261.936;  257.116
715.376;  -31.646;  -86.064; -223.885
715.641;  -27.869; -365.064; -367.885
715.906;  312.258;   15.936; -551.885
716.171;  124.810;  221.937;  209.114
716.436;   28.612;  -78.063; -104.886
716.700; -108.437; -818.063; -692.886
716.965; -115.185; -794.063; -807.887
717.230;  -85.458; -339.063; -392.887
717.494;  -20.381;  -40.062; -134.888
717.759;  -82.479; -784.062; -640.888
718.024;   14.773;  269.938;  250.112
718.288;   72.949;  685.938;  395.111
718.553; -148.499; -803.062; -977.889
718.817; -152.422; -883.061; -899.889
719.082;  -33.820; -115.061; -125.890
719.346; -139.618;-1000.061; -947.890
719.611;  -50.266; -300.061; -255.891
719.875; -100.039; -568.060; -537.891
720.140;  -65.263; -453.060; -603.891
720.404;   28.414; -136.060; -249.892
720.668;  881.191; -475.060; -411.892
720.933;  356.368;  146.940;  137.108
721.197;  -91.530; -667.059; -600.893
721.461; -141.653; -851.059; -826.893
721.725;  -19.276;  -21.059; -250.894
721.990;  -60.725; -284.059; -204.894
722.254;  -20.748;  -26.059; -108.894
722.518;  -86.771; -286.058; -442.895
722.782;  -80.969; -743.058; -594.895
723.046;  110.008;  614.942;  570.105
723.310;   27.485;  374.942;  210.104
723.574; -100.313; -654.058; -614.896
723.838;  -98.187; -576.057; -642.897
724.102;  -54.185; -226.057; -239.897
724.366; -133.683;-1032.057; -978.897
724.630;  -93.656; -749.057; -571.898
724.894;  -69.829; -722.057; -514.898
725.158;  -16.877;   38.944; -295.898
725.422;  -57.300; -394.056; -327.899
725.685;  -63.574; -441.056; -349.899
725.949;  -87.347; -566.056; -519.900
726.213;  -79.370; -732.056; -811.900
726.477;  159.232;-1020.055; -933.900
726.740;  153.284; -274.055; -104.901
727.004;  319.061; -384.055; -510.901
727.268; 3292.963; -442.055; -400.901
727.531;  961.914; -961.055; -775.902
727.795;  -45.184; -713.054; -673.902
728.059;  -60.732; -552.054; -557.903
728.322;  -81.430; -841.054; -669.903
728.586;   43.472; -692.054; -701.903
728.849;  -79.976; -695.053; -756.904
729.112; -110.275; -812.053; -912.904
729.376; -111.423; -959.053; -905.904
729.639;  -79.221; -536.053; -536.905
729.903; -107.144; -733.053; -699.905
730.166;  -40.892; -437.052; -399.906
730.429;  -34.590; -317.052; -468.906
730.693;  -52.013; -355.052; -894.906
730.956;  204.538;  810.948;  651.093
731.219;  759.840; -310.052; -103.907
731.482;  123.692;-1003.051; -894.907
731.745;  116.269; -794.051; -935.908
732.009;   28.921;  -30.051;   50.092
732.272;  -88.402; -904.051; -771.909
732.535;  -44.775; -300.051; -310.909
732.798; -142.374;-1083.050;-1166.909
733.061;  -71.422; -430.050; -456.910
733.324;   11.930;   31.950; -180.910
733.587;   57.857;  290.950;  365.090
733.850;  -73.741; -973.049;-1050.911
734.113;   35.361;   33.951;   32.089
734.376;    9.713; -328.049; -447.912
734.639;  219.764; 1188.951; 1011.088
734.901;   92.116; -180.049; -402.912
735.164;  498.568; -883.048; -837.913
735.427; 1400.870; -166.048; -355.913
735.690;  131.697; -205.048; -234.913
735.952;  -28.551; -923.048; -925.914
736.215;  -25.949;-1113.048;-1009.914
736.478;   48.202; -771.047; -774.915
736.740;  216.954;   33.953;  129.085
737.003;  645.856; -658.047; -672.915
737.266; 4257.083;  -94.047;   46.084
737.528;  476.760; -682.047; -660.916
737.791;  319.812; -316.046; -327.916
738.053;  802.689;  465.954;  649.083
738.316;10546.690; -162.046; -136.917
738.578; 7989.242; -770.046; -736.918
738.841;  452.419; -382.046; -446.918
739.103;  186.446; -875.045; -777.918
739.365;  536.623;   79.955;  -69.919
739.628;    4.625; -884.045; -805.919
739.890;  -29.074; -758.045; -710.919
740.152;  -32.247; -692.044; -754.920
740.414;  -20.345; -408.044; -359.920
740.677;  -31.843; -785.044; -634.921
740.939;  -43.291; -587.044; -487.921
741.201;  281.811; -432.044; -572.921
741.463;   47.938; -689.043; -745.922
741.725;   21.639;  -21.043; -199.922
741.987;   48.841;  220.957;  116.078
742.249;   12.368; -751.043; -859.923
742.511;  219.320; -703.043; -794.923
742.773;   12.922; -546.042; -546.924
743.035;  134.599;  796.958;  533.076
743.297;  -25.674; -963.042;-1013.924
743.559;  758.127; -278.042; -262.925
743.821;   82.629; -735.042; -744.925
744.083;    6.456;  -44.041; -149.925
744.345;  -74.492; -869.041; -892.926
744.607;   33.110;   75.959;  122.074
744.868;  -44.263; -490.041; -554.927
745.130; -107.986; -994.041;-1008.927
745.392;   53.140;   -1.040;  -44.927
745.653;  -11.083; -411.040; -378.928
745.915;  169.819;  896.960;  631.072
746.177;   63.271;   35.960;  -43.928
746.438;   -9.527; -428.040; -543.929
746.700;  -42.350; -947.039; -988.929
746.961;   10.452; -659.039; -740.930
747.223;  128.328; -190.039;  -74.930
747.484;   90.830; -391.039; -471.930
747.746;  146.332;  -23.038; -106.931
748.007;  124.334; -647.038; -689.931
748.269;  315.086; -468.038; -440.931
748.530;  521.238; -852.038; -638.932
748.791;  268.490; -354.038; -420.932
749.053;  476.966;  286.963;  163.067
749.314;  471.568; -236.037; -169.933
749.575;  538.245; -945.037; -905.933
749.836;  873.097; -217.037;   86.066
750.098; 2398.449;  -60.037;  -21.934
750.359;37249.101;  414.964;  555.066
750.620;10191.802; -121.036; -220.935
750.881; 1067.379; -585.036; -513.935
751.142; 1376.556; -950.036; -938.936
751.403;16588.308; -789.036; -705.936
751.664; 7880.385;-1034.035; -999.936
751.925;  490.912; -175.035; -262.937
752.186;  289.889; -298.035; -278.937
752.447;  145.315; -590.035; -445.937
752.708;   53.067; -532.035; -648.938
752.969;   16.044; -566.034; -576.938
753.230;    3.721; -777.034; -672.939
753.491;   -2.577; -650.034; -631.939
753.751;   69.800;  109.966;   19.061
754.012;   95.852;  258.967;  181.060
754.273;   70.003; -174.033;  -71.940
754.534;   20.205; -487.033; -580.940
754.794;  -71.768; -926.033; -911.941
755.055;  130.734; 1051.967;  881.059
755.316;  -51.789; -700.032; -566.942
755.576;  -30.262; -606.032; -576.942
755.837;  -25.310; -527.032; -695.942
756.097;  -46.584; -530.032; -564.943
756.358;  -63.482; -725.032; -770.943
756.618;  -46.705; -705.031; -641.943
756.879;   14.722; -254.031; -349.944
757.139; -123.126;-1098.031;-1116.944
757.400;  -49.574; -538.031; -553.945
757.660;  -11.122; -365.031; -401.945
757.920;   19.054; -266.030; -228.945
758.181;  -31.044; -468.030; -351.946
758.441;  -85.817; -870.030; -809.946
758.701;  -24.765; -308.030; -215.946
758.961;  -23.763; -220.030; -278.947
759.222;  -52.211; -574.029; -502.947
759.482;  -72.459; -683.029; -723.948
759.742;  -92.733; -706.029; -547.948
760.002;    2.319;  -83.029; -143.948
760.262;   26.046;   50.972;  182.051
760.522;  -23.977; -498.028; -574.949
760.782;  -41.225; -738.028; -612.949
761.042;  -35.598; -618.028; -573.950
761.302;   56.453;   55.972;  -18.950
761.562;   54.505; -164.027; -154.951
761.822;   89.257; -710.027; -551.951
762.082;  -32.766;-1104.027;-1093.951
762.342;   83.111; -328.027; -403.952
762.601;   74.863; -567.027; -506.952
762.861;  373.015; -281.026; -207.952
763.121;  402.641; -406.026; -411.953
763.381; 7105.918; -499.026; -485.953
763.640; 8622.245; -139.026; -307.954
763.900;  392.997; -242.026; -203.954
764.160;   92.224; -458.025; -491.954
764.419;   -5.349; -726.025; -782.955
764.679;  -64.497; -795.025; -726.955
764.939;  -14.071; -124.025; -210.955
765.198;  -63.269; -608.025; -563.956
765.458;  -83.592; -710.024; -612.956
765.717;  -86.690; -454.024; -590.957
765.976;  -71.163; -428.024; -411.957
766.236;  -74.211; -475.024; -610.957
766.495;   28.741;  260.977;   73.042
766.755;  -77.058;-1090.023; -987.958
767.014;    9.969; -594.023; -665.958
767.273;  -40.079; -373.023; -397.959
767.533;  -46.602; -228.023; -307.959
767.792;  -23.825; -151.022; -188.960
768.051;  -41.398; -228.022; -276.960
768.310;  -80.996; -546.022; -650.960
768.569;  -12.370; -161.022;    4.039
768.828;  -20.118; -285.022; -363.961
769.088; -117.391;-1050.021; -942.961
769.347;  -70.264; -755.021; -599.962
769.606;  -92.437; -876.021; -857.962
769.865; -118.135;-1016.021;-1033.963
770.124;   -0.384; -411.021; -336.963
770.383;  -45.682; -778.020; -910.963
770.641;   -0.530; -398.020; -400.964
770.900;  -52.203; -953.020; -846.964
771.159;  -48.326; -851.020; -951.964
771.418;  -13.199; -917.020; -779.965
771.677;  114.528; -224.019; -293.965
771.936;  144.204; -794.019; -865.966
772.194; 1974.356; -465.019; -437.966
772.453;11126.133; -213.019; -391.966
772.712;  819.060;  416.982;  329.033
772.970;  116.212;   32.982;   63.033
773.229;   66.689;  -22.018;  102.033
773.488;  -79.059; -814.018; -770.968
773.746;   50.367;  296.982;  335.032
774.005;   15.894;  190.983;  -22.969
774.263;    2.546;  243.983;  177.031
774.522;  -48.727; -422.017; -548.969
774.780;  -73.650; -484.017; -417.970
775.039;  -83.598; -551.017; -531.970
775.297;  -26.371; -135.016; -351.970
775.555; -116.145; -489.016; -612.971
775.814; -116.668; -618.016; -570.971
776.072; -124.491; -749.016; -740.971
776.330; -109.789; -630.016; -520.972
776.589; -113.462; -703.015; -721.972
776.847; -121.185; -645.015; -624.973
777.105; -168.508;-1016.015;-1032.973
777.363;  -77.357; -459.015; -454.973
777.621; -129.905; -660.015; -717.974
777.879;  -29.128;  -42.014;   32.026
778.138;  -96.376; -554.014; -717.974
778.396; -106.774; -585.014; -526.975
778.654; -151.122;-1015.014; -970.975
778.912;  -67.670; -269.014; -371.976
779.170; -131.444; -880.013; -803.976
779.427; -134.517; -922.013; -897.976
779.685; -119.665; -880.013; -832.977
779.943;  -94.613; -654.013; -593.977
780.201; -148.461; -964.012; -883.978
780.459; -126.909; -651.012; -610.978
780.717;  -85.858; -440.012; -390.978
780.974;  -94.506; -449.012; -490.979
781.232;  -72.054; -358.012; -338.979
781.490;  -80.777; -551.011; -472.979
781.747;  -87.125; -555.011; -476.980
782.005;   15.752;  462.989;  254.020
782.263; -167.996; -542.011;-1004.981
782.520;  -95.395; -326.011; -501.981
782.778; -168.918;-1013.010;-1051.981
783.035; -174.341; -962.010; -938.982
783.293;  -66.064; -248.010; -206.982
783.550;  -58.812; -134.010; -198.982
783.808; -132.360; -764.010; -776.983
784.065; -160.008; -745.009; -874.983
784.322;  -45.882;   25.991;  -86.984
784.580; -137.130; -915.009; -771.984
784.837;  -79.403; -392.009; -466.984
785.094; -134.276; -783.009; -762.985
785.352;  -68.874; -304.008; -404.985
785.609; -114.847; -934.008; -839.985
785.866;  -70.170; -345.008; -401.986
786.123;  -74.569; -639.008; -583.986
786.380; -100.867; -665.008; -604.987
786.637;  -58.465; -225.007; -380.987
786.895;  -15.963; -456.007; -543.987
787.152;  -53.636; -135.007; -267.988
787.409;  -58.884; -123.007; -225.988
787.666;  -80.057; -299.006; -378.988
787.923;  -98.431; -616.006; -695.989
788.179; -105.279; -551.006; -584.989
788.436; -107.727; -585.006; -585.990
788.693;  -38.650;  -92.006;  -87.990
788.950;  132.127; -125.005; -112.990
789.207;  250.954; -381.005; -372.991
789.464;  -53.969; -161.005; -301.991
789.720;  -15.143;  150.995;  110.009
789.977; -170.616;-1003.005; -671.992
790.234;  -33.214;   44.996;  -66.992
790.490; -154.137; -884.004;-1031.993
790.747;  -26.035;  -85.004;   22.007
791.004;  -19.133; -426.004; -348.993
791.260;  -78.732; -430.004; -560.994
791.517; -108.280; -843.003; -788.994
791.773;  -47.128; -379.003; -342.994
792.030; -109.151; -596.003; -660.995
792.286; -105.474; -686.003; -636.995
792.543;  -19.722;  -74.002; -159.995
792.799;  -71.795; -584.002; -382.996
793.055; -166.444;-1179.002;-1210.996
793.312; -102.917; -827.002; -816.997
793.568;  -53.515; -746.002; -599.997
793.824;    2.987; -226.001; -284.997
794.081;   25.764; -447.001; -508.998
794.337;   60.366; -664.001; -561.998
794.593; 1218.893; -319.001; -271.999
794.849; 6773.769; -746.001; -772.999
795.105;  378.421; -270.000; -261.999
795.361;    9.773; -490.000; -457.000
795.617;  -51.975; -875.000; -945.000
795.873;  -60.450; -360.000; -407.000
796.129;  -28.400; -368.000; -306.000
796.385;   -9.125; -124.000; -156.000
796.641;   47.875;  412.000;  550.000
796.897;  -87.800; -666.000; -635.000
797.153;   62.150;  453.000;  357.000
797.409; -100.300; -785.000; -868.000
797.665;  -78.875; -625.000; -732.000
797.921;  -81.450; -775.000; -762.000
798.176;  -58.300; -744.000; -747.000
798.432;  -53.900; -824.000; -596.000
798.688;  -75.125;-1174.000;-1078.000
798.943;   74.600; -165.000; -147.000
799.199;   16.575;-1005.000; -959.000
799.455;  224.225;  369.000;  316.000
799.710;  128.225; -813.000; -380.000
799.966;  295.625; -162.000; -160.000
800.221;  483.000; -638.000; -721.000
800.477; 9984.150; -743.000; -710.000
800.732; 9925.600; -773.000; -800.000
800.988;  633.475;  205.000;  -19.000
801.243; 1548.650; -454.000; -344.000
801.498; 7630.825; -814.000; -739.000
801.754;  476.075; -289.000; -163.000
802.009;   81.100; -257.000; -335.000
802.264;  -44.175; -967.000;-1033.000
802.520;    9.500;  222.000;   -3.000
802.775;  -44.775; -524.000; -359.000
803.030;   49.275;  395.000;  356.000
803.285; -106.825; -840.000; -903.000
803.540;  -63.000; -686.000; -699.000
803.795;  -36.250; -648.000; -583.000
804.051;  -36.425; -279.000; -346.000
804.306;   11.225;  168.000;  128.000
804.561;  145.950;  451.000;  362.000
804.816;  133.575;  714.000;  861.000
805.071;    8.600; -185.000; -280.000
805.325;  229.625; -257.000; -427.000
805.580; -101.800; -841.000; -877.000
805.835;  -15.125; -204.000; -297.000
806.090;  -85.075; -760.000; -676.000
806.345;  -17.625; -344.000; -264.000
806.600;  -38.325; -549.000; -632.000
806.854;  -23.950; -408.000; -538.000
807.109;  -13.775; -493.000; -577.000
807.364;    6.400; -407.000; -328.000
807.618;   -8.400; -415.000; -381.000
807.873;   53.750; -470.000; -494.000
808.128;  101.275; -257.000; -518.000
808.382;  105.075; -224.000; -332.000
808.637;   87.750; -440.000; -511.000
808.891;  191.275; -257.000; -180.000
809.146;   93.875; -902.000; -794.000
809.400;  288.175; -848.000; -923.000
809.654;  344.050; -779.000; -551.000
809.909;  492.475; -841.000; -927.000
810.163; 6260.600; -813.000; -651.000
810.418;18395.300; -940.000; -861.000
810.672; 1140.075; -685.000; -690.000
810.926;  724.375; -993.000; -973.000
811.180; 1339.875; -439.000; -372.000
811.434;30608.275;  240.000;  135.000
811.689;13986.450; -231.000; -365.000
811.943;  687.225; -936.000; -953.000
812.197;  332.250; -893.000; -671.000
812.451;  129.725; -379.000; -514.000
812.705;  -24.750; -809.000; -619.000
812.959;   -4.825; -263.000; -388.000
813.213;   -9.550; -283.000; -209.000
813.467;   68.175;  470.000;  253.000
813.721; -113.325; -764.000; -792.000
813.975; -115.725; -826.000; -877.000
814.229;   19.950;  430.000;  353.000
814.482;  -69.900; -517.000; -566.000
814.736; -108.400; -766.000; -744.000
814.990; -129.775; -779.000; -872.000
815.244;  -47.525; -228.000; -285.000
815.497;  -82.550; -636.000; -601.000
815.751;  -22.925; -141.000;   82.000
816.005;  -89.450; -470.000; -586.000
816.258;  -67.750; -510.000; -363.000
816.512; -108.075; -693.000; -610.000
816.766;   -3.175;  121.000;  157.000
817.019;   33.250;  148.000;  149.000
817.273; -116.175;-1000.000; -802.000
817.526;  -26.700; -206.000; -173.000
817.779;  -41.575;-1049.000; -960.000
818.033;  -44.625; -693.000; -807.000
818.286; -127.375; -725.000; -792.000
818.540;  -86.625; -403.000; -403.000
818.793;  -73.125; -402.000; -489.000
819.046; -104.875; -582.000; -520.000
819.299;  -39.800; -157.000; -166.000
819.553; -110.525; -552.000; -592.000
819.806; -157.625;-1016.000; -838.000
820.059;  -72.825; -334.000; -354.000
820.312;    3.925;  152.000;  185.000
820.565;  -32.675;  110.000;  -27.000
820.818;  -65.775;  -59.000; -173.000
821.071; -161.600;-1041.000; -957.000
821.324; -103.300; -536.000; -540.000
821.577; -110.375; -457.000; -483.000
821.830;  -66.500; -270.000; -172.000
822.083; -131.250; -733.000; -288.000
822.336;  -54.775; -261.000; -167.000
822.589; -129.250; -805.000; -688.000
822.842; -146.300; -875.000; -770.000
823.094; -177.375;-1076.000;-1114.000
823.347; -132.075; -925.000; -729.000
823.600;    2.900;  402.000;  187.000
823.853;  -49.325; -311.000; -267.000
824.105;  -65.550; -331.000; -575.000
824.358; -104.100; -617.000; -716.000
824.611;   16.650;  234.000;   40.000
824.863;  -57.275; -612.000; -591.000
825.116;   48.250;  -33.000;   27.000
825.368;   78.200; -366.000; -372.000
825.621;  167.675; -186.000; -240.000
825.873;   76.800; -704.000; -737.000
826.126;  545.050; -669.000; -641.000
826.378;11449.050; -389.000; -505.000
826.630; 3241.175; -890.000; -898.000
826.883;   46.675; -754.000; -693.000
827.135;   44.200; -279.000; -270.000
827.387; -126.500; -893.000; -839.000
827.639;  -23.900;  -86.000;   32.000
827.892; -127.450; -742.000; -582.000
828.144; -138.350; -848.000; -804.000
828.396;  -46.500;  104.000;  -80.000
828.648;  -97.450; -440.000; -333.000
828.900; -156.275; -702.000; -795.000
829.152; -118.700; -684.000; -683.000
829.404;  -69.700; -215.000; -267.000
829.656;  -18.225;  321.000;  214.000
829.908;  -29.850;  393.000;  229.000
830.160; -160.275;-1064.000;-1047.000
830.412;  -98.975; -481.000; -430.000
830.664; -121.800; -557.000; -665.000
830.916;  -82.200; -268.000; -206.000
831.167; -173.400;-1073.000; -951.000
831.419; -125.700; -623.000; -566.000
831.671; -161.000; -764.000; -809.000
831.923;  -83.425; -311.000; -447.000
832.174;  -77.075; -273.000; -331.000
832.426; -111.425; -493.000; -582.000
832.678; -172.850;-1043.000;-1091.000
832.929; -159.525; -947.000; -935.000
833.181;  -58.375; -575.000; -677.000
833.432;  -63.150;  -59.000; -186.000
833.684;  -24.200;  112.000;  -27.000
833.935; -123.750; -610.000; -566.000
834.187; -122.100; -829.000; -823.000
834.438;  -45.975;  -58.000;  -25.000
834.689;  -61.550; -255.000; -123.000
834.941;  -64.400; -343.000; -244.000
835.192; -102.000; -590.000; -533.000
835.443;  -96.150; -419.000; -506.000
835.695;  -20.975;  138.000;  -16.000
835.946;  -94.550; -608.000; -378.000
836.197; -104.000; -599.000; -622.000
836.448; -104.875; -528.000; -395.000
836.699;  -64.675; -253.000; -341.000
836.950;  -18.100;   72.000;    7.000
837.201; -151.100;-1003.000; -987.000
837.452;  -64.525; -356.000; -170.000
837.703; -110.925; -791.000; -737.000
837.954;  -27.675; -205.000; -365.000
838.205;  -76.475;-1029.000;-1008.000
838.456;  179.650; -196.000; -282.000
838.707;   25.300; -423.000; -519.000
838.958;   -3.550; -634.000; -647.000
839.209;  293.475;   18.000;   40.000
839.460;  112.375; -439.000; -201.000
839.710;  177.800; -135.000; -297.000
839.961;  416.975;  730.000;  612.000
840.212;  354.250; -382.000; -497.000
840.462; 1086.750; -328.000; -277.000
840.713;17458.875; -571.000; -536.000
840.964; 8059.100;  -62.000; -143.000
841.214;  538.675; -384.000; -624.000
841.465;  586.050; -214.000; -141.000
841.715;  523.050; -417.000; -380.000
841.966;  668.650; -746.000; -685.000
842.216; 8563.975; -330.000; -431.000
842.466;36875.050; -169.000; -313.000
842.717; 2356.975; -964.000; -952.000
842.967;  331.050; -635.000; -641.000
843.217;  290.325;   20.000;   28.000
843.468;   73.175; -104.000; -132.000
843.718;  -47.550; -718.000; -726.000
843.968;  -92.625; -837.000; -765.000
844.218;   17.925; -315.000; -262.000
844.469;  -46.425; -577.000; -561.000
844.719;  -99.225; -537.000; -682.000
844.969; -100.225; -550.000; -580.000
845.219; -135.750; -814.000; -862.000
845.469;  -79.800; -392.000; -342.000
845.719; -132.325; -792.000; -884.000
845.969;  -19.250;  119.000;  174.000
846.219; -129.000; -738.000; -720.000
846.469;    2.350;  464.000;  432.000
846.718;  -51.925; -115.000;   31.000
846.968; -128.425; -827.000; -827.000
847.218;  -61.000; -224.000; -371.000
847.468; -112.675; -586.000; -555.000
847.718; -146.125; -827.000; -798.000
847.967; -138.700; -826.000; -915.000
848.217;  -88.125; -449.000; -569.000
848.467;  -63.575; -405.000; -376.000
848.716; -113.075; -708.000; -725.000
848.966;    2.000; -372.000; -358.000
849.215;  -36.900; -428.000; -419.000
849.465; -109.250; -785.000; -615.000
849.714; -132.250;-1132.000;-1150.000
849.964;  -70.175; -551.000; -613.000
850.213;  -28.850; -393.000; -355.000
850.463;   75.900;  137.000;  340.000
850.712;    0.125; -542.000; -567.000
850.961;   15.275; -739.000; -678.000
851.211;  102.700; -513.000; -504.000
851.460;  156.700; -635.000; -650.000
851.709;  561.200;  -25.000;   18.000
851.958; 9771.925; -912.000; -750.000
852.208;13736.175; -859.000; -879.000
852.457;  522.075; -181.000;  -13.000
852.706;   65.200; -791.000; -823.000
852.955;   21.200; -507.000; -528.000
853.204;  -60.150; -521.000; -461.000
853.453;  -89.950; -418.000; -458.000
853.702; -125.300; -660.000; -750.000
853.951; -109.950; -532.000; -520.000
854.200; -113.175; -613.000; -562.000
854.449; -135.725; -695.000; -661.000
854.698;  -98.925; -340.000; -279.000
854.946;  -67.275; -181.000; -284.000
855.195; -153.950; -843.000; -868.000
855.444;  -99.875; -395.000; -420.000
855.693; -125.900; -345.000; -432.000
855.941; -111.200; -387.000; -516.000
856.190;  -69.300; -256.000; -382.000
856.439; -125.875; -652.000; -703.000
856.687;  -49.750;  -99.000;  -72.000
856.936; -126.175; -621.000; -323.000
857.184; -180.325;-1067.000;-1020.000
857.433; -107.125; -423.000; -512.000
857.681; -167.425; -989.000; -953.000
857.930;  -75.775; -282.000; -433.000
858.178; -153.875; -856.000; -929.000
858.427; -169.425; -802.000; -781.000
858.675; -115.625; -377.000; -544.000
858.923; -112.600; -527.000; -819.000
859.172; -173.000;-1094.000;-1070.000
859.420; -104.700; -339.000; -239.000
859.668; -115.675; -624.000; -628.000
859.916;  -29.775;  109.000;  115.000
860.164; -113.125; -699.000; -603.000
860.413;  276.750; -878.000; -696.000
860.661;  282.525; -709.000; -577.000
860.909;  -83.050; -339.000; -325.000
861.157;  -90.675; -277.000; -444.000
861.405; -119.650; -534.000; -670.000
861.653;   11.025;  310.000;  310.000
861.901;  179.875; -543.000; -613.000
862.149;   24.750; -801.000; -824.000
862.396;  -90.975; -297.000; -187.000
862.644;  -76.150; -368.000; -347.000
862.892;  -44.775;   98.000;  138.000
863.140; -118.250; -549.000; -530.000
863.388; -157.400; -815.000; -759.000
863.635; -126.300; -642.000; -601.000
863.883;  -24.700;  231.000;  190.000
864.131;  -99.500; -288.000; -357.000
864.378; -150.375; -675.000; -540.000
864.626; -117.475; -347.000; -415.000
864.873; -124.725; -556.000; -505.000
865.121; -140.275; -714.000; -799.000
865.368;  -51.875; -173.000;   75.000
865.616;  -48.925;  -33.000;  -40.000
865.863;  -86.625; -462.000; -506.000
866.111; -101.350; -795.000; -824.000
866.358;   18.775; -426.000; -420.000
866.605; 2060.875;  -64.000; -804.000
866.853; 2382.325; -621.000; -537.000
867.100;  -30.825; -728.000; -775.000
867.347;  -99.700; -672.000; -611.000
867.594;  -86.400; -740.000; -714.000
867.841;   76.150;   97.000;   17.000
868.089; -136.825; -746.000; -698.000
868.336; -120.725; -477.000; -420.000
868.583; -122.375; -637.000; -741.000
868.830;  -60.600; -131.000; -170.000
869.077; -152.425; -859.000; -787.000
869.324; -137.450; -502.000; -458.000
869.571; -132.550; -398.000; -430.000
869.818; -133.375; -485.000; -439.000
870.065; -107.325; -439.000; -513.000
870.311; -115.525; -456.000; -542.000
870.558; -103.600; -332.000; -311.000
870.805;  -86.900; -320.000; -384.000
871.052; -114.450; -494.000; -369.000
871.298;  -58.450; -204.000; -131.000
871.545;  -75.125; -151.000; -185.000
871.792;  -86.600; -173.000; -222.000
872.038;  -81.700;   43.000; -126.000
872.285; -123.075; -496.000; -387.000
872.532; -106.150; -357.000; -387.000
872.778;   -0.175;  556.000;  403.000
873.025;  -89.925; -384.000; -359.000
873.271;    4.825;  501.000;  578.000
873.517;  -30.225; -133.000; -209.000
873.764;  -45.575; -193.000;  -80.000
874.010;  -58.075; -143.000; -230.000
874.257;  -52.875;  123.000;   90.000
874.503; -140.550; -579.000; -479.000
874.749;  -83.225;   31.000;  275.000
874.995;  -62.050;  -80.000;  -20.000
875.242; -127.550; -540.000; -478.000
875.488; -123.475; -414.000; -439.000
875.734;  -63.975; -106.000; -234.000
875.980;  182.575; -872.000;-1032.000
876.226;  411.225; -157.000; -255.000
876.472;   -9.075;  343.000;  237.000
876.718;  -44.800;  184.000;  158.000
876.964;  -37.825;   56.000;   55.000
877.210; -151.800; -547.000; -677.000
877.456; -128.000; -630.000; -557.000
877.702; -174.000; -821.000; -832.000
877.948; -114.800; -377.000; -497.000
878.193;    3.775;  361.000;  255.000
878.439;  -99.750; -487.000; -472.000
878.685; -104.725; -272.000; -343.000
878.931; -122.200; -618.000; -676.000
879.176;  -90.100; -201.000; -201.000
879.422; -181.850; -933.000; -820.000
879.668;   46.450;   10.000;   79.000
879.913;  161.325;   53.000;  137.000
880.159;  -64.450; -112.000;  -17.000
880.404;  -67.375; -152.000; -162.000
880.650;  -41.300;   91.000;  141.000
880.895; -157.650; -670.000; -710.000
881.141; -125.775; -454.000; -428.000
881.386; -140.525; -503.000; -658.000
881.631; -100.100; -311.000; -166.000
881.877;  -29.250;  112.000;  -13.000
882.122; -139.075; -684.000; -600.000
882.367;  -86.900; -136.000; -186.000
882.612;  -84.825;  -80.000; -176.000
882.858; -170.500; -877.000; -823.000
883.103;  -93.875; -297.000; -267.000
883.348; -149.850; -759.000; -852.000
883.593; -142.425; -677.000; -602.000
883.838;  -58.900; -311.000;  -24.000
884.083;    8.975;  353.000;  288.000
884.328; -107.225; -564.000; -545.000
884.573;  -82.200; -196.000; -143.000
884.818;  192.525; -694.000; -531.000
885.063;  208.250; -348.000; -315.000
885.308;  -94.025; -475.000; -398.000
885.553;  -16.400;  245.000;  325.000
885.797; -128.025; -545.000; -615.000
886.042;  -75.975;    8.000;   58.000
886.287;  -98.600; -253.000; -211.000
886.532;  -66.400;   26.000;  204.000
886.776; -108.575; -407.000; -525.000
887.021; -148.200; -621.000; -574.000
887.265; -155.175; -685.000; -689.000
887.510; -138.700; -557.000; -496.000
887.755;  -99.600; -194.000; -164.000
887.999; -152.325; -552.000; -575.000
888.244;  -66.675;  -58.000;  161.000
888.488;  -14.325;  371.000;  393.000
888.732; -124.325; -368.000; -520.000
888.977; -141.375; -622.000; -567.000
889.221; -153.925; -683.000; -659.000
889.465; -125.325; -422.000; -566.000
889.710;  -92.350;  -56.000; -299.000
889.954;  -15.400;  579.000;  467.000
890.198; -134.800; -584.000; -707.000
890.442; -144.475; -716.000; -712.000
890.687; -161.525; -800.000; -753.000
890.931;  -95.675; -273.000; -210.000
891.175; -143.575; -502.000; -500.000
891.419;  -92.600; -105.000; -110.000
891.663;  -87.850; -239.000; -112.000
891.907; -174.375; -801.000; -545.000
892.151; -176.750; -920.000; -815.000
892.395; -123.150; -274.000; -387.000
892.638;  -22.075;  408.000;  291.000
892.882; -173.975; -780.000; -867.000
893.126;   14.250;  758.000;  558.000
893.370;  -95.050; -167.000; -168.000
893.614; -147.875; -714.000; -715.000
893.857; -113.975; -183.000; -197.000
894.101; -146.500; -527.000; -631.000
894.345;  -65.700;  300.000;  150.000
894.588;    2.400;  569.000;  380.000
894.832;  -89.200; -178.000;  -84.000
895.075;  -75.425;   15.000;  -92.000
895.319; -126.775; -552.000; -420.000
895.563; -115.575; -413.000; -353.000
895.806; -156.175; -628.000; -741.000
896.049;  -72.475; -576.000; -368.000
896.293;   90.375;  527.000;  405.000
896.536;  -74.450; -465.000; -468.000
896.779;  -65.175; -149.000;   -1.000
897.023; -140.675; -751.000; -714.000
897.266;  -40.250;  325.000;  269.000
897.509; -177.150; -900.000; -901.000
897.752;  -52.400;  149.000;  171.000
897.996; -192.800; -972.000; -864.000
898.239;  -55.225;  168.000;  102.000
898.482; -123.700; -431.000; -453.000
898.725;  -50.575;  101.000;   53.000
898.968; -161.750; -609.000; -744.000
899.211; -119.875; -513.000; -361.000
899.454; -131.700; -633.000; -539.000
899.697;  -67.525;   90.000;  -43.000
899.940; -171.025; -761.000; -757.000
900.182; -118.850; -335.000; -405.000
900.425;  -98.225; -150.000; -298.000
900.668;  -37.675;  491.000;  350.000
900.911; -104.975; -292.000; -345.000
901.154;  -63.150;  141.000;   -3.000
901.396; -142.000; -407.000; -412.000
901.639; -133.600; -430.000; -496.000
901.882; -188.275; -790.000; -809.000
902.124;  -93.750;  -29.000; -143.000
902.367; -119.600; -315.000; -361.000
902.609; -140.200; -476.000; -453.000
902.852;  -91.625; -108.000; -260.000
903.094; -131.575; -458.000; -337.000
903.337;  -65.350;  -26.000;   53.000
903.579; -122.325; -228.000; -441.000
903.821; -150.100; -597.000; -744.000
904.064;  -82.925;   85.000;  127.000
904.306;  -88.075; -126.000; -166.000
904.548; -109.425; -152.000; -366.000
904.790; -102.625; -195.000; -340.000
905.033; -146.825; -625.000; -577.000
905.275; -117.600; -513.000; -524.000
905.517;   33.800;  468.000;  256.000
905.759;  -64.550; -667.000; -761.000
906.001; -109.150; -322.000; -369.000
906.243;  -64.675; -162.000; -224.000
906.485;  100.175; -265.000; -207.000
906.727;  136.075; -499.000; -542.000
906.969;  -35.475;  -30.000; -135.000
907.211;  111.975; -316.000; -382.000
907.453;  295.750; -188.000; -237.000
907.695;   29.000; -158.000; -385.000
907.936;   31.725;  818.000;  706.000
908.178;  -62.275;   92.000; -135.000
908.420;  -81.225; -111.000; -162.000
908.662; -140.900; -633.000; -682.000
908.903; -107.600; -208.000; -123.000
909.145;  -56.925; -240.000; -305.000
909.386;  -19.825;  315.000;  280.000
909.628;   27.200;  363.000;  397.000
909.870;    0.125;   29.000;  264.000
910.111;  -92.250; -809.000; -949.000
910.353;   15.050; -123.000; -161.000
910.594;   -5.125; -574.000; -606.000
910.835;   72.525; -265.000; -326.000
911.077;  148.875; -503.000; -604.000
911.318;  268.750; -505.000; -471.000
911.559;  467.625; -577.000; -880.000
911.801; 1297.625; -284.000; -280.000
912.042; 9818.375;  -50.000; -159.000
912.283;27709.050;  404.000;  371.000
912.524; 4747.250; -396.000; -457.000
912.765;  525.175; -193.000;   79.000
913.006;  255.175; -307.000; -338.000
913.247;   45.200; -270.000; -290.000
913.488;  -12.775;  -43.000;   30.000
913.729;  -84.175; -373.000; -373.000
913.970;  -61.725;  -96.000; -292.000
914.211;  -79.875; -160.000; -198.000
914.452;  -59.100; -118.000;  -11.000
914.693;    0.025;  510.000;  592.000
914.934;   13.050;  510.000;  440.000
915.175;  -62.900;   53.000;  -95.000
915.415;  -75.325; -137.000;   27.000
915.656;  -66.400;  -28.000;  192.000
915.897;  -96.800; -252.000;  -82.000
916.137;  -75.025;   74.000;   -9.000
916.378; -129.125; -573.000; -517.000
916.619;  -86.325; -159.000;  -63.000
916.859;  -28.400;  303.000;  330.000
917.100;  120.950; 1655.000; 1070.000
917.340;   38.775;  930.000;  728.000
917.581;   51.325;  965.000;  789.000
917.821;  -28.325; -171.000;  143.000
918.061;   11.050; -199.000;  -72.000
918.302;  -57.475; -152.000; -211.000
918.542;  -33.850;  -22.000;    3.000
918.782;   42.100;  369.000;  377.000
919.023;  103.350;  360.000;  427.000
919.263; 1310.875; 8131.000;  202.000
919.503; 1181.300; -137.000;  -54.000
919.743;  654.325;  390.000;  266.000
919.983;  294.650; -134.000;  -26.000
920.223;   87.375;  135.000;   14.000
920.463;  154.650;  631.000;  554.000
920.703;  136.250;   84.000;   39.000
920.943;  172.350; -110.000;   90.000
921.183;  239.450; -414.000; -405.000
921.423;  514.750;  307.000;  546.000
921.663;  710.625; -174.000; -257.000
921.903; 1526.725;  237.000;  173.000
922.143; 8245.475;  372.000;  389.000
922.383;33283.025;  158.000;  115.000
922.622;12715.100; -120.000;  -15.000
922.862; 1311.475;  796.000;  785.000
923.102;  486.875;  -51.000;   33.000
923.341;  188.925;   59.000;   74.000
923.581;   87.450;  450.000;  360.000
923.821;   17.525;  301.000;  398.000
924.060;   -0.700;  351.000;  193.000
924.300;  -62.325;  -16.000; -128.000
924.539;  -14.975;  584.000;  473.000
924.779;   15.300;  812.000;  597.000
925.018;  -59.875;  247.000;  353.000
925.257;   -6.925;  595.000;  666.000
925.497;  -40.975;  447.000;  412.000
925.736;  -71.275;  -35.000;  102.000
925.975;    1.900;  687.000;  669.000
926.214;   28.125;  907.000;  850.000
926.454;   18.550;  706.000;  757.000
926.693;  -59.250;  419.000;  543.000
926.932;   27.975; 1021.000;  825.000
927.171;   56.025; 1107.000; 1044.000
927.410;   54.425; 1144.000;  967.000
927.649;    8.650;  924.000;  742.000
927.888;   -2.925;  590.000;  564.000
928.127;  -11.600;  680.000;  678.000
928.366;   22.600;  842.000;  826.000
928.605;   32.925;  831.000;  737.000
928.844;  226.475; 1451.000; 1393.000
929.083;  607.000;  770.000;  613.000
929.321;  361.525; 1335.000; 1359.000
929.560;   87.925; 1158.000; 1122.000
929.799;  -28.700;  574.000;  475.000
930.038;   91.500; 1025.000; 1394.000
930.276;  -49.600;  334.000;  397.000
930.515;   -6.200;  827.000;  681.000
930.753;  -10.675;  614.000;  589.000
930.992;  -32.350;  664.000;  717.000
931.230;    3.525;  847.000;  847.000
931.469;  151.450; 2162.000;  892.000
931.707;   81.425;  840.000;  751.000
931.946;   51.850; 1278.000; 1344.000
932.184;   46.800; 1437.000; 1175.000
932.423;   39.425; 1265.000;  963.000
932.661;   84.025; 1296.000; 1428.000
932.899;   28.075;  987.000;  821.000
933.137;   11.400;  754.000;  564.000
933.376;  134.375; 1664.000; 1335.000
933.614;  175.250; 1759.000; 1196.000
933.852;   47.750; 1357.000; 1171.000
934.090;  122.025; 1722.000; 1747.000
934.328;   93.150; 1252.000; 1457.000
934.566;   90.100; 1431.000; 1110.000
934.804;  126.300; 1263.000; 1309.000
935.042;  416.550; 1861.000; 1850.000
935.280; 1666.225; 2088.000; 2063.000
935.518; 1732.525; 2113.000; 2007.000
935.756;  373.650; 2481.000; 2316.000
935.994;  159.275; 1808.000; 1751.000
936.231;  355.000; 2890.000; 2950.000
936.469;  204.225; 2367.000; 2378.000
936.707;  158.075; 2220.000; 2167.000
936.945;  220.075; 2825.000; 2882.000
937.182;  197.325; 2679.000; 2741.000
937.420;  310.200; 3602.000; 3031.000
937.657;  412.550; 3365.000; 3478.000
937.895;  342.575; 3331.000; 3488.000
938.133;  292.975; 3540.000; 3528.000
938.370;  350.175; 3896.000; 4191.000
938.607;  399.100; 4488.000; 4205.000
938.845;  529.775; 5587.000; 5549.000
939.082;  465.600; 5387.000; 5177.000
939.320;  539.950; 5799.000; 5728.000
939.557;  639.050; 6549.000; 6491.000
939.794;  734.950; 7285.000; 7097.000
940.031;  890.825; 8421.000; 8368.000
940.269; 1103.600; 9552.000; 9107.000
940.506; 1123.575;10901.000;10507.000

