
Integration time [ms]: 100.000
Averaging Nr. [scans]: 40
Smoothing Nr. [pixels]: 0
Data measured with spectrometer [name]: 2101013U2
Wave   ;Sample   ;Dark     ;Reference
[nm]   ;[counts] ;[counts] ;[counts] 

394.013;  -43.705; -450.257; -315.536
394.305;  -74.555; -461.258; -419.536
394.596;  -71.069; -676.269; -527.514
394.887; -100.692; -796.268; -654.518
395.178;   10.312;  145.736;   11.476
395.470;  -29.786; -210.263; -356.526
395.761;   48.610;  305.734;  394.479
396.052;  -66.586; -545.284; -306.489
396.343;  -65.402; -557.276; -454.503
396.634;  -45.756; -200.279; -290.497
396.926;  -67.517; -618.268; -565.517
397.217;  -13.476;   11.725;  -17.504
397.508;  -32.749; -366.273; -154.507
397.799;  -77.606; -555.279; -571.497
398.090; -126.357; -973.280; -902.495
398.381;    4.529;   11.708;  -11.473
398.672;  -91.771; -585.292; -742.473
398.963;  -52.105; -348.279; -373.498
399.254;   -1.170;   54.709; -209.475
399.545; -135.866;-1017.266; -883.520
399.836;  -43.403; -407.277; -343.501
400.127;  -26.075; -205.295; -209.468
400.418;  -27.400; -423.274; -392.506
400.709;  -36.859; -359.281; -333.493
401.000;  -38.470; -268.291; -309.476
401.290;   29.867;  225.698;  115.545
401.581;   -8.814; -166.286; -228.485
401.872;  -54.778; -542.298; -486.462
402.163;  -24.801; -313.296; -252.467
402.454;  -10.970; -123.291; -163.475
402.744;  -98.252; -844.297; -813.465
403.035;  -26.548; -226.293;  -86.471
403.326;  -35.346; -366.292; -384.474
403.617;   -0.129;  204.701;  165.539
403.907;  -57.186; -593.283; -679.490
404.198;  -73.589; -545.307; -599.446
404.489;  -70.610; -618.283; -588.491
404.779;  -98.808; -618.302; -660.456
405.070;    2.089;  -67.304; -174.451
405.360;  -27.497; -259.293; -238.472
405.651;   15.844;  125.699;   98.542
405.942;   -4.814;  209.714;  127.516
406.232;  -64.787; -432.285; -413.487
406.523;   95.502;  641.706;  758.530
406.813;  -78.514; -579.286; -644.484
407.104;   35.703;  261.708;  144.527
407.394;  -85.804; -604.299; -591.462
407.685;   14.513;  336.715;  222.513
407.975;  -67.935; -400.283; -382.490
408.265;  -19.493; -134.289; -190.478
408.556;  -68.420; -472.291; -459.475
408.846;   64.952;  474.706;  429.530
409.137;   -0.067;   -1.288; -216.480
409.427;  -44.537; -193.285; -271.487
409.717;  -85.199; -776.273; -692.508
410.007;   -7.113;    4.715; -170.486
410.298;  -44.399; -360.295; -342.469
410.588;  -69.263; -495.285; -510.486
410.878; -104.190; -792.287; -873.482
411.168;  -60.603; -481.298; -478.463
411.459;  -22.161; -295.283; -242.489
411.749;  -75.921; -609.292; -507.474
412.039; -105.692; -755.289; -386.480
412.329;   22.696;   40.722;  132.501
412.619;  -14.339;  -62.286; -148.485
412.909;   89.157;  639.711;  594.521
413.199;  -26.982; -130.280; -251.495
413.490;   74.206;  521.710;  352.523
413.780; -124.181;-1013.279; -913.496
414.070;    5.198;  -46.276;  235.497
414.360;  -77.380; -729.278; -666.498
414.650; -107.391; -726.288; -688.482
414.940;  -60.706; -538.280; -441.496
415.230;   14.209;   50.712;   74.519
415.520;   26.956;  155.730;   66.486
415.809;  -11.059; -305.281; -125.493
416.099;  -35.853; -388.277; -229.501
416.389;   63.925;  435.726;  236.494
416.679;   12.089;   91.738;   85.473
416.969;  -63.490; -527.287; -503.483
417.259;   30.794;  341.721;  171.503
417.549;   45.016;  522.718;  318.508
417.838;  -12.217; -205.268; -147.518
418.128;   73.432;  650.710;  492.522
418.418;  -73.023; -491.272; -579.509
418.708;    0.625;    9.726;  -48.506
418.997;  -57.451; -474.275; -480.505
419.287; -118.624; -733.273; -790.507
419.577;  -19.461; -160.283; -123.489
419.866;  -68.128; -588.277; -498.501
420.156;   -4.970; -242.270;  -55.513
420.446;   -5.987; -112.263;  -26.526
420.735;  -64.171; -376.271; -446.512
421.025;  263.570; 1830.722;  315.502
421.314;  -22.121; -203.271; -226.512
421.604;   10.332;   89.732;  233.484
421.893;  -93.197; -705.271; -602.511
422.183;  -81.562; -487.263; -461.526
422.472;   -6.046;  -36.271; -107.511
422.762;  -54.940; -416.266; -379.521
423.051; -124.352; -916.276; -916.503
423.341;  -65.149; -491.273; -439.507
423.630;  -15.939; -121.265;   15.477
423.919;    7.374;   58.725;   49.495
424.209;  -14.661;  -31.263;   56.473
424.498;    2.882;   68.732;  161.483
424.787;  -73.467; -535.267; -601.518
425.077;  -25.664;   34.735;   29.478
425.366; -101.210; -734.262; -744.528
425.655;   84.526;  639.727;  259.493
425.945;  -43.168; -313.247; -268.554
426.234;   18.018;  117.741;  300.467
426.523;  -36.557;  -86.259; -350.534
426.812;   24.685;  107.734;  159.480
427.101;   -5.669; -127.269; -323.515
427.390;   -5.419;  -55.270;  -86.514
427.680;  -70.179; -624.257; -411.538
427.969;  -38.503; -330.255; -301.540
428.258;  -51.480; -385.257; -477.536
428.547;   38.878;  449.728;  397.490
428.836;  -63.225; -421.253; -398.543
429.125;  -33.856; -199.259;  -72.534
429.414;  -46.772; -330.251; -294.548
429.703;  -44.597; -231.251; -213.548
429.992; -116.997; -938.250; -828.549
430.281;  -70.838; -397.264; -331.524
430.570;   -1.024;  -21.252;   32.454
430.859;   16.618;  279.741;  352.466
431.148;   84.956;  636.752;  631.446
431.437;   33.251;  391.748;  367.454
431.725;  -84.305; -544.257; -481.536
432.014; -122.599; -845.253; -756.545
432.303;  -41.858; -149.239; -105.569
432.592;  -65.187; -460.263; -178.525
432.881;  -86.043; -601.248; -437.554
433.169;  -28.277; -343.255;  -61.540
433.458;   67.696;  445.765;  540.424
433.747;  -73.460; -397.261; -289.529
434.036;  -54.062; -275.242; -280.564
434.324;  -73.445; -395.249; -379.551
434.613;    3.538;   40.757;  159.437
434.902;   21.540;  333.760;  439.433
435.190;   27.792;   75.761;  295.431
435.479;  -10.165;  -52.245;   83.441
435.767;  -67.314; -411.244; -427.561
436.056;  -62.512; -340.242; -294.563
436.345;  -68.484; -372.240; -223.568
436.633;   18.304;   60.750;  383.450
436.922;   27.441;  208.760;  414.432
437.210;  -43.405; -194.236;    1.426
437.499; -104.254; -583.235; -432.576
437.787;  -61.805; -339.236;  -10.574
438.075;   -9.308;   56.761;  162.430
438.364;  -10.932;  -44.238;  250.429
438.652;  -56.893; -286.226; -138.592
438.941;  -16.448;    3.770;  269.415
439.229;  -84.649; -665.252; -466.545
439.517;  -45.128; -160.234;  -85.577
439.806;  -87.166; -501.225; -290.595
440.094;   34.373;  377.766;  650.421
440.382;  -81.576; -653.233; -302.580
440.670;  -65.554; -361.235; -285.576
440.959;  -79.189; -347.223; -170.599
441.247;  -38.422; -151.229; -109.587
441.535;  -54.453; -266.235;   31.423
441.823;  -99.527; -497.234; -305.578
442.111;    8.279;  173.771;  327.412
442.400; -104.640; -628.245; -335.559
442.688;  -29.002; -111.234; -620.579
442.976; -130.877; -786.213; -450.617
443.264;  -64.615; -324.224; -364.597
443.552;  -46.993; -258.226;   51.408
443.840;   54.347;  602.765;  876.423
444.128;   10.524;  265.767;  269.420
444.416;  -99.871; -694.228; -312.588
444.704;  -68.835; -465.219;  -92.605
444.992;  -34.068;   -0.226;  240.407
445.280;  -81.123; -517.230;  -94.585
445.568;  -91.401; -694.212; -396.618
445.856;  -31.437; -174.221;  357.398
446.143;  -71.435;  -54.220;   -7.604
446.431;    2.730;  -25.228;  625.411
446.719;   65.143;  489.783;  675.391
447.007;   48.401;  481.769;  705.416
447.295;   68.061;  597.777;  871.402
447.583;  -54.422; -464.229;  -34.587
447.870;  -64.712; -434.221; -202.601
448.158;  -29.598; -104.230;  129.415
448.446; -125.810; -800.219; -338.604
448.733;  -35.490;   13.776;  269.403
449.021;  -10.776;   60.788;  341.382
449.309;  -42.524; -296.210;  208.379
449.596;    9.092;  128.783;   59.392
449.884;  -96.563; -571.222; -325.600
450.172; -118.319; -756.227; -406.590
450.459;   51.796;  645.786;  780.387
450.747;  -88.033; -411.218; -147.608
451.034;   64.730;  493.772;  889.411
451.322;  -66.904; -413.214; -170.614
451.609;    4.235;  292.777;  508.403
451.897;  -78.916; -550.203; -183.634
452.184; -125.539; -622.223; -400.598
452.472;  -15.522;   97.792;  269.375
452.759;   68.690;  512.781;  864.395
453.047;  -73.277; -407.212; -125.617
453.334; -101.709; -732.219; -216.606
453.621;  -70.478; -438.214; -161.615
453.909;   -7.842;   13.796;  384.368
454.196;  -46.761; -299.199; -123.641
454.483;   -6.189;  317.798;  540.364
454.771;  -39.346; -215.208;  196.374
455.058;  -52.621; -316.207;  102.374
455.345;  -17.028;   71.807;  344.347
455.632;  -28.270; -128.207;  235.373
455.919;  -15.908;  -82.196;  182.354
456.207; -127.010; -774.198; -450.642
456.494;  -82.513; -475.200;  -66.639
456.781;  -78.390; -399.202; -198.635
457.068;  -55.819; -253.206;  -29.628
457.355; -102.694; -698.206; -401.629
457.642;  -79.843; -552.205; -290.630
457.929; -109.305; -778.194; -417.651
458.216;  -99.027; -575.212; -354.617
458.503;  -45.704; -173.193;  -19.652
458.790; -113.471; -864.208; -630.625
459.077;  -46.264;  -77.202;  110.364
459.364;  -80.681; -350.195; -210.649
459.651;  -13.120;  -46.206;  220.372
459.938; -141.973; -864.209; -665.623
460.225;   -7.264;  132.799;  276.363
460.512; -131.608; -836.197; -688.645
460.799;   -6.833;  -32.218;  320.392
461.086;  -63.687; -370.200; -251.640
461.372;  -75.185; -509.198; -279.642
461.659;  -27.783; -165.196;  108.354
461.946;  -65.004; -445.193;  -54.651
462.233;  116.513;  842.800;  888.361
462.519; -131.113; -814.201; -464.639
462.806; -108.233; -768.197; -497.645
463.093;  -62.901; -445.191;  -66.656
463.380; -145.871; -920.186; -824.664
463.666;  -50.208; -259.197;  -18.646
463.953;  -41.131; -406.195; -243.648
464.239;  -47.481; -173.195;  -77.648
464.526;   46.795;  413.806;  743.350
464.813; -100.250; -565.190; -304.658
465.099;   38.271;  606.807;  607.348
465.386;  100.471;  903.807;  921.348
465.672; -108.658; -694.197; -522.645
465.959; -108.172; -598.188; -520.662
466.245;  -78.179; -468.193; -359.652
466.532;  -22.707; -109.195;   63.352
466.818;  -59.471; -357.186; -216.664
467.104;  -96.015; -488.182; -415.672
467.391;  -90.650; -628.189; -459.658
467.677;  -61.895; -289.186;    9.335
467.964; -103.499; -682.189; -471.660
468.250;  -64.745; -331.186; -160.665
468.536;   -4.924;   90.811;  180.341
468.822; -128.343; -821.184; -574.668
469.109;   56.170;  351.827;  471.311
469.395;   72.448;  729.808;  787.346
469.681;   -6.349;   46.811;  156.341
469.967; -100.148; -699.188; -382.660
470.254;  -61.447; -494.188; -306.662
470.540;  -98.133; -601.196; -476.646
470.826;  -84.714; -488.181; -397.675
471.112;    0.507;  288.816;  113.331
471.398;  -41.267; -253.183;  -58.670
471.684;  -89.235; -626.177; -447.680
471.970; -150.963; -918.180; -981.675
472.256;  -92.627; -521.192; -441.654
472.542;  -76.503; -499.171; -434.691
472.828; -122.266; -743.182; -607.672
473.114;  -67.347; -380.166; -283.700
473.400;  -75.858; -504.175; -293.684
473.686;  -74.796; -452.166; -400.701
473.972;  -30.731; -230.174; -131.687
474.258; -138.680; -925.173; -843.689
474.544;  -43.261; -183.178;   -2.679
474.830;  -16.233;  -65.175;   45.316
475.116;  -55.575; -123.190; -196.658
475.401;  -74.213; -558.180; -467.676
475.687; -116.938; -725.180; -718.676
475.973; -111.765; -673.181; -770.673
476.259;   82.943;  736.825;  764.315
476.544;  -87.809; -539.176; -437.682
476.830;  -84.629; -398.172; -322.690
477.116;  -59.484; -430.177; -336.682
477.401;   29.537;  346.820;  358.324
477.687;  -61.608; -289.175; -405.684
477.973;  -17.489;   21.819;   28.326
478.258;  -60.419; -448.163; -348.706
478.544;  -23.069;   21.815;   61.334
478.829; -112.877; -818.171; -738.692
479.115; -106.154; -749.172; -651.690
479.401;  -63.807; -444.174; -449.686
479.686;  -27.363; -253.180;  -74.676
479.972; -132.211; -886.178; -776.680
480.257;  -50.672; -258.166;  -65.700
480.542;  -81.727; -614.170; -469.693
480.828;  158.992; 1288.824; 1392.317
481.113;  -80.258; -464.176; -426.683
481.399;  -49.715; -236.161; -202.711
481.684;  -95.147; -620.166; -462.700
481.969;  -23.039; -158.159;  -73.713
482.255;  -67.150; -439.169; -285.695
482.540;  -86.710; -569.178; -441.680
482.825;  -72.846; -395.187; -404.663
483.110;  -40.375;  -85.169; -105.696
483.396; -102.711; -840.157; -652.718
483.681;   56.244;  543.826;  730.313
483.966; -117.714; -696.160; -700.712
484.251;  -73.756; -404.174; -310.687
484.536;  -76.871; -356.165; -378.703
484.822;  -78.406; -205.173; -218.687
485.107;  -93.680; -599.152; -502.726
485.392;   69.730;  662.836;  541.296
485.677;    4.351;  354.832;  163.302
485.962;   24.589;  160.843;  270.283
486.247;  -16.842;  -14.162;   -8.707
486.532;  -58.672; -178.166; -325.701
486.817;   45.384;  381.839;  431.291
487.102;  -96.133; -453.154; -514.722
487.387; -104.610; -637.156; -652.718
487.672;  -32.394; -154.164;  -38.705
487.957;  -49.690; -394.160; -286.711
488.241;  -62.128; -290.150; -314.729
488.526;  -48.805; -280.152; -148.726
488.811; -145.210; -881.177; -818.680
489.096; -118.257; -666.154; -702.723
489.381;  -20.056;    3.847;  162.275
489.666;  -68.215; -428.161; -510.710
489.950;   71.143;  558.846;  627.277
490.235;  -90.079; -480.151; -458.728
490.520;  -92.616; -756.161; -723.710
490.804; -123.710; -827.156; -736.719
491.089;  -73.351; -469.149; -299.732
491.374;  -25.194; -132.164;  -75.704
491.658; -129.725; -817.147; -717.735
491.943; -105.930; -657.152; -609.727
492.227;  -39.358; -178.155;  -38.721
492.512;  -68.411; -294.157; -341.717
492.797; -113.052; -713.149; -716.731
493.081; -115.024; -588.147; -598.735
493.366; -108.390; -751.161; -635.711
493.650;   96.433;  831.859;  917.254
493.935;  -99.100; -648.147; -447.734
494.219; -115.819; -778.142; -687.743
494.503; -107.653; -585.150; -487.730
494.788;  -22.662;   46.842;   74.285
495.072;   21.222;  184.850;  434.271
495.356;  -75.851; -463.148; -343.733
495.641; -136.673; -812.146; -736.736
495.925; -145.209; -976.156; -903.719
496.209;  -89.276; -599.149; -451.732
496.494; -115.444; -763.142; -544.744
496.778;  -56.833; -364.154; -360.722
497.062; -127.884; -819.156; -627.719
497.346; -118.815; -869.160; -640.711
497.631;   60.750;  580.852;  560.266
497.915;  -17.547;  -64.145;  175.261
498.199;  -66.661; -341.157; -277.718
498.483;  -84.556; -562.152; -508.725
498.767;   15.597;  301.850;  300.271
499.051;  -28.551; -126.149; -100.732
499.335; -109.302; -693.149; -739.731
499.619;  -78.778; -381.129; -423.767
499.903;  -34.259; -272.155;  -65.721
500.187; -103.257; -588.153; -316.724
500.471; -124.630; -796.152; -595.727
500.755;  -32.865;   62.839;  -96.710
501.039;  -50.783; -270.155; -357.721
501.323;  -11.517;  -21.141;  264.254
501.607;  -68.844; -447.163; -503.706
501.891;  -92.960; -607.156; -512.718
502.174;  -97.045; -726.144; -585.741
502.458;   -4.654;   89.849;  370.273
502.742;  -30.489; -180.138; -191.751
503.026;  -63.400; -412.147; -254.734
503.310;  -69.889; -437.159; -375.713
503.593;  -85.224; -464.147; -325.735
503.877;  -51.433; -232.133; -156.760
504.161;  -32.356;    2.847;  -50.724
504.444; -117.037; -841.158; -710.716
504.728; -114.194; -487.164; -522.704
505.012;  -38.828; -257.150;  -76.729
505.295;  -66.040; -417.161; -212.711
505.579;  -58.485; -256.156; -496.719
505.862;  -94.122; -555.145; -333.738
506.146; -116.838; -681.159; -758.714
506.429;   51.062;  568.841;  461.286
506.713; -110.404; -732.151; -667.728
506.996;  -17.983;   90.846;  295.278
507.280; -113.370; -633.165; -474.703
507.563;  -86.284; -469.155; -261.721
507.847;  -77.407; -423.153; -112.724
508.130;  -95.465; -665.161; -456.711
508.413; -105.573; -758.167; -577.700
508.697;  -26.323; -151.167;   12.300
508.980;  -63.481; -422.153; -312.724
509.263;  -85.384; -466.155; -450.720
509.547;  -30.053; -124.150;   82.271
509.830;  -40.065; -172.160;  140.289
510.113;    0.115;  128.844;  298.281
510.396;  -88.106; -530.152; -300.725
510.680; -134.922; -818.145; -812.738
510.963;   14.893;  184.846;  180.277
511.246;  -93.052; -493.150; -357.730
511.529;  -82.472; -482.145;  -83.739
511.812;  -33.009; -250.134;   10.241
512.095;  -97.579; -740.151; -396.728
512.378;  -51.624; -317.147; -245.736
512.661; -119.663; -703.137; -623.753
512.944; -111.093; -750.142; -637.744
513.227;  -65.213; -170.137; -171.752
513.510;  -89.645; -479.144; -671.741
513.793; -101.291; -485.140; -435.747
514.076;  -35.576;  -43.127;  -39.771
514.359;  -64.776; -294.149; -135.732
514.642;  -86.093; -442.142; -567.744
514.925;   58.134;  581.860;  561.253
515.208;  -96.034; -498.134; -443.758
515.491;  -61.632; -276.133; -182.761
515.773;  -82.020; -410.143; -337.742
516.056;   12.763;  249.864;  409.246
516.339; -127.511; -754.136; -652.755
516.622; -103.628; -518.150; -488.730
516.904;  120.356;  882.857;  975.257
517.187; -114.238; -730.138; -523.752
517.470; -111.669; -568.143; -510.743
517.752; -100.961; -624.136; -470.756
518.035; -118.490; -708.139; -725.749
518.318; -139.236; -799.136; -744.755
518.600;  -69.457; -300.132; -325.762
518.883;   -8.068;  310.858;   88.256
519.165; -104.789; -585.138; -426.751
519.448;  -43.807;  -61.132;  -19.762
519.730; -115.375; -573.126; -415.773
520.013;   70.992;  588.867;  664.240
520.295;  -40.083;  -94.134;  -15.759
520.578;  -72.180; -335.131; -305.764
520.860;  -38.507; -254.132;   56.238
521.143; -134.385; -763.135; -584.756
521.425;  -68.123; -251.125; -279.775
521.707; -100.100; -622.127; -380.771
521.990;  -27.800; -199.127;  167.229
522.272;  -53.166; -116.140;   -4.748
522.554;  -55.495; -237.143; -157.742
522.836;  -60.309;  -24.134;   99.241
523.119;  -75.475; -496.148; -189.734
523.401;  -83.679; -448.130; -314.766
523.683; -132.162; -865.137; -693.753
523.965;   14.362;  408.862;  260.248
524.247;  -23.745;   54.878;  170.220
524.529;  -85.433; -451.134; -367.759
524.812;  -15.454;   -3.130;  191.234
525.094; -133.238; -773.138; -631.751
525.376;  -45.497; -143.124;   78.223
525.658;  -91.011; -441.136; -339.754
525.940; -153.680; -805.131; -671.764
526.222;  -74.936; -188.136;  -88.755
526.504;  -44.681; -190.131;   32.237
526.786; -153.958; -960.133; -647.760
527.068;  -59.596; -124.123;  -67.778
527.349; -152.912; -865.137; -774.754
527.631;  -37.407; -137.132;   22.238
527.913; -124.151; -664.127; -450.771
528.195; -137.174; -761.125; -639.774
528.477;  -42.734;  -93.134;  -30.758
528.759; -119.629; -648.130; -522.766
529.040; -110.796; -569.123; -293.778
529.322;  -63.248; -235.125;  -10.774
529.604;  -43.004;  -47.130;   93.233
529.886;  -87.150; -546.126; -302.773
530.167;   -4.430;  232.870;  192.235
530.449;  -16.599;    1.853;   63.265
530.731; -107.970; -572.122; -459.779
531.012;  -92.617; -513.120; -216.784
531.294;  -54.212; -118.116;  -43.792
531.575;   20.627;  290.875;  538.225
531.857;  -97.060; -548.135; -266.757
532.138;  -51.467; -113.141;   40.254
532.420;    0.215;  294.865;  403.244
532.701; -123.183; -722.133; -751.760
532.983;   -5.182;  232.867;  182.239
533.264;  -29.225; -243.126;  175.228
533.546;  -98.486; -491.136; -508.755
533.827;  -28.058;  173.867;   -1.759
534.109;  -80.910; -352.135;  -80.757
534.390; -120.531; -725.132; -582.762
534.671;  -58.885; -270.135;  -82.756
534.953; -127.421; -751.123; -611.779
535.234;  -89.764; -426.117; -255.789
535.515; -144.466; -891.119; -735.785
535.796;  -94.826; -431.128; -193.770
536.078; -175.947;-1050.124; -904.777
536.359;  -48.471;  -22.123;    3.221
536.640;  -89.124; -480.125; -197.774
536.921;  -17.478;  225.871;  143.232
537.202;  -44.164;  -87.138;  -16.751
537.483;   14.195;  251.869;  377.236
537.764;  -24.955;   17.870;   98.235
538.045;  -95.384; -543.134; -371.758
538.326; -117.478; -596.129; -447.768
538.607; -122.200; -686.127; -476.771
538.888;  -23.968;   98.879;    5.218
539.169; -121.669; -704.122; -535.781
539.450;  -17.053;  236.871;   16.233
539.731;  -78.693; -361.121; -182.783
540.012;  -27.917;  199.880;  412.216
540.293;  -35.772;   82.876;  158.224
540.574; -144.284; -895.113; -717.796
540.855;   21.232;  435.879;  377.218
541.136;  -11.620;   47.878;  139.220
541.416;  -80.904; -161.130; -220.766
541.697;  -79.906; -274.131; -170.763
541.978;  -74.610; -270.135; -315.757
542.259;  -78.275; -211.127; -236.771
542.539;  -72.438; -191.116; -186.790
542.820;   30.702;  461.875;  480.225
543.101;  -62.547;  -52.145;  -77.738
543.381; -136.025; -638.127; -591.771
543.662;  -24.626;  159.873; -254.771
543.942; -162.476; -751.127; -830.770
544.223;  -33.369;  193.878;  161.219
544.504;  -79.072; -275.124; -182.777
544.784; -120.000; -592.126; -408.773
545.065;  -84.537;  104.884; -254.791
545.345;  -21.491;  227.881;   14.215
545.626;  -33.434;  -14.113; -108.796
545.906;  -33.430;   77.869;   98.235
546.186;  -60.899;   92.874;  -95.773
546.467;  -44.721;   99.877;  -95.778
546.747;   -4.438;  264.884;  327.210
547.027;  -20.697;   91.876;  111.223
547.308; -111.101; -376.127; -530.770
547.588;   -5.002;  299.871;  371.232
547.868;   37.570;  458.870;  588.235
548.149;   53.789;  609.885;  593.207
548.429;  -81.326; -347.127; -299.771
548.709; -118.692; -645.120; -461.784
548.989;  -23.990;   84.882;   88.213
549.269;  -47.857;   10.868;  139.239
549.550;  -17.071;  215.877;  117.222
549.830; -139.357; -758.111; -556.799
550.110;  -90.031; -468.110; -320.801
550.390;  -48.495; -128.122;  -56.779
550.670; -153.135; -868.114; -783.795
550.950; -111.968; -509.121; -471.782
551.230;   43.181;  549.879;  460.218
551.510;  -97.468; -381.121; -326.782
551.790;  -61.930; -173.109; -127.803
552.070;  111.979;  940.877; 1181.223
552.350;  -89.741; -492.119; -377.786
552.630;  -21.019;   -2.121;   77.219
552.909;  -17.262;  181.884;   73.209
553.189;  -43.256;  -49.132;   33.237
553.469; -114.166; -703.119; -514.786
553.749; -113.500; -469.127; -357.772
554.029;  -45.713;   33.883;  -24.790
554.308;  -68.411; -154.115;  -37.794
554.588;  -75.276; -196.128; -204.770
554.868;  -84.318; -366.121;  -47.782
555.147;  -56.611; -114.115;  -46.793
555.427;  -96.162; -260.116; -250.792
555.707;  -71.811; -284.115; -200.793
555.986; -122.406; -719.111; -538.800
556.266;  -18.288;   23.884;   72.210
556.546; -158.818; -888.121; -675.782
556.825; -134.460; -657.114; -556.794
557.105;  -66.477; -125.128;   17.230
557.384;  -22.362;  122.884;  187.209
557.664; -134.612; -717.116; -508.792
557.943; -102.468; -557.121; -411.782
558.222;  -94.639; -345.118; -344.788
558.502;  -56.061; -116.115;  -76.793
558.781;   -5.712;  194.885;  499.208
559.061;  -71.639; -232.118; -227.788
559.340;  -10.589;  302.883;  353.211
559.619;  -25.788;   93.884;  148.210
559.899;  -78.463; -239.117; -266.789
560.178; -136.161; -778.115; -593.793
560.457; -140.488; -623.117; -562.790
560.736; -112.106; -472.111; -482.800
561.015; -117.202; -500.128; -502.769
561.295;  -29.227;  180.893;  215.193
561.574;  -42.686;  119.885;  116.207
561.853;    2.021;  274.891;  303.197
562.132;  -38.386;  -45.114;  182.206
562.411;   25.981;  396.879;  553.219
562.690; -114.787; -592.115; -458.792
562.969;   55.217;  472.888;  630.203
563.248;  366.281; 2966.878; 2487.219
563.527;  -77.681; -290.111; -408.800
563.806; -123.451; -650.127; -521.771
564.085;  -72.575; -297.105; -206.810
564.364; -126.563; -594.117; -405.790
564.643;  -84.544; -276.121; -223.781
564.922;    2.920;  221.890;  397.198
565.201; -140.180; -640.109; -700.803
565.479;  -77.112; -297.115; -219.792
565.758; -145.727; -810.128; -712.770
566.037;  -62.004; -155.109; -100.803
566.316;  -63.812; -286.116;  -28.791
566.595;  -55.436;  -17.115;  -12.793
566.873;   31.169; -166.111;  -79.801
567.152; -129.758; -490.113; -590.797
567.431;  -43.488; -113.116;    6.210
567.709;  -83.052; -344.107; -212.807
567.988; -172.085; -810.114; -769.794
568.266;  -60.436; -160.115;  -68.793
568.545; -113.744; -644.100; -514.819
568.824;   -6.787;  160.885;  356.208
569.102;  -75.385; -351.114; -235.794
569.381; -115.437; -492.116; -407.792
569.659;  -98.834; -553.113; -553.796
569.938; -131.494; -743.122; -465.780
570.216;  -59.754; -225.109; -225.804
570.494; -135.560; -632.114; -572.795
570.773;   -6.243;  202.879;  114.218
571.051;  -84.346; -373.123; -357.778
571.330;  -54.709; -221.113; -174.796
571.608;  -73.241; -181.098; -173.823
571.886; -127.107; -671.111; -581.799
572.164; -143.168; -739.121; -621.782
572.443; -105.175; -562.105; -512.811
572.721;  -81.263; -399.117; -289.790
572.999;  -78.864; -280.117; -168.788
573.277;   24.375;  379.894;  620.191
573.555;  -43.875;   94.894;   37.190
573.834;  -56.964;  -86.117; -114.788
574.112;   68.248;  880.893;  811.193
574.390;  -56.181; -143.111;  -96.801
574.668;  -62.583;  -91.112;  -61.797
574.946;  -80.075; -165.106; -187.810
575.224;  -41.730;   71.891;  -16.803
575.502;  -68.363; -200.116; -204.791
575.780; -142.883; -767.112; -829.798
576.058;  163.869; 1589.889; 1004.200
576.336;  -77.856; -210.110; -129.801
576.614; -104.458; -511.112; -340.798
576.891; -138.136; -711.115; -823.794
577.169;  -91.403; -158.108; -285.805
577.447;  -12.327;  169.893;  202.193
577.725;   50.043;  629.888;  854.201
578.003;  -71.608;  -71.112; -371.798
578.280;  -74.523; -208.104; -242.812
578.558; -120.511; -450.115; -422.793
578.836;  -81.835; -210.114; -145.795
579.114; -136.183; -630.112; -670.797
579.391;  -47.989;   -6.117;  -18.789
579.669; -133.061; -595.114; -704.794
579.947;  -77.777; -326.107; -127.806
580.224; -113.652; -692.107; -524.806
580.502;  -49.627;  127.893;   76.193
580.779;  -42.363;  -42.117;   75.210
581.057; -103.204; -584.109; -470.804
581.334; -132.621; -726.102; -695.815
581.612;  -10.450;   54.895;  511.190
581.889;  -60.370;  -83.101; -129.818
582.167;  -73.418; -298.099; -190.821
582.444; -147.120; -845.102; -814.817
582.721;   62.055;  657.899;  715.183
582.999;  -52.168; -326.100; -167.821
583.276; -143.845; -812.123; -713.779
583.553;  -95.746; -364.102; -294.816
583.831; -131.299; -607.104; -631.812
584.108;   -0.678;  349.892;  174.195
584.385;  -80.121; -122.102;  -98.815
584.662; -130.481; -651.111; -828.801
584.940;  -29.906;  204.889;  204.199
585.217;  -75.484;  -73.113; -303.796
585.494;  -29.955;   71.890;  118.198
585.771;  -90.104; -250.109; -354.804
586.048;  -64.534; -196.113;  -76.796
586.325; -130.656; -721.110; -773.801
586.602;  -12.248;  230.896;  213.188
586.879; -114.093; -499.100; -580.820
587.156;  -78.375; -156.105; -331.810
587.433; -141.571; -701.102; -667.817
587.710;  -14.933;  152.888;  234.202
587.987;  -78.949; -264.105; -236.811
588.264;    4.317;  315.888;  387.202
588.541;  -46.348;  -61.104;   26.187
588.818;  -38.654;   72.892;  171.196
589.095;  -59.974; -163.104; -174.812
589.371; -101.879; -459.109; -414.804
589.648; -108.977; -581.107; -437.807
589.925; -117.310; -517.114; -621.795
590.202; -138.983; -741.112; -607.798
590.478;  -71.449; -166.105;  -73.811
590.755;  -70.603; -241.108; -132.806
591.032; -134.755; -741.110; -699.802
591.308; -153.861; -732.094; -790.831
591.585; -125.655; -573.110; -560.802
591.862; -167.220;-1056.102; -950.817
592.138; -115.778; -475.108; -474.805
592.415; -110.473; -486.104; -495.813
592.691;   22.677;  460.896;  518.188
592.968;  -75.891; -208.098; -123.824
593.244; -137.513; -695.116; -595.790
593.521;  -55.545; -105.102;  -42.817
593.797; -152.870; -810.122; -720.780
594.074; -132.939; -611.096; -588.826
594.350;   59.087;  828.905;  729.172
594.626;  -71.056; -303.111; -283.801
594.903; -137.870; -643.101; -645.817
595.179;    4.227;  243.896;  418.187
595.455;  -64.952; -136.107; -150.807
595.731;  -57.647;  -19.103;  -38.814
596.008; -101.757; -464.111; -434.800
596.284;  -63.268; -187.100; -242.820
596.560; -115.085; -501.093; -493.833
596.836;  -63.875; -173.105;  -70.810
597.112;  -94.103; -582.108; -437.805
597.388;  -61.090;  -49.097;  -48.826
597.665;    9.616;  437.887;  530.203
597.941; -125.331; -572.089; -658.839
598.217;  -94.730; -323.110; -293.802
598.493;  -62.004;   61.891; -204.804
598.769;  -61.769; -175.100;  -50.819
599.045; -111.853; -490.108; -562.806
599.321;  -90.443; -193.100; -261.820
599.597;  -83.904; -355.109; -476.804
599.872;   12.727;  409.896;  429.187
600.148;  -55.414;  -61.097; -172.826
600.424;  -18.852;   91.893;  202.193
600.700;  -64.127; -170.107; -280.807
600.976; -130.740; -442.097; -464.825
601.252;  -83.779; -226.109; -272.803
601.527; -162.723; -833.104; -840.813
601.803;  -87.699; -453.105; -404.812
602.079;  -64.044; -124.100; -118.819
602.354; -111.984; -620.092; -531.835
602.630;  -62.684; -140.113; -482.796
602.906; -153.695; -910.101; -863.818
603.181; -123.166; -627.119; -534.786
603.457;  -49.215;   98.903; -278.826
603.733; -133.593; -605.120; -626.783
604.008;  -58.675; -245.106; -164.810
604.284;  -62.795; -636.101; -580.817
604.559;  -39.657;   -3.112;  -42.799
604.835;  -80.400; -163.105; -225.810
605.110; -144.993; -732.099; -892.821
605.385;    7.790;  224.907;  267.167
605.661; -137.037; -625.095; -729.829
605.936; -139.403; -664.108; -737.806
606.211;  -47.347;  -17.103; -170.815
606.487;  -94.985; -329.114; -376.794
606.762; -142.091; -791.119; -745.786
607.037;  -98.350; -501.105; -433.810
607.313; -115.138; -589.096; -574.828
607.588;  -75.525; -375.106; -137.810
607.863;  -50.370;  -28.101; -143.818
608.138;   25.295;  513.890;  516.198
608.413; -102.342; -576.099; -592.822
608.688;  -75.903; -203.108; -267.805
608.964;  -87.426; -509.106; -218.809
609.239;  -74.075; -107.105; -212.810
609.514;  -18.474;  281.895;  240.188
609.789; -141.098; -187.104; -716.812
610.064; -112.439; -435.096; -609.827
610.339; -145.704; -855.109; -799.804
610.614;  -48.143; -131.100; -315.820
610.889;  -30.449;  215.895;  107.188
611.163; -113.774; -407.104; -591.812
611.438;  -65.960;   81.886; -167.794
611.713; -125.020; -467.101; -499.817
611.988;  -82.070; -144.101; -328.818
612.263; -141.096; -771.102; -717.815
612.538;   18.841;  385.887;  251.204
612.812; -161.293; -832.100; -911.820
613.087;  -99.766; -358.098; -338.823
613.362; -125.102; -497.107; -557.807
613.637;  -17.272;  261.897;  138.186
613.911;  -71.534; -256.092; -345.835
614.186;  -89.677; -249.107; -292.807
614.460; -158.071; -842.081; -758.854
614.735;  -46.128;  -55.087;  -17.843
615.010;  -52.729;   43.912;  -82.841
615.284;   -6.103;  360.892;  246.195
615.559; -160.384; -792.092; -955.835
615.833;  -43.342;  -76.099;  -87.822
616.108;  -78.932; -225.090; -390.837
616.382;   12.172;  274.913;  402.156
616.656;  -71.557; -241.090; -232.837
616.931; -153.617; -785.099; -700.822
617.205; -173.248; -973.104; -979.813
617.480;  -52.698;  -91.125;    6.225
617.754;  -82.423; -396.125; -128.774
618.028;  -94.302; -369.129; -382.768
618.302;  -37.078;   73.892;  -25.805
618.577; -107.897; -371.103; -518.815
618.851; -104.705; -399.109; -600.803
619.125;  -98.483; -335.134; -378.759
619.399;  -73.073; -244.104; -374.813
619.673;  -84.362; -330.115; -515.792
619.947; -103.510; -333.114; -448.795
620.222;  -70.656; -198.110; -204.801
620.496;  -60.218;  -47.121;  -96.782
620.770;  -54.094; -187.122;  -93.781
621.044;   10.900;  323.895;  346.190
621.318; -139.993; -653.120; -614.783
621.592;  -74.293; -430.121; -409.783
621.866; -120.332; -476.112; -572.799
622.140;  -66.138; -207.116; -356.791
622.413;  -28.932;  138.889;  112.200
622.687; -108.445; -746.101; -492.817
622.961;  -44.153; -130.108; -143.805
623.235; -129.432; -633.111; -661.800
623.509; -162.674; -816.105; -848.811
623.783;  -28.052;  -12.107;   48.193
624.056;  -73.268; -254.120; -280.783
624.330;   -9.683;   63.888;   -3.797
624.604;  -64.488; -271.116; -355.790
624.877;  -39.805;  180.890;   26.198
625.151;  -82.761; -249.114; -238.794
625.425;  -73.947; -150.103; -283.814
625.698; -110.891; -367.119; -374.785
625.972; -144.130; -799.110; -765.802
626.245;   30.087;  685.884;  484.210
626.519;  -91.592; -426.120; -340.784
626.792;  -70.652; -192.107; -380.807
627.066; -118.595; -485.122; -662.779
627.339; -151.405; -736.110; -663.802
627.613;    0.408;  351.880;  148.216
627.886; -139.105;  187.891; -612.803
628.160;  -72.943;  312.880; -161.783
628.433; -135.898; -695.125; -703.775
628.706; -126.017; -517.120; -615.784
628.979;  -22.722;  296.876;  117.223
629.253; -154.091; -785.119; -833.786
629.526;  -80.575; -334.126; -253.772
629.799; -128.496; -641.123; -479.778
630.072;  -87.877; -497.128; -516.769
630.346; -197.738;-1115.116;-1080.790
630.619; -124.002; -467.107; -545.808
630.892;   35.118;  709.889;  593.200
631.165;   49.902;  790.896;  679.187
631.438; -188.508;-1092.112;-1055.798
631.711;   -2.170;  453.877;  257.221
631.984; -105.813; -523.117; -624.789
632.257; -129.489; -636.117; -681.789
632.530;  -83.891; -412.119; -433.785
632.803;  -18.861; -109.115;    7.207
633.076;  -90.671; -360.123; -422.777
633.349;  -34.227;  173.872;  121.231
633.622;  -71.616; -187.119; -240.785
633.895; -163.768; -903.120; -823.783
634.167; -113.375; -496.126; -525.773
634.440;  -34.687;  -19.116; -137.792
634.713;  -34.391;  -22.119; -120.786
634.986;   41.722;  593.871;  453.233
635.258; -119.536; -507.115; -597.793
635.531;   54.711;  742.882; -343.788
635.804;  -73.614; -303.117; -318.789
636.077; -162.912; -830.116; -852.791
636.349; -113.061; -586.115; -474.793
636.622;  225.525; 1695.874; 1392.228
636.894;  -95.217; -474.120; -909.784
637.167; -152.476; -836.127; -789.771
637.439;  -56.551; -278.128; -213.770
637.712;  -78.325; -312.126; -293.772
637.984; -123.787; -635.116; -707.791
638.257;   40.429;  515.877;  488.222
638.529; -153.023; -881.125; -924.776
638.802; -116.452; -508.128; -449.769
639.074; -168.719; -927.122; -952.781
639.346; -176.834; -942.135; -930.757
639.619;  -48.768;  -79.142; -319.744
639.891;  -66.295;  -83.122; -168.779
640.163; -120.545; -689.122; -756.780
640.435;  -28.370;  273.878;  103.220
640.708;  -50.469;  -72.122; -132.780
640.980; -116.444; -366.122; -362.781
641.252;  -35.594;  -25.121;  -71.781
641.524;   32.056;  580.879;  573.219
641.796; -169.193;-1094.121; -907.782
642.068;  -73.968; -191.121; -300.782
642.340; -118.068; -486.121; -566.783
642.613;  -15.293;  294.880;  323.217
642.885; -145.392; -787.120; -878.783
643.157; -136.692; -810.120; -658.784
643.428;   -2.317;  170.880;  218.216
643.700; -108.142; -498.120; -425.784
643.972;  -58.666;  -16.119; -133.785
644.244; -118.516; -474.119; -559.785
644.516;  -61.241; -250.119; -114.786
644.788;   43.659;  662.881;  548.214
645.060;  -49.890;  -12.119; -124.786
645.332; -130.940; -525.118; -535.787
645.603;   11.160;  479.882;  342.213
645.875;  -94.965; -334.118; -369.787
646.147;  151.136; 1487.882; 1242.212
646.418; -174.464; -931.117; -918.788
646.690; -133.414; -714.117; -715.789
646.962; -113.939; -413.117; -451.789
647.233;  -24.464;   15.883;   11.211
647.505; -125.663; -595.117; -475.790
647.776;   11.362;  328.884;  229.210
648.048;  -96.913; -248.116; -418.790
648.320; -140.313; -752.116; -679.791
648.591; -189.787;-1055.116; -958.791
648.862; -104.962; -505.116; -577.792
649.134;  -12.712;  115.885;  198.208
649.405; -119.412; -661.115; -618.792
649.677; -117.086; -475.115; -598.793
649.948;  -70.211; -181.115; -296.793
650.219;  -34.636;  -37.115; -147.793
650.491;  -91.036; -431.114; -520.794
650.762; -149.410; -705.114; -731.794
651.033; -115.110; -437.114; -424.795
651.304; -158.285; -743.114; -728.795
651.576; -130.485; -680.114; -645.795
651.847;  -51.659; -250.113; -140.796
652.118;  -45.859;  -32.113; -189.796
652.389; -135.259; -639.113; -722.796
652.660;  -54.934; -147.113;  -89.797
652.931; -171.408; -897.112; -871.797
653.202; -103.133; -382.112; -541.798
653.473; -119.433; -633.112; -533.798
653.744; -116.433; -595.112; -590.798
654.015;  -94.382; -356.112; -303.799
654.286; -103.182; -642.111; -663.799
654.557; -111.932; -586.111; -521.799
654.828; -191.882;-1114.111;-1088.800
655.099; -102.281; -404.111; -291.800
655.370; -108.106; -427.111; -543.801
655.641; -148.056; -656.110; -714.801
655.911; -120.081; -618.110; -638.801
656.182;   18.795;  437.890;  387.198
656.453;   61.670;  830.890;  746.198
656.724; -101.830; -466.110; -426.802
656.994; -110.555; -553.109; -568.803
657.265; -147.979; -862.109; -873.803
657.536; -106.604; -500.109; -377.804
657.806; -119.579; -561.109; -593.804
658.077; -151.804; -866.109; -950.804
658.347; -116.253; -523.108; -598.805
658.618; -137.303; -646.108; -694.805
658.888;  -46.278;  -41.108;  112.195
659.159; -117.903; -432.108; -548.806
659.429; -102.077; -292.108; -349.806
659.700;  -98.402; -435.107; -390.807
659.970;  -96.127; -370.107; -359.807
660.241; -157.227; -754.107; -921.807
660.511;  -78.276; -147.107; -174.808
660.781; -138.726; -793.106; -748.808
661.052;  -74.476; -222.106; -381.808
661.322;  -29.201;   21.894;   -9.809
661.592;   -7.550;  257.894;  148.191
661.862;  -98.575; -369.106; -382.810
662.133; -129.125; -551.105; -502.810
662.403; -138.650; -770.105; -676.810
662.673;  -72.174; -256.105; -213.811
662.943; -116.674; -612.105; -551.811
663.213;  -66.774;  -85.105;  -81.811
663.483; -104.199; -593.104; -568.812
663.753;  -63.298; -194.104; -152.812
664.023;  -35.598;   68.896;  -32.813
664.293;  -85.473; -319.104; -126.813
664.563; -123.648; -694.104; -648.813
664.833; -145.847; -743.103; -608.814
665.103; -164.172; -730.103; -793.814
665.373; -161.897; -766.103; -806.814
665.643; -162.947; -863.103; -918.815
665.913; -135.447; -534.103; -714.815
666.182; -130.921; -685.102; -719.816
666.452;  -54.596;  -22.102;  -89.816
666.722; -149.571; -724.102; -784.816
666.992; -166.621; -948.102; -921.817
667.261; -140.045; -824.102; -808.817
667.531;  -24.945;  134.899;   45.183
667.801; -102.220; -440.101; -412.818
668.070;   58.955;  714.899;  697.182
668.340; -152.319; -883.101; -840.819
668.609;   29.181;  588.900;  301.181
668.879; -122.519; -490.100; -558.819
669.149; -101.794; -539.100; -516.820
669.418; -136.043; -698.100; -726.820
669.688; -126.093; -482.100; -666.820
669.957; -117.493; -423.099; -546.821
670.226;  -80.393; -268.099; -331.821
670.496; -114.167; -431.099; -635.822
670.765; -109.067; -418.099; -501.822
671.034; -161.517; -872.099; -828.822
671.304;  -43.267;   55.902; -111.823
671.573; -181.166;-1085.098; -957.823
671.842;  -88.891; -380.098; -294.823
672.112; -130.491; -692.098; -586.824
672.381;  -78.166; -239.098; -214.824
672.650; -178.540;-1005.097;-1021.825
672.919; -139.665; -631.097; -507.825
673.188; -132.715; -681.097; -878.825
673.457; -202.190;-1101.097;-1143.826
673.726; -123.364; -579.096; -646.826
673.995; -104.214; -533.096; -479.826
674.265;  -85.989; -263.096; -333.827
674.534;  -74.814; -183.096; -235.827
674.802; -113.788; -618.096; -703.828
675.071; -157.838; -886.095; -801.828
675.340; -121.588; -464.095; -339.828
675.609;  -17.638;  103.905;   82.171
675.878; -155.512; -949.095; -893.829
676.147;  -44.862;  -26.095;   -8.829
676.416;  -70.387; -210.094; -294.830
676.685;  104.263; 1000.906; -622.830
676.953; -110.386; -603.094; -452.831
677.222;  -79.661; -193.094; -273.831
677.491;  -60.261;  -24.094; -127.831
677.759;  -50.836;   11.907;  172.168
678.028;  -60.435; -279.093; -222.832
678.297;  -38.260;   71.907;  197.168
678.565; -170.210; -898.093; -944.833
678.834;  -84.435; -311.093; -268.833
679.102;  -91.409; -411.092; -391.834
679.371; -166.909; -898.092; -727.834
679.639; -164.159; -797.092; -786.834
679.908; -140.009; -794.092; -724.835
680.176; -167.158; -895.091; -941.835
680.445; -104.908; -346.091; -352.835
680.713;  -21.933;  -58.091;  -23.836
680.982; -131.908; -523.091; -525.836
681.250; -119.882; -578.091; -507.837
681.518; -126.357; -534.090; -751.837
681.787;  -76.232; -204.090; -167.837
682.055; -110.482; -490.090; -422.838
682.323; -176.756; -993.090; -992.838
682.591;  -78.631; -216.090; -538.838
682.859;  -58.281;    9.911;  -35.839
683.128;  -20.081;  232.911;  497.161
683.396; -190.430;-1102.089;-1122.840
683.664;  -72.905; -241.089;   21.160
683.932;  -12.680;  144.911;  -76.840
684.200; -110.405; -576.088; -320.841
684.468;  -60.979;  -73.088; -124.841
684.736;  -68.404; -214.088; -175.841
685.004; -181.104;-1024.088; -982.842
685.272; -161.054; -880.088; -774.842
685.540; -122.629; -499.087; -557.843
685.808; -140.503; -651.087; -682.843
686.076; -166.353; -894.087; -969.843
686.343; -119.903; -601.087; -815.844
686.611;  -51.428; -195.087; -224.844
686.879; -105.102; -530.086; -553.844
687.147; -112.127; -483.086; -480.845
687.414;  -89.077;  -12.086; -169.845
687.682; -138.477; -658.086; -757.846
687.950;  -12.201;  259.915;  263.154
688.217; -149.051; -792.085; -760.846
688.485; -133.251; -632.085; -636.847
688.753;  -58.351;  -11.085; -102.847
689.020; -169.425; -820.085; -851.847
689.288; -157.650; -853.084; -787.848
689.555;  -81.175; -195.084; -148.848
689.823;  -80.300; -241.084; -345.849
690.090; -124.424; -546.084; -651.849
690.358; -176.574; -877.084; -897.849
690.625;  -23.474;  120.917;   45.150
690.892; -107.549; -403.083; -369.850
691.160;  -58.273;   72.917;  -35.850
691.427;  -21.273;  141.917;  130.149
691.694; -169.548; -855.083; -929.851
691.962; -187.748;-1177.082;-1060.852
692.229;  -38.172;  127.918;   56.148
692.496;  -31.222;  130.918;  -49.852
692.763;  -64.997; -164.082; -201.853
693.031; -131.372; -739.082; -716.853
693.298; -124.196; -509.081; -368.853
693.565;  -59.321; -155.081; -163.854
693.832;  -40.721;   -5.081;   -9.854
694.099; -126.921; -643.081; -642.855
694.366; -163.220; -882.081; -896.855
694.633; -166.395; -920.080; -633.855
694.900;  609.130; 4367.920; -114.856
695.167;  -67.495; -214.080; -380.856
695.434; -151.069; -646.080; -623.856
695.701;  -11.819;  121.921;  -61.857
695.968; -113.869; -365.079; -361.857
696.234; -124.594; -415.079; -646.858
696.501; -134.518; -776.079; -614.858
696.768; -116.518; -554.079; -617.858
697.035; -139.893; -632.078; -667.859
697.302; -135.643; -448.078; -552.859
697.568; -116.242; -458.078; -497.859
697.835; -130.517; -683.078; -624.860
698.102; -119.392; -498.078; -407.860
698.368;    4.583;  384.923;  396.139
698.635;  -97.091;  -47.077; -424.861
698.901;  -65.991; -240.077; -348.861
699.168; -102.716; -534.077; -456.862
699.435;  -47.066;  -72.077;  -13.862
699.701; -168.240; -868.076; -764.862
699.968; -100.515;  144.924; -441.863
700.234; -162.540; -783.076; -822.863
700.500;  -92.115; -448.076; -539.864
700.767;  -55.189;   -1.075;   26.136
701.033; -180.114;-1015.075; -963.864
701.299; -108.364; -450.075; -483.865
701.566;   67.611;  950.925;  763.135
701.832;  -39.613;  -31.075;  -76.865
702.098; -170.713;-1054.074;-1034.866
702.365; -185.938;-1098.074;-1030.866
702.631; -193.638;-1038.074;-1063.867
702.897; -141.337; -765.074; -676.867
703.163;   -3.112;  348.926;  254.133
703.429;  -88.762; -256.073; -273.868
703.695; -111.612; -796.073; -792.868
703.961;  -56.787; -214.073; -210.868
704.227; -141.911; -630.073; -725.869
704.493;   41.839;  613.927;  510.131
704.759; -116.686; -565.072; -540.870
705.025;  -72.936; -203.072; -194.870
705.291; -128.160; -666.072; -562.870
705.557;   66.865;  719.928;   34.129
705.823; -140.035; -742.072; -694.871
706.089;  -80.160; -307.071; -326.871
706.355;  -59.509; -315.071; -244.872
706.620; -165.059; -776.071; -729.872
706.886;  -78.009; -309.071; -362.873
707.152; -177.634; -818.070; -973.873
707.418; -209.583;-1153.070;-1186.873
707.683; -119.133; -550.070; -530.874
707.949; -119.433; -547.070; -578.874
708.215;  -79.233; -129.070; -207.874
708.480; -110.707; -520.069; -420.875
708.746;  -20.107;   68.931;   28.125
709.011; -126.557; -578.069; -612.876
709.277; -136.507; -538.069; -543.876
709.542; -105.656; -428.069; -387.876
709.808;  -48.856;  -59.068;   89.123
710.073; -141.231; -577.068; -695.877
710.339;  -88.881; -242.068; -228.877
710.604; -170.830; -780.068; -845.878
710.869;  -85.305; -277.068; -366.878
711.135; -136.680; -715.067; -628.879
711.400; -133.430; -507.067; -608.879
711.665; -108.129; -404.067; -479.879
711.931; -141.679; -661.067; -677.880
712.196; -177.804; -876.067; -954.880
712.461; -120.754; -402.066; -490.880
712.726; -152.128; -727.066; -771.881
712.991; -150.653; -647.066; -664.881
713.256;  -87.703; -350.066; -332.882
713.521; -117.453; -417.065; -381.882
713.787; -113.277; -454.065; -472.882
714.052;  -88.677; -214.065; -400.883
714.317; -190.002;-1045.065; -981.883
714.581;  -99.002; -374.065; -268.883
714.846; -161.851; -822.064; -888.884
715.111;  -11.476;  261.936;  257.116
715.376;  -87.126;  -86.064; -223.885
715.641; -101.976; -365.064; -367.885
715.906; -112.100;   15.936; -551.885
716.171;  -12.400;  221.937;  209.114
716.436;  -61.050;  -78.063; -104.886
716.700; -148.700; -818.063; -692.886
716.965; -150.824; -794.063; -807.887
717.230; -106.524; -339.063; -392.887
717.494;  -60.099;  -40.062; -134.888
717.759; -144.774; -784.062; -640.888
718.024;   -9.148;  269.938;  250.112
718.288;   44.552;  685.938;  395.111
718.553; -170.923; -803.062; -977.889
718.817; -172.123; -883.061; -899.889
719.082;  -54.672; -115.061; -125.890
719.346; -163.247;-1000.061; -947.890
719.611;  -76.947; -300.061; -255.891
719.875; -134.997; -568.060; -537.891
720.140; -113.521; -453.060; -603.891
720.404;  -66.296; -136.060; -249.892
720.668;  -90.246; -475.060; -411.892
720.933;  -22.396;  146.940;  137.108
721.197; -134.345; -667.059; -600.893
721.461; -167.445; -851.059; -826.893
721.725;  -23.345;  -21.059; -250.894
721.990;  -86.395; -284.059; -204.894
722.254;  -52.845;  -26.059; -108.894
722.518;  -97.669; -286.058; -442.895
722.782; -139.394; -743.058; -594.895
723.046;   41.756;  614.942;  570.105
723.310;    5.881;  374.942;  210.104
723.574; -141.818; -654.058; -614.896
723.838; -138.443; -576.057; -642.897
724.102;  -72.368; -226.057; -239.897
724.366; -169.168;-1032.057; -978.897
724.630; -146.192; -749.057; -571.898
724.894; -133.842; -722.057; -514.898
725.158;  -57.042;   38.944; -295.898
725.422;  -93.992; -394.056; -327.899
725.685; -117.691; -441.056; -349.899
725.949; -127.691; -566.056; -519.900
726.213; -173.416; -732.056; -811.900
726.477; -191.466;-1020.055; -933.900
726.740;  -62.190; -274.055; -104.901
727.004; -120.565; -384.055; -510.901
727.268; -118.665; -442.055; -400.901
727.531; -160.465; -961.055; -775.902
727.795; -141.464; -713.054; -673.902
728.059; -137.164; -552.054; -557.903
728.322; -146.539; -841.054; -669.903
728.586; -122.164; -692.054; -701.903
728.849; -154.413; -695.053; -756.904
729.112; -162.313; -812.053; -912.904
729.376; -162.288; -959.053; -905.904
729.639; -113.763; -536.053; -536.905
729.903; -142.212; -733.053; -699.905
730.166;  -81.862; -437.052; -399.906
730.429;  -94.662; -317.052; -468.906
730.693; -112.137; -355.052; -894.906
730.956;   52.064;  810.948;  651.093
731.219;  -68.861; -310.052; -103.907
731.482; -179.361;-1003.051; -894.907
731.745; -170.161; -794.051; -935.908
732.009;  -38.685;  -30.051;   50.092
732.272; -131.085; -904.051; -771.909
732.535;  -97.560; -300.051; -310.909
732.798; -208.810;-1083.050;-1166.909
733.061; -108.059; -430.050; -456.910
733.324;  -53.884;   31.950; -180.910
733.587;    5.391;  290.950;  365.090
733.850; -131.859; -973.049;-1050.911
734.113;  -42.683;   33.951;   32.089
734.376;  -96.858; -328.049; -447.912
734.639;  100.242; 1188.951; 1011.088
734.901;  -73.383; -180.049; -402.912
735.164; -161.982; -883.048; -837.913
735.427;  -57.057; -166.048; -355.913
735.690;  -75.207; -205.048; -234.913
735.952; -176.232; -923.048; -925.914
736.215; -195.106;-1113.048;-1009.914
736.478; -166.781; -771.047; -774.915
736.740;  -49.931;   33.953;  129.085
737.003; -156.006; -658.047; -672.915
737.266;   63.670;  -94.047;   46.084
737.528; -146.180; -682.047; -660.916
737.791;  -95.280; -316.046; -327.916
738.053;  -16.180;  465.954;  649.083
738.316;  -85.954; -162.046; -136.917
738.578; -145.379; -770.046; -736.918
738.841; -104.079; -382.046; -446.918
739.103; -152.279; -875.045; -777.918
739.365;  -45.203;   79.955;  -69.919
739.628; -162.403; -884.045; -805.919
739.890; -139.303; -758.045; -710.919
740.152; -148.153; -692.044; -754.920
740.414; -111.652; -408.044; -359.920
740.677; -133.852; -785.044; -634.921
740.939; -142.027; -587.044; -487.921
741.201; -133.002; -432.044; -572.921
741.463; -130.327; -689.043; -745.922
741.725;  -66.751;  -21.043; -199.922
741.987;  -31.551;  220.957;  116.078
742.249; -161.276; -751.043; -859.923
742.511; -145.151; -703.043; -794.923
742.773; -117.050; -546.042; -546.924
743.035;   45.700;  796.958;  533.076
743.297; -181.600; -963.042;-1013.924
743.559;  -67.175; -278.042; -262.925
743.821; -150.749; -735.042; -744.925
744.083;  -72.224;  -44.041; -149.925
744.345; -167.949; -869.041; -892.926
744.607;  -37.699;   75.959;  122.074
744.868; -122.773; -490.041; -554.927
745.130; -196.073; -994.041;-1008.927
745.392;  -47.223;   -1.040;  -44.927
745.653; -103.523; -411.040; -378.928
745.915;   60.153;  896.960;  631.072
746.177;  -56.547;   35.960;  -43.928
746.438; -117.147; -428.040; -543.929
746.700; -176.472; -947.039; -988.929
746.961; -152.246; -659.039; -740.930
747.223;  -70.171; -190.039;  -74.930
747.484;  -93.471; -391.039; -471.930
747.746;  -56.746;  -23.038; -106.931
748.007; -144.645; -647.038; -689.931
748.269; -105.295; -468.038; -440.931
748.530; -136.445; -852.038; -638.932
748.791; -115.070; -354.038; -420.932
749.053;   -0.244;  286.963;  163.067
749.314;  -83.169; -236.037; -169.933
749.575; -178.294; -945.037; -905.933
749.836;  -72.569; -217.037;   86.066
750.098;  -68.518;  -60.037;  -21.934
750.359;  -10.943;  414.964;  555.066
750.620;  -56.943; -121.036; -220.935
750.881; -129.968; -585.036; -513.935
751.142; -173.867; -950.036; -938.936
751.403; -148.892; -789.036; -705.936
751.664; -188.317;-1034.035; -999.936
751.925;  -72.317; -175.035; -262.937
752.186;  -86.066; -298.035; -278.937
752.447; -124.016; -590.035; -445.937
752.708; -133.891; -532.035; -648.938
752.969; -141.366; -566.034; -576.938
753.230; -147.740; -777.034; -672.939
753.491; -138.640; -650.034; -631.939
753.751;  -53.265;  109.966;   19.061
754.012;   -5.165;  258.967;  181.060
754.273;  -75.589; -174.033;  -71.940
754.534; -139.714; -487.033; -580.940
754.794; -166.089; -926.033; -911.941
755.055;   54.986; 1051.967;  881.059
755.316; -141.963; -700.032; -566.942
755.576; -123.613; -606.032; -576.942
755.837; -121.138; -527.032; -695.942
756.097; -120.288; -530.032; -564.943
756.358; -158.362; -725.032; -770.943
756.618; -139.587; -705.031; -641.943
756.879;  -90.462; -254.031; -349.944
757.139; -216.137;-1098.031;-1116.944
757.400; -130.236; -538.031; -553.945
757.660; -103.586; -365.031; -401.945
757.920;  -89.061; -266.030; -228.945
758.181; -101.886; -468.030; -351.946
758.441; -170.110; -870.030; -809.946
758.701; -101.085; -308.030; -215.946
758.961;  -92.110; -220.030; -278.947
759.222; -130.385; -574.029; -502.947
759.482; -150.085; -683.029; -723.948
759.742; -146.609; -706.029; -547.948
760.002;  -53.984;  -83.029; -143.948
760.262;  -54.334;   50.972;  182.051
760.522; -130.359; -498.028; -574.949
760.782; -148.158; -738.028; -612.949
761.042; -132.533; -618.028; -573.950
761.302;  -49.558;   55.972;  -18.950
761.562;  -65.658; -164.027; -154.951
761.822; -138.907; -710.027; -551.951
762.082; -204.732;-1104.027;-1093.951
762.342; -105.432; -328.027; -403.952
762.601; -119.307; -567.027; -506.952
762.861; -102.806; -281.026; -207.952
763.121;  -94.381; -406.026; -411.953
763.381; -130.806; -499.026; -485.953
763.640;  -74.406; -139.026; -307.954
763.900;  -86.680; -242.026; -203.954
764.160; -107.905; -458.025; -491.954
764.419; -150.305; -726.025; -782.955
764.679; -152.005; -795.025; -726.955
764.939;  -69.504; -124.025; -210.955
765.198; -128.979; -608.025; -563.956
765.458; -154.179; -710.024; -612.956
765.717; -125.429; -454.024; -590.957
765.976; -121.078; -428.024; -411.957
766.236; -130.328; -475.024; -610.957
766.495;  -36.353;  260.977;   73.042
766.755; -191.878;-1090.023; -987.958
767.014; -148.077; -594.023; -665.958
767.273; -103.427; -373.023; -397.959
767.533;  -89.852; -228.023; -307.959
767.792;  -80.502; -151.022; -188.960
768.051;  -95.901; -228.022; -276.960
768.310; -128.976; -546.022; -650.960
768.569;  -71.551; -161.022;    4.039
768.828;  -93.726; -285.022; -363.961
769.088; -204.225;-1050.021; -942.961
769.347; -154.275; -755.021; -599.962
769.606; -172.975; -876.021; -857.962
769.865; -197.425;-1016.021;-1033.963
770.124;  -76.424; -411.021; -336.963
770.383; -169.099; -778.020; -910.963
770.641; -114.024; -398.020; -400.964
770.900; -179.449; -953.020; -846.964
771.159; -175.198; -851.020; -951.964
771.418; -172.748; -917.020; -779.965
771.677;  -75.923; -224.019; -293.965
771.936; -166.923; -794.019; -865.966
772.194; -163.447; -465.019; -437.966
772.453; -101.472; -213.019; -391.966
772.712;  -11.322;  416.982;  329.033
772.970;  -60.347;   32.982;   63.033
773.229;  -61.196;  -22.018;  102.033
773.488; -169.546; -814.018; -770.968
773.746;  -12.046;  296.982;  335.032
774.005;  -41.646;  190.983;  -22.969
774.263;  -35.420;  243.983;  177.031
774.522; -136.695; -422.017; -548.969
774.780; -115.670; -484.017; -417.970
775.039; -124.345; -551.017; -531.970
775.297;  -57.469; -135.016; -351.970
775.555; -134.069; -489.016; -612.971
775.814; -146.919; -618.016; -570.971
776.072; -139.544; -749.016; -740.971
776.330; -122.218; -630.016; -520.972
776.589; -156.593; -703.015; -721.972
776.847; -160.318; -645.015; -624.973
777.105; -191.743;-1016.015;-1032.973
777.363; -120.192; -459.015; -454.973
777.621; -158.242; -660.015; -717.974
777.879;  -43.317;  -42.014;   32.026
778.138; -116.317; -554.014; -717.974
778.396; -139.067; -585.014; -526.975
778.654; -201.416;-1015.014; -970.975
778.912;  -94.091; -269.014; -371.976
779.170; -162.091; -880.013; -803.976
779.427; -172.166; -922.013; -897.976
779.685; -172.765; -880.013; -832.977
779.943; -148.890; -654.013; -593.977
780.201; -185.365; -964.012; -883.978
780.459; -157.790; -651.012; -610.978
780.717; -103.239; -440.012; -390.978
780.974; -126.039; -449.012; -490.979
781.232; -110.214; -358.012; -338.979
781.490; -141.039; -551.011; -472.979
781.747; -133.688; -555.011; -476.980
782.005;    5.737;  462.989;  254.020
782.263; -197.088; -542.011;-1004.981
782.520; -124.788; -326.011; -501.981
782.778; -185.837;-1013.010;-1051.981
783.035; -190.212; -962.010; -938.982
783.293;  -65.287; -248.010; -206.982
783.550;  -78.887; -134.010; -198.982
783.808; -157.986; -764.010; -776.983
784.065; -186.786; -745.009; -874.983
784.322;  -59.711;   25.991;  -86.984
784.580; -160.186; -915.009; -771.984
784.837;  -99.685; -392.009; -466.984
785.094; -153.060; -783.009; -762.985
785.352; -111.235; -304.008; -404.985
785.609; -178.060; -934.008; -839.985
785.866; -111.759; -345.008; -401.986
786.123; -154.984; -639.008; -583.986
786.380; -138.059; -665.008; -604.987
786.637;  -95.734; -225.007; -380.987
786.895; -128.833; -456.007; -543.987
787.152;  -62.208; -135.007; -267.988
787.409;  -66.958; -123.007; -225.988
787.666; -112.158; -299.006; -378.988
787.923; -141.107; -616.006; -695.989
788.179; -132.507; -551.006; -584.989
788.436; -142.982; -585.006; -585.990
788.693;  -79.132;  -92.006;  -87.990
788.950;  -62.256; -125.005; -112.990
789.207; -112.306; -381.005; -372.991
789.464;  -94.081; -161.005; -301.991
789.720;  -37.906;  150.995;  110.009
789.977; -213.280;-1003.005; -671.992
790.234;  -56.355;   44.996;  -66.992
790.490; -182.705; -884.004;-1031.993
790.747;  -53.505;  -85.004;   22.007
791.004;  -85.754; -426.004; -348.993
791.260; -124.879; -430.004; -560.994
791.517; -171.454; -843.003; -788.994
791.773; -115.004; -379.003; -342.994
792.030; -145.403; -596.003; -660.995
792.286; -152.228; -686.003; -636.995
792.543;  -78.653;  -74.002; -159.995
792.799; -105.053; -584.002; -382.996
793.055; -212.877;-1179.002;-1210.996
793.312; -171.927; -827.002; -816.997
793.568; -139.252; -746.002; -599.997
793.824; -103.802; -226.001; -284.997
794.081; -110.576; -447.001; -508.998
794.337; -135.076; -664.001; -561.998
794.593; -100.801; -319.001; -271.999
794.849; -170.176; -746.001; -772.999
795.105; -103.850; -270.000; -261.999
795.361; -110.250; -490.000; -457.000
795.617; -171.525; -875.000; -945.000
795.873; -121.875; -360.000; -407.000
796.129; -110.400; -368.000; -306.000
796.385;  -86.175; -124.000; -156.000
796.641;    9.100;  412.000;  550.000
796.897; -138.575; -666.000; -635.000
797.153;   12.750;  453.000;  357.000
797.409; -185.250; -785.000; -868.000
797.665; -148.975; -625.000; -732.000
797.921; -173.275; -775.000; -762.000
798.176; -160.400; -744.000; -747.000
798.432; -181.300; -824.000; -596.000
798.688; -203.400;-1174.000;-1078.000
798.943;  -94.925; -165.000; -147.000
799.199; -180.300;-1005.000; -959.000
799.455;    7.025;  369.000;  316.000
799.710; -157.000; -813.000; -380.000
799.966;  -91.075; -162.000; -160.000
800.221; -136.650; -638.000; -721.000
800.477; -161.750; -743.000; -710.000
800.732; -169.925; -773.000; -800.000
800.988;  -28.150;  205.000;  -19.000
801.243;  -99.100; -454.000; -344.000
801.498; -175.975; -814.000; -739.000
801.754;  -78.150; -289.000; -163.000
802.009;  -87.050; -257.000; -335.000
802.264; -206.075; -967.000;-1033.000
802.520;  -79.475;  222.000;   -3.000
802.775; -127.225; -524.000; -359.000
803.030;  -15.000;  395.000;  356.000
803.285; -171.200; -840.000; -903.000
803.540; -135.725; -686.000; -699.000
803.795; -124.650; -648.000; -583.000
804.051;  -95.425; -279.000; -346.000
804.306;  -42.925;  168.000;  128.000
804.561;   -1.825;  451.000;  362.000
804.816;   58.350;  714.000;  861.000
805.071;  -96.925; -185.000; -280.000
805.325; -109.075; -257.000; -427.000
805.580; -188.425; -841.000; -877.000
805.835;  -90.525; -204.000; -297.000
806.090; -150.400; -760.000; -676.000
806.345; -104.100; -344.000; -264.000
806.600; -160.350; -549.000; -632.000
806.854; -118.150; -408.000; -538.000
807.109; -118.600; -493.000; -577.000
807.364; -104.950; -407.000; -328.000
807.618; -126.050; -415.000; -381.000
807.873; -137.850; -470.000; -494.000
808.128;  -96.725; -257.000; -518.000
808.382;  -97.375; -224.000; -332.000
808.637; -133.275; -440.000; -511.000
808.891;  -87.325; -257.000; -180.000
809.146; -191.450; -902.000; -794.000
809.400; -175.900; -848.000; -923.000
809.654; -144.625; -779.000; -551.000
809.909; -186.300; -841.000; -927.000
810.163; -162.725; -813.000; -651.000
810.418; -177.125; -940.000; -861.000
810.672; -151.800; -685.000; -690.000
810.926; -199.050; -993.000; -973.000
811.180; -128.775; -439.000; -372.000
811.434;  -33.350;  240.000;  135.000
811.689; -100.325; -231.000; -365.000
811.943; -193.525; -936.000; -953.000
812.197; -166.575; -893.000; -671.000
812.451; -117.150; -379.000; -514.000
812.705; -168.600; -809.000; -619.000
812.959; -107.900; -263.000; -388.000
813.213;  -97.200; -283.000; -209.000
813.467;    6.250;  470.000;  253.000
813.721; -171.925; -764.000; -792.000
813.975; -168.925; -826.000; -877.000
814.229;  -25.075;  430.000;  353.000
814.482; -130.350; -517.000; -566.000
814.736; -180.225; -766.000; -744.000
814.990; -178.575; -779.000; -872.000
815.244;  -98.400; -228.000; -285.000
815.497; -125.350; -636.000; -601.000
815.751;  -74.125; -141.000;   82.000
816.005; -139.200; -470.000; -586.000
816.258; -121.050; -510.000; -363.000
816.512; -157.925; -693.000; -610.000
816.766;  -40.800;  121.000;  157.000
817.019;  -35.100;  148.000;  149.000
817.273; -181.575;-1000.000; -802.000
817.526;  -79.900; -206.000; -173.000
817.779; -207.725;-1049.000; -960.000
818.033; -169.825; -693.000; -807.000
818.286; -178.775; -725.000; -792.000
818.540; -115.225; -403.000; -403.000
818.793; -115.350; -402.000; -489.000
819.046; -145.650; -582.000; -520.000
819.299;  -80.475; -157.000; -166.000
819.553; -127.575; -552.000; -592.000
819.806; -205.025;-1016.000; -838.000
820.059;  -90.975; -334.000; -354.000
820.312;  -52.200;  152.000;  185.000
820.565;  -57.450;  110.000;  -27.000
820.818;  -84.050;  -59.000; -173.000
821.071; -199.125;-1041.000; -957.000
821.324; -144.500; -536.000; -540.000
821.577; -127.400; -457.000; -483.000
821.830; -103.500; -270.000; -172.000
822.083; -162.450; -733.000; -288.000
822.336;  -90.550; -261.000; -167.000
822.589; -176.900; -805.000; -688.000
822.842; -185.800; -875.000; -770.000
823.094; -209.100;-1076.000;-1114.000
823.347; -173.025; -925.000; -729.000
823.600;  -16.550;  402.000;  187.000
823.853; -104.225; -311.000; -267.000
824.105; -129.200; -331.000; -575.000
824.358; -162.925; -617.000; -716.000
824.611;  -56.875;  234.000;   40.000
824.863; -152.150; -612.000; -591.000
825.116;  -49.675;  -33.000;   27.000
825.368; -122.525; -366.000; -372.000
825.621;  -94.300; -186.000; -240.000
825.873; -151.625; -704.000; -737.000
826.126; -159.475; -669.000; -641.000
826.378; -129.725; -389.000; -505.000
826.630; -188.875; -890.000; -898.000
826.883; -171.650; -754.000; -693.000
827.135; -106.050; -279.000; -270.000
827.387; -182.875; -893.000; -839.000
827.639;  -70.250;  -86.000;   32.000
827.892; -170.700; -742.000; -582.000
828.144; -171.200; -848.000; -804.000
828.396;  -69.750;  104.000;  -80.000
828.648; -113.200; -440.000; -333.000
828.900; -186.275; -702.000; -795.000
829.152; -163.900; -684.000; -683.000
829.404;  -93.025; -215.000; -267.000
829.656;  -78.775;  321.000;  214.000
829.908;  -52.425;  393.000;  229.000
830.160; -183.250;-1064.000;-1047.000
830.412; -143.950; -481.000; -430.000
830.664; -155.300; -557.000; -665.000
830.916; -108.950; -268.000; -206.000
831.167; -206.600;-1073.000; -951.000
831.419; -137.500; -623.000; -566.000
831.671; -169.850; -764.000; -809.000
831.923; -110.175; -311.000; -447.000
832.174; -104.350; -273.000; -331.000
832.426; -151.475; -493.000; -582.000
832.678; -217.825;-1043.000;-1091.000
832.929; -190.750; -947.000; -935.000
833.181; -147.900; -575.000; -677.000
833.432;  -93.700;  -59.000; -186.000
833.684;  -53.375;  112.000;  -27.000
833.935; -156.600; -610.000; -566.000
834.187; -167.900; -829.000; -823.000
834.438;  -86.625;  -58.000;  -25.000
834.689;  -75.750; -255.000; -123.000
834.941;  -86.625; -343.000; -244.000
835.192; -131.600; -590.000; -533.000
835.443; -139.875; -419.000; -506.000
835.695;  -41.475;  138.000;  -16.000
835.946; -140.325; -608.000; -378.000
836.197; -145.775; -599.000; -622.000
836.448; -142.000; -528.000; -395.000
836.699; -113.850; -253.000; -341.000
836.950;  -48.650;   72.000;    7.000
837.201; -213.750;-1003.000; -987.000
837.452; -109.225; -356.000; -170.000
837.703; -179.450; -791.000; -737.000
837.954; -116.175; -205.000; -365.000
838.205; -202.750;-1029.000;-1008.000
838.456; -111.450; -196.000; -282.000
838.707; -116.975; -423.000; -519.000
838.958; -174.825; -634.000; -647.000
839.209;  -51.125;   18.000;   40.000
839.460; -102.500; -439.000; -201.000
839.710;  -91.150; -135.000; -297.000
839.961;   19.400;  730.000;  612.000
840.212; -141.450; -382.000; -497.000
840.462; -105.125; -328.000; -277.000
840.713; -143.925; -571.000; -536.000
840.964;  -89.275;  -62.000; -143.000
841.214; -135.150; -384.000; -624.000
841.465;  -87.825; -214.000; -141.000
841.715; -114.800; -417.000; -380.000
841.966; -168.425; -746.000; -685.000
842.216; -126.275; -330.000; -431.000
842.466;  -97.875; -169.000; -313.000
842.717; -198.200; -964.000; -952.000
842.967; -154.475; -635.000; -641.000
843.217;  -60.100;   20.000;   28.000
843.468;  -83.075; -104.000; -132.000
843.718; -157.775; -718.000; -726.000
843.968; -183.400; -837.000; -765.000
844.218;  -99.250; -315.000; -262.000
844.469; -145.875; -577.000; -561.000
844.719; -155.925; -537.000; -682.000
844.969; -151.575; -550.000; -580.000
845.219; -190.525; -814.000; -862.000
845.469; -121.925; -392.000; -342.000
845.719; -169.900; -792.000; -884.000
845.969;  -63.425;  119.000;  174.000
846.219; -151.625; -738.000; -720.000
846.469;  -12.125;  464.000;  432.000
846.718;  -94.975; -115.000;   31.000
846.968; -182.650; -827.000; -827.000
847.218;  -86.375; -224.000; -371.000
847.468;  -46.725; -586.000; -555.000
847.718; -191.550; -827.000; -798.000
847.967; -169.925; -826.000; -915.000
848.217; -136.725; -449.000; -569.000
848.467; -117.350; -405.000; -376.000
848.716; -168.625; -708.000; -725.000
848.966; -103.575; -372.000; -358.000
849.215; -133.900; -428.000; -419.000
849.465; -169.600; -785.000; -615.000
849.714; -223.525;-1132.000;-1150.000
849.964; -145.750; -551.000; -613.000
850.213; -122.375; -393.000; -355.000
850.463;  -43.775;  137.000;  340.000
850.712; -144.400; -542.000; -567.000
850.961; -166.800; -739.000; -678.000
851.211; -139.125; -513.000; -504.000
851.460; -158.850; -635.000; -650.000
851.709;  -60.400;  -25.000;   18.000
851.958; -185.575; -912.000; -750.000
852.208; -184.350; -859.000; -879.000
852.457;  -83.475; -181.000;  -13.000
852.706; -189.150; -791.000; -823.000
852.955; -141.700; -507.000; -528.000
853.204; -129.250; -521.000; -461.000
853.453; -134.350; -418.000; -458.000
853.702; -177.700; -660.000; -750.000
853.951; -151.100; -532.000; -520.000
854.200; -140.550; -613.000; -562.000
854.449; -168.200; -695.000; -661.000
854.698; -118.100; -340.000; -279.000
854.946;  -95.475; -181.000; -284.000
855.195; -163.800; -843.000; -868.000
855.444; -123.300; -395.000; -420.000
855.693; -137.225; -345.000; -432.000
855.941; -145.900; -387.000; -516.000
856.190;  -94.450; -256.000; -382.000
856.439; -166.575; -652.000; -703.000
856.687;  -95.400;  -99.000;  -72.000
856.936; -145.000; -621.000; -323.000
857.184; -206.350;-1067.000;-1020.000
857.433; -129.000; -423.000; -512.000
857.681; -203.650; -989.000; -953.000
857.930;  -97.625; -282.000; -433.000
858.178; -188.725; -856.000; -929.000
858.427; -178.850; -802.000; -781.000
858.675; -130.825; -377.000; -544.000
858.923; -137.450; -527.000; -819.000
859.172; -202.200;-1094.000;-1070.000
859.420; -115.900; -339.000; -239.000
859.668; -163.050; -624.000; -628.000
859.916;  -58.300;  109.000;  115.000
860.164; -154.400; -699.000; -603.000
860.413; -196.925; -878.000; -696.000
860.661; -160.200; -709.000; -577.000
860.909; -112.700; -339.000; -325.000
861.157; -117.100; -277.000; -444.000
861.405; -158.400; -534.000; -670.000
861.653;  -21.100;  310.000;  310.000
861.901; -146.500; -543.000; -613.000
862.149; -192.350; -801.000; -824.000
862.396; -102.650; -297.000; -187.000
862.644; -111.875; -368.000; -347.000
862.892;  -76.450;   98.000;  138.000
863.140; -130.200; -549.000; -530.000
863.388; -172.925; -815.000; -759.000
863.635; -155.325; -642.000; -601.000
863.883;  -30.000;  231.000;  190.000
864.131; -109.000; -288.000; -357.000
864.378; -169.475; -675.000; -540.000
864.626; -120.750; -347.000; -415.000
864.873; -146.625; -556.000; -505.000
865.121; -179.750; -714.000; -799.000
865.368;  -70.200; -173.000;   75.000
865.616;  -80.550;  -33.000;  -40.000
865.863; -136.275; -462.000; -506.000
866.111; -194.250; -795.000; -824.000
866.358; -119.800; -426.000; -420.000
866.605;  -93.775;  -64.000; -804.000
866.853; -149.450; -621.000; -537.000
867.100; -182.050; -728.000; -775.000
867.347; -176.250; -672.000; -611.000
867.594; -163.350; -740.000; -714.000
867.841;  -63.600;   97.000;   17.000
868.089; -167.575; -746.000; -698.000
868.336; -130.300; -477.000; -420.000
868.583; -165.700; -637.000; -741.000
868.830;  -82.800; -131.000; -170.000
869.077; -191.975; -859.000; -787.000
869.324; -148.500; -502.000; -458.000
869.571; -128.625; -398.000; -430.000
869.818; -158.700; -485.000; -439.000
870.065; -135.050; -439.000; -513.000
870.311; -136.225; -456.000; -542.000
870.558; -115.975; -332.000; -311.000
870.805; -102.250; -320.000; -384.000
871.052; -123.625; -494.000; -369.000
871.298;  -90.175; -204.000; -131.000
871.545;  -92.650; -151.000; -185.000
871.792; -102.150; -173.000; -222.000
872.038;  -84.900;   43.000; -126.000
872.285; -137.500; -496.000; -387.000
872.532; -112.050; -357.000; -387.000
872.778;   -7.625;  556.000;  403.000
873.025; -114.150; -384.000; -359.000
873.271;    5.250;  501.000;  578.000
873.517;  -97.475; -133.000; -209.000
873.764; -101.100; -193.000;  -80.000
874.010;  -99.100; -143.000; -230.000
874.257;  -78.325;  123.000;   90.000
874.503; -145.125; -579.000; -479.000
874.749;  -99.000;   31.000;  275.000
874.995;  -72.925;  -80.000;  -20.000
875.242; -144.375; -540.000; -478.000
875.488; -129.400; -414.000; -439.000
875.734; -103.350; -106.000; -234.000
875.980; -218.125; -872.000;-1032.000
876.226; -101.000; -157.000; -255.000
876.472;  -34.450;  343.000;  237.000
876.718;  -54.400;  184.000;  158.000
876.964;  -61.300;   56.000;   55.000
877.210; -188.475; -547.000; -677.000
877.456; -146.875; -630.000; -557.000
877.702; -199.650; -821.000; -832.000
877.948; -137.800; -377.000; -497.000
878.193;  -22.825;  361.000;  255.000
878.439; -140.850; -487.000; -472.000
878.685; -130.100; -272.000; -343.000
878.931; -150.000; -618.000; -676.000
879.176; -103.800; -201.000; -201.000
879.422; -198.550; -933.000; -820.000
879.668;  -55.850;   10.000;   79.000
879.913;  -69.125;   53.000;  137.000
880.159;  -93.750; -112.000;  -17.000
880.404;  -82.900; -152.000; -162.000
880.650;  -82.150;   91.000;  141.000
880.895; -185.850; -670.000; -710.000
881.141; -137.325; -454.000; -428.000
881.386; -169.200; -503.000; -658.000
881.631; -116.150; -311.000; -166.000
881.877;  -55.750;  112.000;  -13.000
882.122; -145.675; -684.000; -600.000
882.367; -102.000; -136.000; -186.000
882.612;  -78.625;  -80.000; -176.000
882.858; -183.075; -877.000; -823.000
883.103; -118.750; -297.000; -267.000
883.348; -170.325; -759.000; -852.000
883.593; -181.300; -677.000; -602.000
883.838;  -92.550; -311.000;  -24.000
884.083;  -38.900;  353.000;  288.000
884.328; -119.975; -564.000; -545.000
884.573; -105.450; -196.000; -143.000
884.818; -164.050; -694.000; -531.000
885.063; -143.900; -348.000; -315.000
885.308; -134.725; -475.000; -398.000
885.553;  -32.500;  245.000;  325.000
885.797; -149.600; -545.000; -615.000
886.042;  -62.175;    8.000;   58.000
886.287; -100.950; -253.000; -211.000
886.532;  -59.625;   26.000;  204.000
886.776; -113.150; -407.000; -525.000
887.021; -165.050; -621.000; -574.000
887.265; -174.625; -685.000; -689.000
887.510; -154.875; -557.000; -496.000
887.755; -117.450; -194.000; -164.000
887.999; -159.425; -552.000; -575.000
888.244;  -77.600;  -58.000;  161.000
888.488;  -14.100;  371.000;  393.000
888.732; -150.400; -368.000; -520.000
888.977; -165.625; -622.000; -567.000
889.221; -185.700; -683.000; -659.000
889.465; -157.975; -422.000; -566.000
889.710; -106.475;  -56.000; -299.000
889.954;  -13.000;  579.000;  467.000
890.198; -167.250; -584.000; -707.000
890.442; -182.675; -716.000; -712.000
890.687; -170.175; -800.000; -753.000
890.931; -130.250; -273.000; -210.000
891.175; -154.300; -502.000; -500.000
891.419;  -84.500; -105.000; -110.000
891.663; -116.650; -239.000; -112.000
891.907; -173.575; -801.000; -545.000
892.151; -193.325; -920.000; -815.000
892.395; -131.800; -274.000; -387.000
892.638;  -24.300;  408.000;  291.000
892.882; -199.425; -780.000; -867.000
893.126;   -0.300;  758.000;  558.000
893.370; -108.950; -167.000; -168.000
893.614; -165.725; -714.000; -715.000
893.857; -136.400; -183.000; -197.000
894.101; -146.075; -527.000; -631.000
894.345;  -82.975;  300.000;  150.000
894.588;   -1.500;  569.000;  380.000
894.832; -101.125; -178.000;  -84.000
895.075;  -95.900;   15.000;  -92.000
895.319; -150.150; -552.000; -420.000
895.563; -133.075; -413.000; -353.000
895.806; -178.050; -628.000; -741.000
896.049; -137.175; -576.000; -368.000
896.293;  -14.900;  527.000;  405.000
896.536; -142.475; -465.000; -468.000
896.779; -119.475; -149.000;   -1.000
897.023; -168.950; -751.000; -714.000
897.266;  -58.675;  325.000;  269.000
897.509; -186.425; -900.000; -901.000
897.752;  -63.900;  149.000;  171.000
897.996; -212.125; -972.000; -864.000
898.239;  -57.150;  168.000;  102.000
898.482; -145.450; -431.000; -453.000
898.725;  -75.050;  101.000;   53.000
898.968; -190.200; -609.000; -744.000
899.211; -149.600; -513.000; -361.000
899.454; -170.225; -633.000; -539.000
899.697;  -78.950;   90.000;  -43.000
899.940; -185.700; -761.000; -757.000
900.182; -126.200; -335.000; -405.000
900.425; -100.275; -150.000; -298.000
900.668;  -35.200;  491.000;  350.000
900.911; -131.350; -292.000; -345.000
901.154;  -69.350;  141.000;   -3.000
901.396; -140.275; -407.000; -412.000
901.639; -149.275; -430.000; -496.000
901.882; -201.325; -790.000; -809.000
902.124;  -97.300;  -29.000; -143.000
902.367; -134.350; -315.000; -361.000
902.609; -158.500; -476.000; -453.000
902.852;  -91.650; -108.000; -260.000
903.094; -142.350; -458.000; -337.000
903.337;  -85.500;  -26.000;   53.000
903.579; -129.775; -228.000; -441.000
903.821; -170.050; -597.000; -744.000
904.064;  -85.125;   85.000;  127.000
904.306; -105.950; -126.000; -166.000
904.548; -136.000; -152.000; -366.000
904.790; -127.075; -195.000; -340.000
905.033; -156.250; -625.000; -577.000
905.275; -147.250; -513.000; -524.000
905.517;  -41.875;  468.000;  256.000
905.759; -188.975; -667.000; -761.000
906.001; -144.250; -322.000; -369.000
906.243; -146.000; -162.000; -224.000
906.485; -124.075; -265.000; -207.000
906.727; -157.325; -499.000; -542.000
906.969; -118.125;  -30.000; -135.000
907.211; -158.325; -316.000; -382.000
907.453; -117.025; -188.000; -237.000
907.695; -114.675; -158.000; -385.000
907.936;    4.425;  818.000;  706.000
908.178;  -90.850;   92.000; -135.000
908.420; -120.800; -111.000; -162.000
908.662; -171.850; -633.000; -682.000
908.903; -124.575; -208.000; -123.000
909.145; -111.700; -240.000; -305.000
909.386;  -55.575;  315.000;  280.000
909.628;  -19.825;  363.000;  397.000
909.870;  -57.750;   29.000;  264.000
910.111; -194.550; -809.000; -949.000
910.353; -113.350; -123.000; -161.000
910.594; -168.250; -574.000; -606.000
910.835; -148.750; -265.000; -326.000
911.077; -155.225; -503.000; -604.000
911.318; -171.000; -505.000; -471.000
911.559; -197.325; -577.000; -880.000
911.801; -154.700; -284.000; -280.000
912.042;  -92.925;  -50.000; -159.000
912.283;  -31.275;  404.000;  371.000
912.524; -139.600; -396.000; -457.000
912.765; -106.050; -193.000;   79.000
913.006; -134.450; -307.000; -338.000
913.247; -148.800; -270.000; -290.000
913.488;  -98.925;  -43.000;   30.000
913.729; -150.925; -373.000; -373.000
913.970; -115.325;  -96.000; -292.000
914.211; -110.775; -160.000; -198.000
914.452; -106.550; -118.000;  -11.000
914.693;  -31.075;  510.000;  592.000
914.934;  -18.300;  510.000;  440.000
915.175;  -96.100;   53.000;  -95.000
915.415; -100.575; -137.000;   27.000
915.656; -102.525;  -28.000;  192.000
915.897; -116.700; -252.000;  -82.000
916.137; -104.750;   74.000;   -9.000
916.378; -170.025; -573.000; -517.000
916.619; -122.600; -159.000;  -63.000
916.859;  -52.325;  303.000;  330.000
917.100;   89.275; 1655.000; 1070.000
917.340;   28.025;  930.000;  728.000
917.581;    6.450;  965.000;  789.000
917.821; -117.750; -171.000;  143.000
918.061; -108.675; -199.000;  -72.000
918.302; -108.225; -152.000; -211.000
918.542; -103.650;  -22.000;    3.000
918.782;  -59.325;  369.000;  377.000
919.023;  -36.575;  360.000;  427.000
919.263;  995.375; 8131.000;  202.000
919.503; -110.750; -137.000;  -54.000
919.743;  -44.225;  390.000;  266.000
919.983;  -93.600; -134.000;  -26.000
920.223;  -95.875;  135.000;   14.000
920.463;  -26.100;  631.000;  554.000
920.703;  -89.250;   84.000;   39.000
920.943; -107.375; -110.000;   90.000
921.183; -149.150; -414.000; -405.000
921.423;  -46.775;  307.000;  546.000
921.663; -116.350; -174.000; -257.000
921.903;  -65.200;  237.000;  173.000
922.143;  -54.775;  372.000;  389.000
922.383;  -86.700;  158.000;  115.000
922.622; -103.275; -120.000;  -15.000
922.862;   -1.125;  796.000;  785.000
923.102;  -94.525;  -51.000;   33.000
923.341; -105.150;   59.000;   74.000
923.581;  -62.925;  450.000;  360.000
923.821;  -67.600;  301.000;  398.000
924.060;  -54.150;  351.000;  193.000
924.300; -113.300;  -16.000; -128.000
924.539;  -50.875;  584.000;  473.000
924.779;   -3.325;  812.000;  597.000
925.018;  -76.000;  247.000;  353.000
925.257;  -24.375;  595.000;  666.000
925.497;  -48.575;  447.000;  412.000
925.736; -104.175;  -35.000;  102.000
925.975;  -18.450;  687.000;  669.000
926.214;    5.800;  907.000;  850.000
926.454;   19.550;  706.000;  757.000
926.693;  -62.975;  419.000;  543.000
926.932;   11.675; 1021.000;  825.000
927.171;   54.950; 1107.000; 1044.000
927.410;   47.850; 1144.000;  967.000
927.649;    3.300;  924.000;  742.000
927.888;  -36.775;  590.000;  564.000
928.127;  -39.600;  680.000;  678.000
928.366;   -5.975;  842.000;  826.000
928.605;  -11.175;  831.000;  737.000
928.844;   63.150; 1451.000; 1393.000
929.083;  -33.375;  770.000;  613.000
929.321;   70.000; 1335.000; 1359.000
929.560;   46.675; 1158.000; 1122.000
929.799;  -62.025;  574.000;  475.000
930.038;   60.475; 1025.000; 1394.000
930.276;  -64.500;  334.000;  397.000
930.515;  -21.400;  827.000;  681.000
930.753;  -30.400;  614.000;  589.000
930.992;  -37.125;  664.000;  717.000
931.230;   -4.425;  847.000;  847.000
931.469;  145.375; 2162.000;  892.000
931.707;   55.075;  840.000;  751.000
931.946;   52.775; 1278.000; 1344.000
932.184;   41.325; 1437.000; 1175.000
932.423;   21.350; 1265.000;  963.000
932.661;   62.125; 1296.000; 1428.000
932.899;  -16.525;  987.000;  821.000
933.137;  -35.425;  754.000;  564.000
933.376;   57.000; 1664.000; 1335.000
933.614;   95.175; 1759.000; 1196.000
933.852;    0.500; 1357.000; 1171.000
934.090;   99.000; 1722.000; 1747.000
934.328;   62.100; 1252.000; 1457.000
934.566;   34.175; 1431.000; 1110.000
934.804;   21.675; 1263.000; 1309.000
935.042;   90.700; 1861.000; 1850.000
935.280;  119.925; 2088.000; 2063.000
935.518;  130.675; 2113.000; 2007.000
935.756;  156.425; 2481.000; 2316.000
935.994;   78.975; 1808.000; 1751.000
936.231;  254.525; 2890.000; 2950.000
936.469;  146.075; 2367.000; 2378.000
936.707;  161.225; 2220.000; 2167.000
936.945;  218.500; 2825.000; 2882.000
937.182;  178.450; 2679.000; 2741.000
937.420;  259.250; 3602.000; 3031.000
937.657;  303.125; 3365.000; 3478.000
937.895;  290.750; 3331.000; 3488.000
938.133;  276.650; 3540.000; 3528.000
938.370;  334.275; 3896.000; 4191.000
938.607;  377.975; 4488.000; 4205.000
938.845;  545.100; 5587.000; 5549.000
939.082;  479.925; 5387.000; 5177.000
939.320;  545.050; 5799.000; 5728.000
939.557;  643.325; 6549.000; 6491.000
939.794;  711.425; 7285.000; 7097.000
940.031;  838.425; 8421.000; 8368.000
940.269;  943.700; 9552.000; 9107.000
940.506; 1086.100;10901.000;10507.000

