
Integration time [ms]: 200.000
Averaging Nr. [scans]: 10
Smoothing Nr. [pixels]: 0
Data measured with spectrometer [name]: 2101013U2
Wave   ;Sample   ;Dark     ;Reference
[nm]   ;[counts] ;[counts] ;[counts] 

394.013;  103.750; -450.257; -315.536
394.305;  390.747; -461.258; -419.536
394.596; 1968.294; -676.269; -527.514
394.887; 4762.919; -796.268; -654.518
395.178; 1931.264;  145.736;   11.476
395.470;  163.681; -210.263; -356.526
395.761;  363.841;  305.734;  394.479
396.052;  616.308; -545.284; -306.489
396.343;  539.212; -557.276; -454.503
396.634;  162.865; -200.279; -290.497
396.926;  119.815; -618.268; -565.517
397.217;  125.818;   11.725;  -17.504
397.508;   44.742; -366.273; -154.507
397.799;   29.865; -555.279; -571.497
398.090;  -73.043; -973.280; -902.495
398.381;  199.396;   11.708;  -11.473
398.672;  -77.402; -585.292; -742.473
398.963;   61.974; -348.279; -373.498
399.254;  147.912;   54.709; -209.475
399.545;  -95.364;-1017.266; -883.520
399.836;   69.395; -407.277; -343.501
400.127;  122.261; -205.295; -209.468
400.418;   92.934; -423.274; -392.506
400.709;  103.738; -359.281; -333.493
401.000;   85.317; -268.291; -309.476
401.290;  191.167;  225.698;  115.545
401.581;  141.282; -166.286; -228.485
401.872;   11.020; -542.298; -486.462
402.163;   84.850; -313.296; -252.467
402.454;  152.113; -123.291; -163.475
402.744;   50.237; -844.297; -813.465
403.035;  638.983; -226.293;  -86.471
403.326;  789.302; -366.292; -384.474
403.617;  596.111;  204.701;  165.539
403.907;  409.316; -593.283; -679.490
404.198; 4236.199; -545.307; -599.446
404.489;10783.924; -618.283; -588.491
404.779; 3596.372; -618.302; -660.456
405.070;  399.940;  -67.304; -174.451
405.360;  589.186; -259.293; -238.472
405.651;  623.389;  125.699;   98.542
405.942;  338.375;  209.714;  127.516
406.232;  369.497; -432.285; -413.487
406.523;  722.176;  641.706;  758.530
406.813;  117.878; -579.286; -644.484
407.104;  565.395;  261.708;  144.527
407.394;  223.713; -604.299; -591.462
407.685;  276.696;  336.715;  222.513
407.975;   93.922; -400.283; -382.490
408.265;  213.234; -134.289; -190.478
408.556;   99.008; -472.291; -459.475
408.846;  323.877;  474.706;  429.530
409.137;  169.847;   -1.288; -216.480
409.427;   63.396; -193.285; -271.487
409.717;   45.447; -776.273; -692.508
410.007;  221.587;    4.715; -170.486
410.298;  130.165; -360.295; -342.469
410.588;   97.392; -495.285; -510.486
410.878;    0.663; -792.287; -873.482
411.168;  176.223; -481.298; -478.463
411.459;  164.814; -295.283; -242.489
411.749;   64.206; -609.292; -507.474
412.039;   50.644; -755.289; -386.480
412.329;  404.785;   40.722;  132.501
412.619;  374.279;  -62.286; -148.485
412.909;  678.738;  639.711;  594.521
413.199;  521.257; -130.280; -251.495
413.490;  714.824;  521.710;  352.523
413.780;  174.163;-1013.279; -913.496
414.070;  572.813;  -46.276;  235.497
414.360;  576.979; -729.278; -666.498
414.650;  667.457; -726.288; -688.482
414.940;  868.762; -538.280; -441.496
415.230; 1639.553;   50.712;   74.519
415.520;10742.893;  155.730;   66.486
415.809;41042.237; -305.281; -125.493
416.099;32484.099; -388.277; -229.501
416.389; 9044.330;  435.726;  236.494
416.679; 5310.686;   91.738;   85.473
416.969;  880.970; -527.287; -503.483
417.259; 1042.266;  341.721;  171.503
417.549; 1206.035;  522.718;  318.508
417.838; 2911.118; -205.268; -147.518
418.128; 9422.432;  650.710;  492.522
418.418; 7957.356; -491.272; -579.509
418.708; 5509.931;    9.726;  -48.506
418.997;20010.024; -474.275; -480.505
419.287;21253.941; -733.273; -790.507
419.577;20463.013; -160.283; -123.489
419.866;63287.396; -588.277; -498.501
420.156;64141.787; -242.270;  -55.513
420.446;12292.475; -112.263;  -26.526
420.735; 1366.678; -376.271; -446.512
421.025; 1539.578; 1830.722;  315.502
421.314; 1071.275; -203.271; -226.512
421.604; 2060.607;   89.732;  233.484
421.893; 1115.070; -705.271; -602.511
422.183;  363.475; -487.263; -461.526
422.472;  656.872;  -36.271; -107.511
422.762;  749.445; -416.266; -379.521
423.051;  366.814; -916.276; -916.503
423.341;  485.644; -491.273; -439.507
423.630;  638.753; -121.265;   15.477
423.919;  644.623;   58.725;   49.495
424.209;  626.483;  -31.263;   56.473
424.498;  808.214;   68.732;  161.483
424.787; 1871.924; -535.267; -601.518
425.077; 5567.051;   34.735;   29.478
425.366; 7461.792; -734.262; -744.528
425.655;16855.644;  639.727;  259.493
425.945;36917.783; -313.247; -268.554
426.234;21418.625;  117.741;  300.467
426.523; 8626.033;  -86.259; -350.534
426.812;12060.738;  107.734;  159.480
427.101;17565.702; -127.269; -323.515
427.390;21573.593;  -55.270;  -86.514
427.680; 4548.962; -624.257; -411.538
427.969;  806.578; -330.255; -301.540
428.258;  495.050; -385.257; -477.536
428.547;  927.162;  449.728;  397.490
428.836; 1786.202; -421.253; -398.543
429.125; 2512.736; -199.259;  -72.534
429.414; 1263.836; -330.251; -294.548
429.703; 5352.136; -231.251; -213.548
429.992;15867.241; -938.250; -828.549
430.281;10596.764; -397.264; -331.524
430.570;  992.022;  -21.252;   32.454
430.859;  897.132;  279.741;  352.466
431.148;  786.177;  636.752;  631.446
431.437;  508.121;  391.748;  367.454
431.725;  214.352; -544.257; -481.536
432.014;  188.913; -845.253; -756.545
432.303;  610.789; -149.239; -105.569
432.592;  947.374; -460.263; -178.525
432.881; 1694.179; -601.248; -437.554
433.169;10716.279; -343.255;  -61.540
433.458;21325.540;  445.765;  540.424
433.747; 9153.300; -397.261; -289.529
434.036; 1416.754; -275.242; -280.564
434.324; 3537.660; -395.249; -379.551
434.613; 6144.944;   40.757;  159.437
434.902; 2051.075;  333.760;  439.433
435.190;  805.888;   75.761;  295.431
435.479;  446.517;  -52.245;   83.441
435.767;  155.229; -411.244; -427.561
436.056;  284.347; -340.242; -294.563
436.345;  602.478; -372.240; -223.568
436.633;  656.653;   60.750;  383.450
436.922;  429.582;  208.760;  414.432
437.210;  782.125; -194.236;    1.426
437.499; 2414.737; -583.235; -432.576
437.787; 2668.024; -339.236;  -10.574
438.075;  708.696;   56.761;  162.430
438.364; 1028.500;  -44.238;  250.429
438.652;  587.355; -286.226; -138.592
438.941;  242.702;    3.770;  269.415
439.229;  -11.482; -665.252; -466.545
439.517;   55.649; -160.234;  -85.577
439.806;  -53.522; -501.225; -290.595
440.094;  328.461;  377.766;  650.421
440.382;  234.866; -653.233; -302.580
440.670;  285.836; -361.235; -285.576
440.959;   26.904; -347.223; -170.599
441.247;   97.919; -151.229; -109.587
441.535;  140.047; -266.235;   31.423
441.823;   61.556; -497.234; -305.578
442.111;  322.825;  173.771;  327.412
442.400;  716.916; -628.245; -335.559
442.688; 1851.660; -111.234; -620.579
442.976; 1261.734; -786.213; -450.617
443.264;  137.888; -324.224; -364.597
443.552;  124.657; -258.226;   51.408
443.840;  301.445;  602.765;  876.423
444.128;  194.765;  265.767;  269.420
444.416;  -47.371; -694.228; -312.588
444.704;   15.348; -465.219;  -92.605
444.992;  124.861;   -0.226;  240.407
445.280;   49.903; -517.230;  -94.585
445.568;    4.840; -694.212; -396.618
445.856;  491.725; -174.221;  357.398
446.143;  986.643;  -54.220;   -7.604
446.431;  926.734;  -25.228;  625.411
446.719;  396.577;  489.783;  675.391
447.007;  344.294;  481.769;  705.416
447.295;  362.200;  597.777;  871.402
447.583;  113.615; -464.229;  -34.587
447.870;  228.920; -434.221; -202.601
448.158;  615.801; -104.230;  129.415
448.446;  425.644; -800.219; -338.604
448.733;  259.890;   13.776;  269.403
449.021;  352.939;   60.788;  341.382
449.309;  301.761; -296.210;  208.379
449.596;  372.671;  128.783;   59.392
449.884;  210.610; -571.222; -325.600
450.172;  174.042; -756.227; -406.590
450.459;  739.610;  645.786;  780.387
450.747; 4040.769; -411.218; -147.608
451.034;12858.136;  493.772;  889.411
451.322;10872.214; -413.214; -170.614
451.609;  971.593;  292.777;  508.403
451.897;  959.755; -550.203; -183.634
452.184; 2957.900; -622.223; -400.598
452.472; 2834.693;   97.792;  269.375
452.759;  605.045;  512.781;  864.395
453.047;  139.036; -407.212; -125.617
453.334;   93.557; -732.219; -216.606
453.621;  106.418; -438.214; -161.615
453.909;  197.543;   13.796;  384.368
454.196;  152.310; -299.199; -123.641
454.483;  350.874;  317.798;  540.364
454.771;  217.398; -215.208;  196.374
455.058;   71.103; -316.207;  102.374
455.345;  218.192;   71.807;  344.347
455.632;  170.107; -128.207;  235.373
455.919;  127.944;  -82.196;  182.354
456.207; -138.783; -774.198; -450.642
456.494;  -17.708; -475.200;  -66.639
456.781;    6.868; -399.202; -198.635
457.068;   95.617; -253.206;  -29.628
457.355;  -35.381; -698.206; -401.629
457.642;   -7.073; -552.205; -290.630
457.929;  -22.021; -778.194; -417.651
458.216;   85.936; -575.212; -354.617
458.503;  405.086; -173.193;  -19.652
458.790;  339.194; -864.208; -630.625
459.077;  427.075;  -77.202;  110.364
459.364; 1367.468; -350.195; -210.649
459.651; 2829.114;  -46.206;  220.372
459.938; 1313.180; -864.209; -665.623
460.225;  236.380;  132.799;  276.363
460.512; -111.860; -836.197; -688.645
460.799;  199.467;  -32.218;  320.392
461.086;   85.899; -370.200; -251.640
461.372;   67.118; -509.198; -279.642
461.659;  177.046; -165.196;  108.354
461.946;   86.984; -445.193;  -54.651
462.233;  445.295;  842.800;  888.361
462.519;  517.091; -814.201; -464.639
462.806; 1630.340; -768.197; -497.645
463.093; 1548.114; -445.191;  -66.656
463.380;  -77.524; -920.186; -824.664
463.666;  122.643; -259.197;  -18.646
463.953;  138.561; -406.195; -243.648
464.239;  305.861; -173.195;  -77.648
464.526;  667.277;  413.806;  743.350
464.813;  477.132; -565.190; -304.658
465.099;  538.685;  606.807;  607.348
465.386;  586.091;  903.807;  921.348
465.672;  -11.360; -694.197; -522.645
465.959;    2.058; -598.188; -520.662
466.245;  -17.709; -468.193; -359.652
466.532;  159.257; -109.195;   63.352
466.818;  102.275; -357.186; -216.664
467.104;   -8.765; -488.182; -415.672
467.391;  -46.966; -628.189; -459.658
467.677;   57.381; -289.186;    9.335
467.964;  -18.156; -682.189; -471.660
468.250;   89.784; -331.186; -160.665
468.536;  160.936;   90.811;  180.341
468.822;  -80.298; -821.184; -574.668
469.109;  293.554;  351.827;  471.311
469.395;  334.006;  729.808;  787.346
469.681;  337.141;   46.811;  156.341
469.967; 2093.848; -699.188; -382.660
470.254; 4411.859; -494.188; -306.662
470.540; 2930.743; -601.196; -476.646
470.826;  370.651; -488.181; -397.675
471.112;  522.107;  288.816;  113.331
471.398;  181.014; -253.183;  -58.670
471.684;   42.093; -626.177; -447.680
471.970;  -39.743; -918.180; -981.675
472.256;   42.204; -521.192; -441.654
472.542;    2.971; -499.171; -434.691
472.828;  -24.971; -743.182; -607.672
473.114;   45.635; -380.166; -283.700
473.400;   36.718; -504.175; -293.684
473.686;   61.945; -452.166; -400.701
473.972;  111.039; -230.174; -131.687
474.258;  -94.945; -925.173; -843.689
474.544;  362.181; -183.178;   -2.679
474.830;  537.120;  -65.175;   45.316
475.116;  825.334; -123.190; -196.658
475.401; 1116.660; -558.180; -467.676
475.687;  276.159; -725.180; -718.676
475.973;  -22.859; -673.181; -770.673
476.259;  430.623;  736.825;  764.315
476.544;  571.905; -539.176; -437.682
476.830; 1333.265; -398.172; -322.690
477.116; 1222.803; -430.177; -336.682
477.401;  299.259;  346.820;  358.324
477.687;  -50.982; -289.175; -405.684
477.973;   46.446;   21.819;   28.326
478.258;  -14.825; -448.163; -348.706
478.544;   76.492;   21.815;   61.334
478.829; -123.421; -818.171; -738.692
479.115;  -84.036; -749.172; -651.690
479.401;  -35.567; -444.174; -449.686
479.686;   37.058; -253.180;  -74.676
479.972;  -89.012; -886.178; -776.680
480.257;   27.937; -258.166;  -65.700
480.542;   -3.115; -614.170; -469.693
480.828;  491.715; 1288.824; 1392.317
481.113;  -73.988; -464.176; -426.683
481.399;  -26.590; -236.161; -202.711
481.684; -134.063; -620.166; -462.700
481.969;   53.230; -158.159;  -73.713
482.255;  -15.699; -439.169; -285.695
482.540;  -17.411; -569.178; -441.680
482.825;  -32.332; -395.187; -404.663
483.110;  157.605;  -85.169; -105.696
483.396;  354.362; -840.157; -652.718
483.681;  868.140;  543.826;  730.313
483.966;  261.121; -696.160; -700.712
484.251;    0.838; -404.174; -310.687
484.536;   20.752; -356.165; -378.703
484.822;   29.342; -205.173; -218.687
485.107;  -57.781; -599.152; -502.726
485.392;  270.761;  662.836;  541.296
485.677;  165.420;  354.832;  163.302
485.962;  209.958;  160.843;  270.283
486.247;  143.987;  -14.162;   -8.707
486.532;   66.839; -178.166; -325.701
486.817;  302.202;  381.839;  431.291
487.102;  179.893; -453.154; -514.722
487.387; 1065.765; -637.156; -652.718
487.672; 1911.269; -154.164;  -38.705
487.957; 1233.212; -394.160; -286.711
488.241;  360.243; -290.150; -314.729
488.526; 1258.621; -280.152; -148.726
488.811; 1910.092; -881.177; -818.680
489.096; 1471.797; -666.154; -702.723
489.381;  828.115;    3.847;  162.275
489.666;  643.010; -428.161; -510.710
489.950;  375.102;  558.846;  627.277
490.235;  -62.964; -480.151; -458.728
490.520;  -84.992; -756.161; -723.710
490.804; -114.332; -827.156; -736.719
491.089;  -20.933; -469.149; -299.732
491.374;   64.966; -132.164;  -75.704
491.658;  -34.916; -817.147; -717.735
491.943;  202.027; -657.152; -609.727
492.227;  373.587; -178.155;  -38.721
492.512;   80.358; -294.157; -341.717
492.797; -159.342; -713.149; -716.731
493.081; -135.812; -588.147; -598.735
493.366;  -78.289; -751.161; -635.711
493.650;  423.967;  831.859;  917.254
493.935;   28.183; -648.147; -447.734
494.219;  -81.252; -778.142; -687.743
494.503;  -81.350; -585.150; -487.730
494.788;   66.345;   46.842;   74.285
495.072;  195.545;  184.850;  434.271
495.356;  229.072; -463.148; -343.733
495.641;  670.598; -812.146; -736.736
495.925;  583.075; -976.156; -903.719
496.209;   65.766; -599.149; -451.732
496.494;  -96.351; -763.142; -544.744
496.778;  -18.406; -364.154; -360.722
497.062; -127.426; -819.156; -627.719
497.346; -103.885; -869.160; -640.711
497.631;  277.877;  580.852;  560.266
497.915;  140.013;  -64.145;  175.261
498.199;  110.162; -341.157; -277.718
498.483;   38.718; -562.152; -508.725
498.767;  346.247;  301.850;  300.271
499.051;  335.062; -126.149; -100.732
499.335;   17.160; -693.149; -739.731
499.619;  -91.683; -381.129; -423.767
499.903;   20.785; -272.155;  -65.721
500.187;   13.204; -588.153; -316.724
500.471;   -6.974; -796.152; -595.727
500.755;  192.909;   62.839;  -96.710
501.039;   21.686; -270.155; -357.721
501.323;  137.669;  -21.141;  264.254
501.607;   57.475; -447.163; -503.706
501.891;    6.864; -607.156; -512.718
502.174;  -95.870; -726.144; -585.741
502.458;  134.132;   89.849;  370.273
502.742;   67.805; -180.138; -191.751
503.026;  152.782; -412.147; -254.734
503.310;  261.428; -437.159; -375.713
503.593;  206.985; -464.147; -325.735
503.877;  166.864; -232.133; -156.760
504.161;  279.908;    2.847;  -50.724
504.444;  123.549; -841.158; -710.716
504.728;  729.165; -487.164; -522.704
505.012; 1136.342; -257.150;  -76.729
505.295;  876.310; -417.161; -212.711
505.579;  917.374; -256.156; -496.719
505.862; 1230.708; -555.145; -333.738
506.146; 1204.732; -681.159; -758.714
506.429;  735.633;  568.841;  461.286
506.713;   81.238; -732.151; -667.728
506.996;  541.393;   90.846;  295.278
507.280;  521.958; -633.165; -474.703
507.563;  395.883; -469.155; -261.721
507.847;  151.805; -423.153; -112.724
508.130;  117.311; -665.161; -456.711
508.413;  199.531; -758.167; -577.700
508.697;  401.331; -151.167;   12.300
508.980;  256.507; -422.153; -312.724
509.263;  -12.322; -466.155; -450.720
509.547;   49.042; -124.150;   82.271
509.830;   77.415; -172.160;  140.289
510.113;  150.074;  128.844;  298.281
510.396;   41.816; -530.152; -300.725
510.680;  132.010; -818.145; -812.738
510.963;  876.099;  184.846;  180.277
511.246;  640.853; -493.150; -357.730
511.529;  375.317; -482.145;  -83.739
511.812;  603.359; -250.134;   10.241
512.095;  402.534; -740.151; -396.728
512.378;  131.291; -317.147; -245.736
512.661;   27.516; -703.137; -623.753
512.944;   35.551; -750.142; -637.744
513.227;   99.612; -170.137; -171.752
513.510;   27.530; -479.144; -671.741
513.793;   42.876; -485.140; -435.747
514.076;  187.947;  -43.127;  -39.771
514.359;  194.567; -294.149; -135.732
514.642;  125.355; -442.142; -567.744
514.925; 1288.673;  581.860;  561.253
515.208; 1617.554; -498.134; -443.758
515.491; 1111.074; -276.133; -182.761
515.773;  616.435; -410.143; -337.742
516.056; 3504.425;  249.864;  409.246
516.339; 4440.431; -754.136; -652.755
516.622; 2841.250; -518.150; -488.730
516.904; 1712.145;  882.857;  975.257
517.187;  727.210; -730.138; -523.752
517.470;  599.944; -568.143; -510.743
517.752;  666.335; -624.136; -470.756
518.035;  529.191; -708.139; -725.749
518.318;  600.331; -799.136; -744.755
518.600; 4030.280; -300.132; -325.762
518.883; 5513.354;  310.858;   88.256
519.165; 2699.099; -585.138; -426.751
519.448;  628.879;  -61.132;  -19.762
519.730;  256.058; -573.126; -415.773
520.013;  531.769;  588.867;  664.240
520.295; 1148.262;  -94.134;  -15.759
520.578; 2389.398; -335.131; -305.764
520.860; 2698.979; -254.132;   56.238
521.143; 1422.938; -763.135; -584.756
521.425;  715.978; -251.125; -279.775
521.707; 1073.748; -622.127; -380.771
521.990; 2936.949; -199.127;  167.229
522.272; 3225.278; -116.140;   -4.748
522.554; 1476.936; -237.143; -157.742
522.836;  547.759;  -24.134;   99.241
523.119;  331.480; -496.148; -189.734
523.401;  235.309; -448.130; -314.766
523.683;  106.417; -865.137; -693.753
523.965;  467.107;  408.862;  260.248
524.247;  474.409;   54.878;  170.220
524.529;  281.761; -451.134; -367.759
524.812;  572.811;   -3.130;  191.234
525.094; 1398.406; -773.138; -631.751
525.376; 2176.591; -143.124;   78.223
525.658; 1381.427; -441.136; -339.754
525.940;   17.993; -805.131; -671.764
526.222;   52.432; -188.136;  -88.755
526.504;  197.690; -190.131;   32.237
526.786;  201.265; -960.133; -647.760
527.068;  409.999; -124.123;  -67.778
527.349;   98.922; -865.137; -774.754
527.631;  182.379; -137.132;   22.238
527.913;  194.047; -664.127; -450.771
528.195;  230.667; -761.125; -639.774
528.477;  410.754;  -93.134;  -30.758
528.759;  222.511; -648.130; -522.766
529.040;  101.697; -569.123; -293.778
529.322;   77.871; -235.125;  -10.774
529.604;  232.514;  -47.130;   93.233
529.886;  147.858; -546.126; -302.773
530.167;  206.202;  232.870;  192.235
530.449;  111.090;    1.853;   63.265
530.731;   34.508; -572.122; -459.779
531.012;   92.838; -513.120; -216.784
531.294;  152.896; -118.116;  -43.792
531.575;  299.478;  290.875;  538.225
531.857;   74.747; -548.135; -266.757
532.138;  139.467; -113.141;   40.254
532.420;  267.641;  294.865;  403.244
532.701;  235.269; -722.133; -751.760
532.983;  508.773;  232.867;  182.239
533.264;  181.355; -243.126;  175.228
533.546;  -53.268; -491.136; -508.755
533.827;   90.764;  173.867;   -1.759
534.109;   59.146; -352.135;  -80.757
534.390;   97.685; -725.132; -582.762
534.671;  351.041; -270.135;  -82.756
534.953;  166.701; -751.123; -611.779
535.234;   34.674; -426.117; -255.789
535.515; -164.949; -891.119; -735.785
535.796;  -43.659; -431.128; -193.770
536.078; -227.010;-1050.124; -904.777
536.359;   10.402;  -22.123;    3.221
536.640;  -30.031; -480.125; -197.774
536.921;  285.522;  225.871;  143.232
537.202;  610.501;  -87.138;  -16.751
537.483;  779.498;  251.869;  377.236
537.764;  307.302;   17.870;   98.235
538.045;  -74.647; -543.134; -371.758
538.326;  -78.975; -596.129; -447.768
538.607;   -2.351; -686.127; -476.771
538.888;  307.525;   98.879;    5.218
539.169;  270.017; -704.122; -535.781
539.450;  560.921;  236.871;   16.233
539.731;  362.531; -361.121; -182.783
540.012;  207.238;  199.880;  412.216
540.293;  168.883;   82.876;  158.224
540.574;  -60.773; -895.113; -717.796
540.855;  776.329;  435.879;  377.218
541.136;  827.413;   47.878;  139.220
541.416;  429.512; -161.130; -220.766
541.697;  261.691; -274.131; -170.763
541.978; 1653.544; -270.135; -315.757
542.259; 2020.549; -211.127; -236.771
542.539; 1000.287; -191.116; -186.790
542.820;  321.777;  461.875;  480.225
543.101;  212.112;  -52.145;  -77.738
543.381;    1.048; -638.127; -591.771
543.662;  443.345;  159.873; -254.771
543.942;  906.142; -751.127; -830.770
544.223; 1747.616;  193.878;  161.219
544.504; 1124.290; -275.124; -182.777
544.784;  949.058; -592.126; -408.773
545.065; 2644.893;  104.884; -254.791
545.345; 3103.151;  227.881;   14.215
545.626; 2073.626;  -14.113; -108.796
545.906; 1418.901;   77.869;   98.235
546.186;  555.365;   92.874;  -95.773
546.467;  353.094;   99.877;  -95.778
546.747;  547.287;  264.884;  327.210
547.027;  656.288;   91.876;  111.223
547.308;  482.441; -376.127; -530.770
547.588;  698.226;  299.871;  371.232
547.868;  351.003;  458.870;  588.235
548.149;  377.404;  609.885;  593.207
548.429;  198.546; -347.127; -299.771
548.709;  292.638; -645.120; -461.784
548.989;  800.165;   84.882;   88.213
549.269; 3428.077;   10.868;  139.239
549.550; 7754.900;  215.877;  117.222
549.830; 6858.153; -758.111; -556.799
550.110; 1412.564; -468.110; -320.801
550.390; 1341.708; -128.122;  -56.779
550.670; 1748.420; -868.114; -783.795
550.950; 1308.728; -509.121; -471.782
551.230;  338.223;  549.879;  460.218
551.510;  -32.973; -381.121; -326.782
551.790;   46.775; -173.109; -127.803
552.070;  506.394;  940.877; 1181.223
552.350;  650.557; -492.119; -377.786
552.630;  975.019;   -2.121;   77.219
552.909;  605.894;  181.884;   73.209
553.189;  421.786;  -49.132;   33.237
553.469;  244.056; -703.119; -514.786
553.749;  273.251; -469.127; -357.772
554.029;  304.680;   33.883;  -24.790
554.308;  247.910; -154.115;  -37.794
554.588;  105.039; -196.128; -204.770
554.868;  127.329; -366.121;  -47.782
555.147;  234.906; -114.115;  -46.793
555.427; 1037.297; -260.116; -250.792
555.707; 6312.203; -284.115; -200.793
555.986; 7344.657; -719.111; -538.800
556.266; 4126.085;   23.884;   72.210
556.546;  162.227; -888.121; -675.782
556.825;  438.416; -657.114; -556.794
557.105; 2876.036; -125.128;   17.230
557.384; 3350.392;  122.884;  187.209
557.664; 1269.796; -717.116; -508.792
557.943;  159.728; -557.121; -411.782
558.222;  289.270; -345.118; -344.788
558.502;  476.408; -116.115;  -76.793
558.781;  812.701;  194.885;  499.208
559.061;  628.469; -232.118; -227.788
559.340;  534.477;  302.883;  353.211
559.619; 1130.285;   93.884;  148.210
559.899; 1615.980; -239.117; -266.789
560.178; 1443.407; -778.115; -593.793
560.457; 5317.082; -623.117; -562.790
560.736; 6889.359; -472.111; -482.800
561.015; 4895.833; -500.128; -502.769
561.295;  662.605;  180.893;  215.193
561.574;  570.804;  119.885;  116.207
561.853;  807.581;  274.891;  303.197
562.132;  834.011;  -45.114;  182.206
562.411;  722.220;  396.879;  553.219
562.690;  214.401; -592.115; -458.792
562.969;  290.537;  472.888;  630.203
563.248; 1020.517; 2966.878; 2487.219
563.527;  447.058; -290.111; -408.800
563.806;  570.946; -650.127; -521.771
564.085;  674.227; -297.105; -206.810
564.364;  370.384; -594.117; -405.790
564.643;  859.221; -276.121; -223.781
564.922; 3035.073;  221.890;  397.198
565.201; 2950.778; -640.109; -700.803
565.479; 1393.399; -297.115; -219.792
565.758;  474.937; -810.128; -712.770
566.037;  769.680; -155.109; -100.803
566.316;  422.992; -286.116;  -28.791
566.595;   89.703;  -17.115;  -12.793
566.873;  221.061; -166.111;  -79.801
567.152; -116.064; -490.113; -590.797
567.431;   82.486; -113.116;    6.210
567.709;   23.505; -344.107; -212.807
567.988;  386.216; -810.114; -769.794
568.266;  836.603; -160.115;  -68.793
568.545;  616.597; -644.100; -514.819
568.824;  986.598;  160.885;  356.208
569.102;  880.615; -351.114; -235.794
569.381;  366.997; -492.116; -407.792
569.659;  -87.670; -553.113; -553.796
569.938;   41.414; -743.122; -465.780
570.216;  169.483; -225.109; -225.804
570.494;  -47.680; -632.114; -572.795
570.773;   86.426;  202.879;  114.218
571.051;   16.898; -373.123; -357.778
571.330;  100.027; -221.113; -174.796
571.608;   86.023; -181.098; -173.823
571.886; -170.150; -671.111; -581.799
572.164; -139.671; -739.121; -621.782
572.443;  -88.967; -562.105; -512.811
572.721;  -63.718; -399.117; -289.790
572.999;  -23.127; -280.117; -168.788
573.277;  184.523;  379.894;  620.191
573.555;  502.426;   94.894;   37.190
573.834; 2171.672;  -86.117; -114.788
574.112; 2509.908;  880.893;  811.193
574.390;  768.460; -143.111;  -96.801
574.668;    5.137;  -91.112;  -61.797
574.946;  -15.174; -165.106; -187.810
575.224;   40.978;   71.891;  -16.803
575.502;  -30.311; -200.116; -204.791
575.780; -186.361; -767.112; -829.798
576.058;  341.458; 1589.889; 1004.200
576.336;  -36.633; -210.110; -129.801
576.614;  -69.261; -511.112; -340.798
576.891;   86.109; -711.115; -823.794
577.169;  743.395; -158.108; -285.805
577.447;  903.907;  169.893;  202.193
577.725;  512.246;  629.888;  854.201
578.003;    3.743;  -71.112; -371.798
578.280;  133.846; -208.104; -242.812
578.558;   40.808; -450.115; -422.793
578.836;  228.620; -210.114; -145.795
579.114;   13.437; -630.112; -670.797
579.391;  116.775;   -6.117;  -18.789
579.669; -126.889; -595.114; -704.794
579.947;  263.203; -326.107; -127.806
580.224;  500.002; -692.107; -524.806
580.502;  529.709;  127.893;   76.193
580.779;   65.283;  -42.117;   75.210
581.057;  -99.116; -584.109; -470.804
581.334; -167.832; -726.102; -695.815
581.612;   93.028;   54.895;  511.190
581.889;  -35.613;  -83.101; -129.818
582.167;  -67.992; -298.099; -190.821
582.444; -183.121; -845.102; -814.817
582.721;  230.780;  657.899;  715.183
582.999;   92.005; -326.100; -167.821
583.276;  834.004; -812.123; -713.779
583.553; 1109.573; -364.102; -294.816
583.831;  342.741; -607.104; -631.812
584.108;  148.992;  349.892;  174.195
584.385;   30.967; -122.102;  -98.815
584.662; -151.238; -651.111; -828.801
584.940;   88.061;  204.889;  204.199
585.217;  -22.770;  -73.113; -303.796
585.494;   74.974;   71.890;  118.198
585.771;  315.885; -250.109; -354.804
586.048;  819.629; -196.113;  -76.796
586.325;  464.465; -721.110; -773.801
586.602;  171.146;  230.896;  213.188
586.879;  -28.901; -499.100; -580.820
587.156;   91.529; -156.105; -331.810
587.433;  -87.724; -701.102; -667.817
587.710;  135.540;  152.888;  234.202
587.987;  488.436; -264.105; -236.811
588.264; 1251.543;  315.888;  387.202
588.541; 2222.650;  -61.104;   26.187
588.818; 4137.588;   72.892;  171.196
589.095; 3588.643; -163.104; -174.812
589.371;  615.582; -459.109; -414.804
589.648;    7.808; -581.107; -437.807
589.925;   44.921; -517.114; -621.795
590.202;    4.140; -741.112; -607.798
590.478;  151.239; -166.105;  -73.811
590.755;  446.897; -241.108; -132.806
591.032; 4010.669; -741.110; -699.802
591.308; 5261.582; -732.094; -790.831
591.585; 2871.568; -573.110; -560.802
591.862;  138.879;-1056.102; -950.817
592.138;   99.994; -475.108; -474.805
592.415;  230.948; -486.104; -495.813
592.691; 2405.844;  460.896;  518.188
592.968; 2872.026; -208.098; -123.824
593.244; 1385.287; -695.116; -595.790
593.521;  123.179; -105.102;  -42.817
593.797;  -75.790; -810.122; -720.780
594.074;  534.245; -611.096; -588.826
594.350; 1091.961;  828.905;  729.172
594.626;  491.962; -303.111; -283.801
594.903;  175.480; -643.101; -645.817
595.179;  349.453;  243.896;  418.187
595.455;   22.010; -136.107; -150.807
595.731;   59.255;  -19.103;  -38.814
596.008;  -53.247; -464.111; -434.800
596.284;   55.703; -187.100; -242.820
596.560;   62.792; -501.093; -493.833
596.836;  293.732; -173.105;  -70.810
597.112;  557.695; -582.108; -437.805
597.388;  468.341;  -49.097;  -48.826
597.665;  230.833;  437.887;  530.203
597.941; -121.465; -572.089; -658.839
598.217;   14.773; -323.110; -293.802
598.493;  427.887;   61.891; -204.804
598.769;  742.094; -175.100;  -50.819
599.045;  422.899; -490.108; -562.806
599.321;   77.201; -193.100; -261.820
599.597;  246.686; -355.109; -476.804
599.872;  760.150;  409.896;  429.187
600.148;  581.844;  -61.097; -172.826
600.424;  502.506;   91.893;  202.193
600.700;  403.210; -170.107; -280.807
600.976;  181.835; -442.097; -464.825
601.252;  373.981; -226.109; -272.803
601.527;  299.451; -833.104; -840.813
601.803;  220.840; -453.105; -404.812
602.079;  308.494; -124.100; -118.819
602.354;  852.406; -620.092; -531.835
602.630; 1282.730; -140.113; -482.796
602.906; 3893.387; -910.101; -863.818
603.181;10277.757; -627.119; -534.786
603.457; 8833.740;   98.903; -278.826
603.733; 1341.032; -605.120; -626.783
604.008; 1668.427; -245.106; -164.810
604.284; 4569.882; -636.101; -580.817
604.559; 4099.546;   -3.112;  -42.799
604.835;  792.331; -163.105; -225.810
605.110;  626.209; -732.099; -892.821
605.385; 1107.796;  224.907;  267.167
605.661; 1042.865; -625.095; -729.829
605.936; 1781.000; -664.108; -737.806
606.211; 1538.465;  -17.103; -170.815
606.487;  322.714; -329.114; -376.794
606.762;    4.357; -791.119; -745.786
607.037;  -52.568; -501.105; -433.810
607.313; -103.145; -589.096; -574.828
607.588;   11.426; -375.106; -137.810
607.863;   87.987;  -28.101; -143.818
608.138;  382.771;  513.890;  516.198
608.413;   30.515; -576.099; -592.822
608.688;  104.794; -203.108; -267.805
608.964;  325.118; -509.106; -218.809
609.239;  351.728; -107.105; -212.810
609.514;  443.439;  281.895;  240.188
609.789; 1009.746; -187.104; -716.812
610.064; 1293.853; -435.096; -609.827
610.339; 1394.982; -855.109; -799.804
610.614; 1784.902; -131.100; -315.820
610.889; 1089.540;  215.895;  107.188
611.163;   54.141; -407.104; -591.812
611.438;  153.116;   81.886; -167.794
611.713;   -3.318; -467.101; -499.817
611.988;   70.385; -144.101; -328.818
612.263;  -97.332; -771.102; -717.815
612.538;  388.829;  385.887;  251.204
612.812;  209.804; -832.100; -911.820
613.087;  251.123; -358.098; -338.823
613.362; -123.290; -497.107; -557.807
613.637;   91.759;  261.897;  138.186
613.911;   -5.293; -256.092; -345.835
614.186;  123.307; -249.107; -292.807
614.460;  998.346; -842.081; -758.854
614.735; 1238.370;  -55.087;  -17.843
615.010;  280.955;   43.912;  -82.841
615.284;  450.693;  360.892;  246.195
615.559;  519.206; -792.092; -955.835
615.833;  468.312;  -76.099;  -87.822
616.108;   58.223; -225.090; -390.837
616.382;  285.472;  274.913;  402.156
616.656;  247.724; -241.090; -232.837
616.931;  740.913; -785.099; -700.822
617.205; 1615.952; -973.104; -979.813
617.480; 1558.574;  -91.125;    6.225
617.754;  247.871; -396.125; -128.774
618.028;   29.927; -369.129; -382.768
618.302;  130.191;   73.892;  -25.805
618.577;  -98.439; -371.103; -518.815
618.851; -103.823; -399.109; -600.803
619.125;  -38.339; -335.134; -378.759
619.399;  -47.148; -244.104; -374.813
619.673;  -61.702; -330.115; -515.792
619.947;  -42.980; -333.114; -448.795
620.222;    9.563; -198.110; -204.801
620.496;    1.929;  -47.121;  -96.782
620.770;   27.217; -187.122;  -93.781
621.044;  396.229;  323.895;  346.190
621.318; 1108.333; -653.120; -614.783
621.592; 1009.330; -430.121; -409.783
621.866;  560.247; -476.112; -572.799
622.140;   44.789; -207.116; -356.791
622.413;  116.753;  138.889;  112.200
622.687;  -81.418; -746.101; -492.817
622.961;   55.791; -130.108; -143.805
623.235; -108.745; -633.111; -661.800
623.509; -207.461; -816.105; -848.811
623.783;   44.104;  -12.107;   48.193
624.056;  -10.265; -254.120; -280.783
624.330;  122.737;   63.888;   -3.797
624.604;  139.284; -271.116; -355.790
624.877;   97.970;  180.890;   26.198
625.151;   65.112; -249.114; -238.794
625.425;  -16.045; -150.103; -283.814
625.698;  -97.551; -367.119; -374.785
625.972; -182.527; -799.110; -765.802
626.245;  174.287;  685.884;  484.210
626.519;  -88.659; -426.120; -340.784
626.792;  -73.691; -192.107; -380.807
627.066; -164.594; -485.122; -662.779
627.339; -185.833; -736.110; -663.802
627.613;  126.739;  351.880;  148.216
627.886;  103.676;  187.891; -612.803
628.160;  -13.367;  312.880; -161.783
628.433; -177.522; -695.125; -703.775
628.706; -126.559; -517.120; -615.784
628.979;  114.888;  296.876;  117.223
629.253; -181.244; -785.119; -833.786
629.526;  590.756; -334.126; -253.772
629.799;  482.099; -641.123; -479.778
630.072;  226.729; -497.128; -516.769
630.346; -139.613;-1115.116;-1080.790
630.619;  706.311; -467.107; -545.808
630.892; 1012.055;  709.889;  593.200
631.165;  661.652;  790.896;  679.187
631.438; -190.557;-1092.112;-1055.798
631.711;  132.403;  453.877;  257.221
631.984; -105.820; -523.117; -624.789
632.257; -126.225; -636.117; -681.789
632.530;  -94.851; -412.119; -433.785
632.803;   73.109; -109.115;    7.207
633.076; -125.206; -360.123; -422.777
633.349;   56.035;  173.872;  121.231
633.622;  -25.953; -187.119; -240.785
633.895; -229.265; -903.120; -823.783
634.167;  -83.841; -496.126; -525.773
634.440;    3.696;  -19.116; -137.792
634.713;   -4.646;  -22.119; -120.786
634.986;  176.620;  593.871;  453.233
635.258; -154.494; -507.115; -597.793
635.531;  217.869;  742.882; -343.788
635.804;  -71.922; -303.117; -318.789
636.077; -175.209; -830.116; -852.791
636.349;  -19.796; -586.115; -474.793
636.622;  773.954; 1695.874; 1392.228
636.894;  395.541; -474.120; -909.784
637.167;  226.446; -836.127; -789.771
637.439;   68.540; -278.128; -213.770
637.712;  -67.743; -312.126; -293.772
637.984; -148.008; -635.116; -707.791
638.257;  672.394;  515.877;  488.222
638.529;  732.080; -881.125; -924.776
638.802;  355.429; -508.128; -449.769
639.074; -220.285; -927.122; -952.781
639.346; -231.751; -942.135; -930.757
639.619;   -8.647;  -79.142; -319.744
639.891;   10.106;  -83.122; -168.779
640.163; -184.291; -689.122; -756.780
640.435;   94.412;  273.878;  103.220
640.708;  -22.386;  -72.122; -132.780
640.980;  -49.683; -366.122; -362.781
641.252;  372.220;  -25.121;  -71.781
641.524; 2875.122;  580.879;  573.219
641.796; 2656.125;-1094.121; -907.782
642.068;  525.128; -191.121; -300.782
642.340; -102.469; -486.121; -566.783
642.613;   99.833;  294.880;  323.217
642.885; -164.964; -787.120; -878.783
643.157; -105.561; -810.120; -658.784
643.428;  157.241;  170.880;  218.216
643.700;  -83.156; -498.120; -425.784
643.972;  -27.353;  -16.119; -133.785
644.244; -131.750; -474.119; -559.785
644.516; -106.148; -250.119; -114.786
644.788;  149.655;  662.881;  548.214
645.060;  -14.042;  -12.119; -124.786
645.332; -187.240; -525.118; -535.787
645.603;  135.363;  479.882;  342.213
645.875; -107.534; -334.118; -369.787
646.147;  349.768; 1487.882; 1242.212
646.418; -103.329; -931.117; -918.788
646.690;  196.174; -714.117; -715.789
646.962;   83.077; -413.117; -451.789
647.233;    1.079;   15.883;   11.211
647.505; -182.018; -595.117; -475.790
647.776;   97.485;  328.884;  229.210
648.048;   -8.413; -248.116; -418.790
648.320; -166.110; -752.116; -679.791
648.591; -273.207;-1055.116; -958.791
648.862; -149.204; -505.116; -577.792
649.134;   75.198;  115.885;  198.208
649.405;  -71.499; -661.115; -618.792
649.677;  -83.296; -475.115; -598.793
649.948;   -7.094; -181.115; -296.793
650.219;   15.309;  -37.115; -147.793
650.491; -128.488; -431.114; -520.794
650.762; -190.286; -705.114; -731.794
651.033; -135.783; -437.114; -424.795
651.304; -179.980; -743.114; -728.795
651.576; -124.577; -680.114; -645.795
651.847;  -46.775; -250.113; -140.796
652.118;    0.928;  -32.113; -189.796
652.389; -209.569; -639.113; -722.796
652.660;  -27.967; -147.113;  -89.797
652.931; -248.964; -897.112; -871.797
653.202; -143.661; -382.112; -541.798
653.473;  -73.258; -633.112; -533.798
653.744;  201.544; -595.112; -590.798
654.015;  216.847; -356.112; -303.799
654.286; -123.750; -642.111; -663.799
654.557;  -74.948; -586.111; -521.799
654.828; -303.045;-1114.111;-1088.800
655.099; -117.142; -404.111; -291.800
655.370; -157.140; -427.111; -543.801
655.641; -214.137; -656.110; -714.801
655.911; -203.934; -618.110; -638.801
656.182;  143.369;  437.890;  387.198
656.453;  239.571;  830.890;  746.198
656.724; -117.026; -466.110; -426.802
656.994; -146.523; -553.109; -568.803
657.265; -180.721; -862.109; -873.803
657.536; -147.518; -500.109; -377.804
657.806; -171.015; -561.109; -593.804
658.077; -248.712; -866.109; -950.804
658.347; -145.810; -523.108; -598.805
658.618; -180.007; -646.108; -694.805
658.888;  -18.704;  -41.108;  112.195
659.159; -132.102; -432.108; -548.806
659.429;  -21.699; -292.108; -349.806
659.700;   26.104; -435.107; -390.807
659.970;  -21.494; -370.107; -359.807
660.241;    8.309; -754.107; -921.807
660.511;  752.112; -147.107; -174.808
660.781;  116.915; -793.106; -748.808
661.052;  -69.983; -222.106; -381.808
661.322;   -8.780;   21.894;   -9.809
661.592;   99.723;  257.894;  148.191
661.862;  -81.775; -369.106; -382.810
662.133; -158.472; -551.105; -502.810
662.403; -208.869; -770.105; -676.810
662.673;  -88.266; -256.105; -213.811
662.943; -180.864; -612.105; -551.811
663.213;   21.339;  -85.105;  -81.811
663.483; -134.658; -593.104; -568.812
663.753;  -90.056; -194.104; -152.812
664.023;   18.047;   68.896;  -32.813
664.293;  -64.850; -319.104; -126.813
664.563; -171.348; -694.104; -648.813
664.833; -225.945; -743.103; -608.814
665.103; -244.442; -730.103; -793.814
665.373; -206.839; -766.103; -806.814
665.643; -167.337; -863.103; -918.815
665.913;   49.466; -534.103; -714.815
666.182;  192.669; -685.102; -719.816
666.452;  385.871;  -22.102;  -89.816
666.722; -102.126; -724.102; -784.816
666.992; -251.023; -948.102; -921.817
667.261; -181.620; -824.102; -808.817
667.531;  360.282;  134.899;   45.183
667.801;  756.085; -440.101; -412.818
668.070;  432.188;  714.899;  697.182
668.340; -198.110; -883.101; -840.819
668.609;  201.193;  588.900;  301.181
668.879; -143.704; -490.100; -558.819
669.149; -117.502; -539.100; -516.820
669.418; -181.899; -698.100; -726.820
669.688;  -44.896; -482.100; -666.820
669.957;   83.807; -423.099; -546.821
670.226;  -27.291; -268.099; -331.821
670.496; -166.588; -431.099; -635.822
670.765;  -91.085; -418.099; -501.822
671.034; -262.683; -872.099; -828.822
671.304;   17.220;   55.902; -111.823
671.573; -292.877;-1085.098; -957.823
671.842;  131.826; -380.098; -294.823
672.112;   16.428; -692.098; -586.824
672.381;   -2.069; -239.098; -214.824
672.650; -260.266;-1005.097;-1021.825
672.919; -175.164; -631.097; -507.825
673.188; -181.561; -681.097; -878.825
673.457; -264.658;-1101.097;-1143.826
673.726; -165.556; -579.096; -646.826
673.995;  -59.853; -533.096; -479.826
674.265;  -42.650; -263.096; -333.827
674.534;   20.053; -183.096; -235.827
674.802;   20.455; -618.096; -703.828
675.071; 1669.958; -886.095; -801.828
675.340; 5805.061; -464.095; -339.828
675.609; 2041.563;  103.905;   82.171
675.878;   64.866; -949.095; -893.829
676.147;  116.969;  -26.095;   -8.829
676.416;  190.672; -210.094; -294.830
676.685; 1252.674; 1000.906; -622.830
676.953;  141.777; -603.094; -452.831
677.222;   19.980; -193.094; -273.831
677.491;   18.982;  -24.094; -127.831
677.759;   36.085;   11.907;  172.168
678.028;  -19.012; -279.093; -222.832
678.297;   42.590;   71.907;  197.168
678.565; -228.907; -898.093; -944.833
678.834;  -58.604; -311.093; -268.833
679.102; -116.101; -411.092; -391.834
679.371; -247.999; -898.092; -727.834
679.639; -242.596; -797.092; -786.834
679.908; -194.293; -794.092; -724.835
680.176; -284.591; -895.091; -941.835
680.445;  -94.988; -346.091; -352.835
680.713;   18.915;  -58.091;  -23.836
680.982; -149.382; -523.091; -525.836
681.250; -165.980; -578.091; -507.837
681.518; -176.877; -534.090; -751.837
681.787;  -14.274; -204.090; -167.837
682.055;  -90.672; -490.090; -422.838
682.323; -272.669; -993.090; -992.838
682.591;   80.434; -216.090; -538.838
682.859;  135.636;    9.911;  -35.839
683.128;   82.939;  232.911;  497.161
683.396; -328.658;-1102.089;-1122.840
683.664;  -47.255; -241.089;   21.160
683.932;   75.247;  144.911;  -76.840
684.200; -144.550; -576.088; -320.841
684.468;    8.853;  -73.088; -124.841
684.736;  -55.345; -214.088; -175.841
685.004; -229.042;-1024.088; -982.842
685.272; -101.039; -880.088; -774.842
685.540; -100.336; -499.087; -557.843
685.808; -138.334; -651.087; -682.843
686.076; -198.331; -894.087; -969.843
686.343; -100.928; -601.087; -815.844
686.611;   54.674; -195.087; -224.844
686.879;  805.077; -530.086; -553.844
687.147; 5020.280; -483.086; -480.845
687.414; 1475.082;  -12.086; -169.845
687.682;   20.585; -658.086; -757.846
687.950;  559.788;  259.915;  263.154
688.217;   -9.309; -792.085; -760.846
688.485;   -2.007; -632.085; -636.847
688.753;  807.596;  -11.085; -102.847
689.020;  208.899; -820.085; -851.847
689.288; -183.999; -853.084; -787.848
689.555;  -30.396; -195.084; -148.848
689.823;  -75.393; -241.084; -345.849
690.090;  -96.590; -546.084; -651.849
690.358; -282.588; -877.084; -897.849
690.625;   72.315;  120.917;   45.150
690.892; -110.982; -403.083; -369.850
691.160;   31.020;   72.917;  -35.850
691.427;   34.523;  141.917;  130.149
691.694; -241.774; -855.083; -929.851
691.962; -267.172;-1177.082;-1060.852
692.229;   68.531;  127.918;   56.148
692.496;  139.734;  130.918;  -49.852
692.763;   50.337; -164.082; -201.853
693.031; -127.261; -739.082; -716.853
693.298;  -50.858; -509.081; -368.853
693.565;  569.245; -155.081; -163.854
693.832; 1874.447;   -5.081;   -9.854
694.099;  209.150; -643.081; -642.855
694.366; -115.847; -882.081; -896.855
694.633; -121.444; -920.080; -633.855
694.900; 1593.558; 4367.920; -114.856
695.167;  657.761; -214.080; -380.856
695.434;  128.364; -646.080; -623.856
695.701;  340.866;  121.921;  -61.857
695.968;  743.369; -365.079; -361.857
696.234; 1768.772; -415.079; -646.858
696.501;16256.274; -776.079; -614.858
696.768; 7696.977; -554.079; -617.858
697.035;  503.180; -632.078; -667.859
697.302;   47.783; -448.078; -552.859
697.568;   22.785; -458.078; -497.859
697.835;  -47.012; -683.078; -624.860
698.102;  -36.409; -498.078; -407.860
698.368;  158.893;  384.923;  396.139
698.635;   -7.504;  -47.077; -424.861
698.901;    0.199; -240.077; -348.861
699.168;  126.802; -534.077; -456.862
699.435;  143.704;  -72.077;  -13.862
699.701; -216.093; -868.076; -764.862
699.968;  -98.790;  144.924; -441.863
700.234; -163.088; -783.076; -822.863
700.500;  -98.485; -448.076; -539.864
700.767;   40.418;   -1.075;   26.136
701.033; -227.580;-1015.075; -963.864
701.299;  -89.377; -450.075; -483.865
701.566;  289.326;  950.925;  763.135
701.832;   86.829;  -31.075;  -76.865
702.098; -205.969;-1054.074;-1034.866
702.365; -199.766;-1098.074;-1030.866
702.631;  -66.763;-1038.074;-1063.867
702.897; 2131.839; -765.074; -676.867
703.163; 3316.942;  348.926;  254.133
703.429;  232.445; -256.073; -273.868
703.695;  -82.752; -796.073; -792.868
703.961;   77.250; -214.073; -210.868
704.227; -106.647; -630.073; -725.869
704.493;  274.956;  613.927;  510.131
704.759;  -25.342; -565.072; -540.870
705.025;   82.161; -203.072; -194.870
705.291;  -13.536; -666.072; -562.870
705.557;  406.366;  719.928;   34.129
705.823;   31.669; -742.072; -694.871
706.089;  214.072; -307.071; -326.871
706.355;  628.075; -315.071; -244.872
706.620; 8693.277; -776.071; -729.872
706.886;11126.780; -309.071; -362.873
707.152;  975.983; -818.070; -973.873
707.418;  -66.815;-1153.070;-1186.873
707.683;    7.088; -550.070; -530.874
707.949;  -52.909; -547.070; -578.874
708.215;   28.994; -129.070; -207.874
708.480;  -17.504; -520.069; -420.875
708.746;  193.899;   68.931;   28.125
709.011; -112.398; -578.069; -612.876
709.277; -113.696; -538.069; -543.876
709.542;  -65.093; -428.069; -387.876
709.808;   50.210;  -59.068;   89.123
710.073; -118.588; -577.068; -695.877
710.339;    6.015; -242.068; -228.877
710.604;  142.118; -780.068; -845.878
710.869;  446.721; -277.068; -366.878
711.135; -111.177; -715.067; -628.879
711.400; -126.374; -507.067; -608.879
711.665;  -89.371; -404.067; -479.879
711.931; -153.069; -661.067; -677.880
712.196; -204.766; -876.067; -954.880
712.461;  181.937; -402.066; -490.880
712.726;  164.040; -727.066; -771.881
712.991; -147.358; -647.066; -664.881
713.256;  -49.955; -350.066; -332.882
713.521;  -93.752; -417.065; -381.882
713.787; -108.550; -454.065; -472.882
714.052;  -39.847; -214.065; -400.883
714.317; -169.244;-1045.065; -981.883
714.581; 1600.558; -374.065; -268.883
714.846; 1832.561; -822.064; -888.884
715.111;  282.964;  261.936;  257.116
715.376;   -2.833;  -86.064; -223.885
715.641;   39.769; -365.064; -367.885
715.906;  449.472;   15.936; -551.885
716.171;  289.675;  221.937;  209.114
716.436;   42.077;  -78.063; -104.886
716.700; -182.920; -818.063; -692.886
716.965; -220.417; -794.063; -807.887
717.230;  -94.514; -339.063; -392.887
717.494;   22.088;  -40.062; -134.888
717.759; -128.509; -784.062; -640.888
718.024;   51.194;  269.938;  250.112
718.288;  181.296;  685.938;  395.111
718.553; -226.101; -803.062; -977.889
718.817; -247.398; -883.061; -899.889
719.082;   -6.896; -115.061; -125.890
719.346; -258.393;-1000.061; -947.890
719.611;  -69.390; -300.061; -255.891
719.875; -125.687; -568.060; -537.891
720.140;  -62.685; -453.060; -603.891
720.404;  101.918; -136.060; -249.892
720.668; 1319.421; -475.060; -411.892
720.933;  534.423;  146.940;  137.108
721.197; -169.174; -667.059; -600.893
721.461; -238.771; -851.059; -826.893
721.725;   47.332;  -21.059; -250.894
721.990;  -54.466; -284.059; -204.894
722.254;    1.337;  -26.059; -108.894
722.518;  -99.560; -286.058; -442.895
722.782; -156.458; -743.058; -594.895
723.046;  267.645;  614.942;  570.105
723.310;   99.248;  374.942;  210.104
723.574; -129.850; -654.058; -614.896
723.838; -169.647; -576.057; -642.897
724.102;  -60.944; -226.057; -239.897
724.366; -248.741;-1032.057; -978.897
724.630; -167.539; -749.057; -571.898
724.894; -131.936; -722.057; -514.898
725.158;   49.367;   38.944; -295.898
725.422;  -62.131; -394.056; -327.899
725.685;  -79.928; -441.056; -349.899
725.949; -152.225; -566.056; -519.900
726.213; -151.422; -732.056; -811.900
726.477;  202.580;-1020.055; -933.900
726.740;  252.783; -274.055; -104.901
727.004;  610.186; -384.055; -510.901
727.268; 4921.688; -442.055; -400.901
727.531; 1205.791; -961.055; -775.902
727.795;  -89.806; -713.054; -673.902
728.059;  -82.004; -552.054; -557.903
728.322; -111.001; -841.054; -669.903
728.586;   -1.298; -692.054; -701.903
728.849; -166.995; -695.053; -756.904
729.112; -198.093; -812.053; -912.904
729.376; -210.690; -959.053; -905.904
729.639; -102.587; -536.053; -536.905
729.903; -184.885; -733.053; -699.905
730.166;  -67.782; -437.052; -399.906
730.429;  -21.979; -317.052; -468.906
730.693; -106.276; -355.052; -894.906
730.956;  443.626;  810.948;  651.093
731.219; 1059.329; -310.052; -103.907
731.482;  162.732;-1003.051; -894.907
731.745;   91.934; -794.051; -935.908
732.009;   88.837;  -30.051;   50.092
732.272; -139.160; -904.051; -771.909
732.535;  -39.658; -300.051; -310.909
732.798; -286.855;-1083.050;-1166.909
733.061;  -80.552; -430.050; -456.910
733.324;   40.551;   31.950; -180.910
733.587;  162.953;  290.950;  365.090
733.850; -102.544; -973.049;-1050.911
734.113;   99.159;   33.951;   32.089
734.376;   41.461; -328.049; -447.912
734.639;  457.164; 1188.951; 1011.088
734.901;  141.067; -180.049; -402.912
735.164;  847.770; -883.048; -837.913
735.427; 1813.772; -166.048; -355.913
735.690;  222.375; -205.048; -234.913
735.952;  -86.722; -923.048; -925.914
736.215;  -69.620;-1113.048;-1009.914
736.478;   29.983; -771.047; -774.915
736.740;  373.186;   33.953;  129.085
737.003; 1267.488; -658.047; -672.915
737.266; 6108.191;  -94.047;   46.084
737.528;  665.494; -682.047; -660.916
737.791;  502.497; -316.046; -327.916
738.053; 1421.099;  465.954;  649.083
738.316;17192.202; -162.046; -136.917
738.578;10604.905; -770.046; -736.918
738.841;  698.607; -382.046; -446.918
739.103;  307.410; -875.045; -777.918
739.365;  832.413;   79.955;  -69.919
739.628;  -35.584; -884.045; -805.919
739.890;  -26.582; -758.045; -710.919
740.152; -106.279; -692.044; -754.920
740.414;   43.524; -408.044; -359.920
740.677;  -46.274; -785.044; -634.921
740.939;  -64.071; -587.044; -487.921
741.201;  432.832; -432.044; -572.921
741.463;   40.734; -689.043; -745.922
741.725;   41.337;  -21.043; -199.922
741.987;  145.640;  220.957;  116.078
742.249;    6.843; -751.043; -859.923
742.511;  293.745; -703.043; -794.923
742.773;   27.948; -546.042; -546.924
743.035;  290.251;  796.958;  533.076
743.297;  -57.247; -963.042;-1013.924
743.559; 1210.656; -278.042; -262.925
743.821;   81.159; -735.042; -744.925
744.083;   72.162;  -44.041; -149.925
744.345; -142.336; -869.041; -892.926
744.607;  148.767;   75.959;  122.074
744.868;  -79.930; -490.041; -554.927
745.130; -190.028; -994.041;-1008.927
745.392;  131.275;   -1.040;  -44.927
745.653;   -1.122; -411.040; -378.928
745.915;  335.980;  896.960;  631.072
746.177;  140.383;   35.960;  -43.928
746.438;   12.986; -428.040; -543.929
746.700;  -83.111; -947.039; -988.929
746.961;  -15.009; -659.039; -740.930
747.223;  258.694; -190.039;  -74.930
747.484;  174.497; -391.039; -471.930
747.746;  267.099;  -23.038; -106.931
748.007;  189.802; -647.038; -689.931
748.269;  500.105; -468.038; -440.931
748.530;  717.208; -852.038; -638.932
748.791;  427.910; -354.038; -420.932
749.053;  762.513;  286.963;  163.067
749.314;  702.616; -236.037; -169.933
749.575;  756.018; -945.037; -905.933
749.836; 1310.921; -217.037;   86.066
750.098; 4434.924;  -60.037;  -21.934
750.359;54299.326;  414.964;  555.066
750.620;12307.829; -121.036; -220.935
750.881; 1572.632; -585.036; -513.935
751.142; 2138.235; -950.036; -938.936
751.403;26483.737; -789.036; -705.936
751.664; 9922.940;-1034.035; -999.936
751.925;  792.443; -175.035; -262.937
752.186;  458.645; -298.035; -278.937
752.447;  249.048; -590.035; -445.937
752.708;  124.751; -532.035; -648.938
752.969;    8.054; -566.034; -576.938
753.230;  -24.644; -777.034; -672.939
753.491;   23.059; -650.034; -631.939
753.751;  175.262;  109.966;   19.061
754.012;  213.364;  258.967;  181.060
754.273;  169.667; -174.033;  -71.940
754.534;   15.870; -487.033; -580.940
754.794; -139.428; -926.033; -911.941
755.055;  367.975; 1051.967;  881.059
755.316;  -34.922; -700.032; -566.942
755.576;  -28.019; -606.032; -576.942
755.837;  -73.717; -527.032; -695.942
756.097;  -23.914; -530.032; -564.943
756.358; -102.911; -725.032; -770.943
756.618;  -62.309; -705.031; -641.943
756.879;   24.894; -254.031; -349.944
757.139; -232.503;-1098.031;-1116.944
757.400;  -87.500; -538.031; -553.945
757.660;   -8.198; -365.031; -401.945
757.920;   66.505; -266.030; -228.945
758.181;   26.708; -468.030; -351.946
758.441; -142.690; -870.030; -809.946
758.701;    2.013; -308.030; -215.946
758.961;  -10.284; -220.030; -278.947
759.222;  -78.082; -574.029; -502.947
759.482; -151.579; -683.029; -723.948
759.742; -125.776; -706.029; -547.948
760.002;   47.827;  -83.029; -143.948
760.262;  120.229;   50.972;  182.051
760.522;  -42.768; -498.028; -574.949
760.782;  -87.465; -738.028; -612.949
761.042;  -25.563; -618.028; -573.950
761.302;  135.040;   55.972;  -18.950
761.562;  119.143; -164.027; -154.951
761.822;  148.246; -710.027; -551.951
762.082;  -85.252;-1104.027;-1093.951
762.342;  145.251; -328.027; -403.952
762.601;  141.454; -567.027; -506.952
762.861;  584.456; -281.026; -207.952
763.121;  787.659; -406.026; -411.953
763.381;13516.762; -499.026; -485.953
763.640;12338.864; -139.026; -307.954
763.900;  620.867; -242.026; -203.954
764.160;  178.970; -458.025; -491.954
764.419;  -18.827; -726.025; -782.955
764.679;  -88.525; -795.025; -726.955
764.939;   31.678; -124.025; -210.955
765.198; -101.719; -608.025; -563.956
765.458; -134.817; -710.024; -612.956
765.717; -120.614; -454.024; -590.957
765.976;  -53.111; -428.024; -411.957
766.236; -125.108; -475.024; -610.957
766.495;   95.994;  260.977;   73.042
766.755; -162.903;-1090.023; -987.958
767.014;   12.300; -594.023; -665.958
767.273;  -79.098; -373.023; -397.959
767.533;  -46.295; -228.023; -307.959
767.792;  -36.192; -151.022; -188.960
768.051;  -65.790; -228.022; -276.960
768.310; -108.687; -546.022; -650.960
768.569;   40.416; -161.022;    4.039
768.828;   -2.481; -285.022; -363.961
769.088; -208.779;-1050.021; -942.961
769.347; -128.676; -755.021; -599.962
769.606; -147.673; -876.021; -857.962
769.865; -237.271;-1016.021;-1033.963
770.124;   25.832; -411.021; -336.963
770.383;  -64.665; -778.020; -910.963
770.641;   16.838; -398.020; -400.964
770.900; -133.960; -953.020; -846.964
771.159;  -90.757; -851.020; -951.964
771.418;  -54.954; -917.020; -779.965
771.677;  241.548; -224.019; -293.965
771.936;  250.451; -794.019; -865.966
772.194; 4190.954; -465.019; -437.966
772.453;16300.156; -213.019; -391.966
772.712; 1217.159;  416.982;  329.033
772.970;  253.862;   32.982;   63.033
773.229;  196.565;  -22.018;  102.033
773.488; -181.933; -814.018; -770.968
773.746;  183.870;  296.982;  335.032
774.005;   45.173;  190.983;  -22.969
774.263;   83.175;  243.983;  177.031
774.522; -138.522; -422.017; -548.969
774.780; -102.319; -484.017; -417.970
775.039; -107.916; -551.017; -531.970
775.297;   18.386; -135.016; -351.970
775.555; -134.311; -489.016; -612.971
775.814; -201.908; -618.016; -570.971
776.072; -191.806; -749.016; -740.971
776.330; -161.903; -630.016; -520.972
776.589; -182.600; -703.015; -721.972
776.847; -219.898; -645.015; -624.973
777.105; -317.195;-1016.015;-1032.973
777.363; -136.492; -459.015; -454.973
777.621; -205.989; -660.015; -717.974
777.879;  -10.687;  -42.014;   32.026
778.138; -149.784; -554.014; -717.974
778.396; -137.281; -585.014; -526.975
778.654; -292.879;-1015.014; -970.975
778.912;  -58.976; -269.014; -371.976
779.170; -196.473; -880.013; -803.976
779.427; -249.170; -922.013; -897.976
779.685; -211.968; -880.013; -832.977
779.943; -124.665; -654.013; -593.977
780.201; -279.162; -964.012; -883.978
780.459; -174.060; -651.012; -610.978
780.717; -128.657; -440.012; -390.978
780.974; -143.654; -449.012; -490.979
781.232;  -67.952; -358.012; -338.979
781.490; -114.549; -551.011; -472.979
781.747; -123.746; -555.011; -476.980
782.005;  107.857;  462.989;  254.020
782.263; -268.041; -542.011;-1004.981
782.520;  -94.038; -326.011; -501.981
782.778; -294.035;-1013.010;-1051.981
783.035; -249.033; -962.010; -938.982
783.293;  -71.630; -248.010; -206.982
783.550;  -36.427; -134.010; -198.982
783.808; -217.624; -764.010; -776.983
784.065; -250.622; -745.009; -874.983
784.322;  -39.719;   25.991;  -86.984
784.580; -219.316; -915.009; -771.984
784.837; -131.114; -392.009; -466.984
785.094; -221.611; -783.009; -762.985
785.352;  -71.508; -304.008; -404.985
785.609; -181.906; -934.008; -839.985
785.866; -113.503; -345.008; -401.986
786.123; -129.400; -639.008; -583.986
786.380; -166.497; -665.008; -604.987
786.637;  -32.395; -225.007; -380.987
786.895;  -34.592; -456.007; -543.987
787.152;   -3.789; -135.007; -267.988
787.409;  -36.987; -123.007; -225.988
787.666; -101.684; -299.006; -378.988
787.923; -165.781; -616.006; -695.989
788.179; -146.978; -551.006; -584.989
788.436; -179.776; -585.006; -585.990
788.693;   -5.073;  -92.006;  -87.990
788.950;  322.730; -125.005; -112.990
789.207;  276.332; -381.005; -372.991
789.464;   -6.865; -161.005; -301.991
789.720;   28.738;  150.995;  110.009
789.977; -274.360;-1003.005; -671.992
790.234;   -8.357;   44.996;  -66.992
790.490; -263.954; -884.004;-1031.993
790.747;   29.249;  -85.004;   22.007
791.004;  -37.049; -426.004; -348.993
791.260;  -82.246; -430.004; -560.994
791.517; -160.943; -843.003; -788.994
791.773;  -77.341; -379.003; -342.994
792.030; -171.838; -596.003; -660.995
792.286; -147.935; -686.003; -636.995
792.543;   20.968;  -74.002; -159.995
792.799;  -51.130; -584.002; -382.996
793.055; -274.827;-1179.002;-1210.996
793.312; -148.524; -827.002; -816.997
793.568;  -48.822; -746.002; -599.997
793.824;   53.381; -226.001; -284.997
794.081;   66.684; -447.001; -508.998
794.337;  112.886; -664.001; -561.998
794.593; 2775.489; -319.001; -271.999
794.849;10407.892; -746.001; -772.999
795.105;  495.795; -270.000; -261.999
795.361;   75.197; -490.000; -457.000
795.617;  -91.700; -875.000; -945.000
795.873;  -88.500; -360.000; -407.000
796.129;  -32.300; -368.000; -306.000
796.385;   26.600; -124.000; -156.000
796.641;  169.900;  412.000;  550.000
796.897; -171.300; -666.000; -635.000
797.153;  201.400;  453.000;  357.000
797.409; -166.900; -785.000; -868.000
797.665; -127.400; -625.000; -732.000
797.921;  -97.200; -775.000; -762.000
798.176;  -72.700; -744.000; -747.000
798.432;  -70.700; -824.000; -596.000
798.688; -153.300;-1174.000;-1078.000
798.943;  178.500; -165.000; -147.000
799.199;  -22.500;-1005.000; -959.000
799.455;  460.800;  369.000;  316.000
799.710;  202.200; -813.000; -380.000
799.966;  473.700; -162.000; -160.000
800.221;  771.300; -638.000; -721.000
800.477;17653.400; -743.000; -710.000
800.732;12269.100; -773.000; -800.000
800.988; 1011.500;  205.000;  -19.000
801.243; 3413.600; -454.000; -344.000
801.498;11330.100; -814.000; -739.000
801.754;  673.500; -289.000; -163.000
802.009;  191.700; -257.000; -335.000
802.264;  -91.800; -967.000;-1033.000
802.520;  105.400;  222.000;   -3.000
802.775;  -30.200; -524.000; -359.000
803.030;  174.000;  395.000;  356.000
803.285; -206.700; -840.000; -903.000
803.540;  -63.600; -686.000; -699.000
803.795;  -71.200; -648.000; -583.000
804.051;  -24.700; -279.000; -346.000
804.306;  107.300;  168.000;  128.000
804.561;  294.200;  451.000;  362.000
804.816;  320.600;  714.000;  861.000
805.071;   88.900; -185.000; -280.000
805.325;  353.100; -257.000; -427.000
805.580; -158.400; -841.000; -877.000
805.835;   13.100; -204.000; -297.000
806.090;  -78.200; -760.000; -676.000
806.345;   -0.800; -344.000; -264.000
806.600;  -12.600; -549.000; -632.000
806.854;  -32.000; -408.000; -538.000
807.109;    3.600; -493.000; -577.000
807.364;   67.800; -407.000; -328.000
807.618;   52.100; -415.000; -381.000
807.873;  106.500; -470.000; -494.000
808.128;  179.100; -257.000; -518.000
808.382;  214.900; -224.000; -332.000
808.637;  140.400; -440.000; -511.000
808.891;  350.300; -257.000; -180.000
809.146;  199.600; -902.000; -794.000
809.400;  454.000; -848.000; -923.000
809.654;  549.200; -779.000; -551.000
809.909;  789.900; -841.000; -927.000
810.163;12823.400; -813.000; -651.000
810.418;25335.700; -940.000; -861.000
810.672; 1613.000; -685.000; -690.000
810.926; 1248.300; -993.000; -973.000
811.180; 2652.800; -439.000; -372.000
811.434;55209.800;  240.000;  135.000
811.689;17095.700; -231.000; -365.000
811.943;  947.000; -936.000; -953.000
812.197;  532.700; -893.000; -671.000
812.451;  215.800; -379.000; -514.000
812.705;   -4.000; -809.000; -619.000
812.959;  -63.200; -263.000; -388.000
813.213;   45.900; -283.000; -209.000
813.467;  166.900;  470.000;  253.000
813.721; -169.700; -764.000; -792.000
813.975; -164.000; -826.000; -877.000
814.229;  141.900;  430.000;  353.000
814.482;  -65.600; -517.000; -566.000
814.736; -153.500; -766.000; -744.000
814.990; -213.000; -779.000; -872.000
815.244;  -28.100; -228.000; -285.000
815.497; -147.300; -636.000; -601.000
815.751;   56.400; -141.000;   82.000
816.005; -126.300; -470.000; -586.000
816.258;  -54.500; -510.000; -363.000
816.512; -161.300; -693.000; -610.000
816.766;   65.700;  121.000;  157.000
817.019;  123.200;  148.000;  149.000
817.273; -187.800;-1000.000; -802.000
817.526;  -21.600; -206.000; -173.000
817.779;  -54.700;-1049.000; -960.000
818.033; -142.300; -693.000; -807.000
818.286; -158.800; -725.000; -792.000
818.540; -131.900; -403.000; -403.000
818.793;  -65.100; -402.000; -489.000
819.046; -181.700; -582.000; -520.000
819.299;  -14.700; -157.000; -166.000
819.553; -179.100; -552.000; -592.000
819.806; -281.800;-1016.000; -838.000
820.059;  -72.500; -334.000; -354.000
820.312;   90.900;  152.000;  185.000
820.565;   36.900;  110.000;  -27.000
820.818;  -48.100;  -59.000; -173.000
821.071; -299.800;-1041.000; -957.000
821.324; -142.200; -536.000; -540.000
821.577; -155.600; -457.000; -483.000
821.830;  -33.800; -270.000; -172.000
822.083; -208.300; -733.000; -288.000
822.336;  -11.200; -261.000; -167.000
822.589; -225.500; -805.000; -688.000
822.842; -223.700; -875.000; -770.000
823.094; -310.700;-1076.000;-1114.000
823.347; -199.300; -925.000; -729.000
823.600;  118.500;  402.000;  187.000
823.853;  -47.600; -311.000; -267.000
824.105; -115.600; -331.000; -575.000
824.358; -179.600; -617.000; -716.000
824.611;   94.700;  234.000;   40.000
824.863;  -76.600; -612.000; -591.000
825.116;   85.600;  -33.000;   27.000
825.368;  156.900; -366.000; -372.000
825.621;  217.000; -186.000; -240.000
825.873;  133.200; -704.000; -737.000
826.126; 1133.300; -669.000; -641.000
826.378;18715.200; -389.000; -505.000
826.630; 3315.300; -890.000; -898.000
826.883;   -1.900; -754.000; -693.000
827.135;   73.500; -279.000; -270.000
827.387; -199.600; -893.000; -839.000
827.639;    1.500;  -86.000;   32.000
827.892; -190.200; -742.000; -582.000
828.144; -230.300; -848.000; -804.000
828.396;   -3.200;  104.000;  -80.000
828.648; -147.700; -440.000; -333.000
828.900; -229.200; -702.000; -795.000
829.152; -184.600; -684.000; -683.000
829.404;  -84.300; -215.000; -267.000
829.656;  -16.100;  321.000;  214.000
829.908;   18.700;  393.000;  229.000
830.160; -324.500;-1064.000;-1047.000
830.412; -124.400; -481.000; -430.000
830.664; -191.400; -557.000; -665.000
830.916;  -77.800; -268.000; -206.000
831.167; -272.000;-1073.000; -951.000
831.419; -142.600; -623.000; -566.000
831.671; -240.600; -764.000; -809.000
831.923; -115.600; -311.000; -447.000
832.174;  -57.300; -273.000; -331.000
832.426; -144.400; -493.000; -582.000
832.678; -319.300;-1043.000;-1091.000
832.929; -259.100; -947.000; -935.000
833.181;  -90.800; -575.000; -677.000
833.432;  -40.900;  -59.000; -186.000
833.684;   28.900;  112.000;  -27.000
833.935; -162.700; -610.000; -566.000
834.187; -205.700; -829.000; -823.000
834.438;  -18.900;  -58.000;  -25.000
834.689;  -51.200; -255.000; -123.000
834.941;  -40.600; -343.000; -244.000
835.192; -149.700; -590.000; -533.000
835.443; -107.500; -419.000; -506.000
835.695;   35.600;  138.000;  -16.000
835.946; -133.100; -608.000; -378.000
836.197; -152.100; -599.000; -622.000
836.448; -112.300; -528.000; -395.000
836.699;  -33.000; -253.000; -341.000
836.950;   85.200;   72.000;    7.000
837.201; -236.200;-1003.000; -987.000
837.452;  -48.200; -356.000; -170.000
837.703; -178.300; -791.000; -737.000
837.954;   19.000; -205.000; -365.000
838.205; -158.900;-1029.000;-1008.000
838.456;  275.600; -196.000; -282.000
838.707;   50.600; -423.000; -519.000
838.958;   39.200; -634.000; -647.000
839.209;  551.000;   18.000;   40.000
839.460;  193.700; -439.000; -201.000
839.710;  352.000; -135.000; -297.000
839.961;  770.200;  730.000;  612.000
840.212;  564.900; -382.000; -497.000
840.462; 2078.500; -328.000; -277.000
840.713;30197.600; -571.000; -536.000
840.964; 9301.300;  -62.000; -143.000
841.214;  797.400; -384.000; -624.000
841.465;  975.600; -214.000; -141.000
841.715;  865.400; -417.000; -380.000
841.966; 1128.500; -746.000; -685.000
842.216;18815.500; -330.000; -431.000
842.466;54133.500; -169.000; -313.000
842.717; 2052.900; -964.000; -952.000
842.967;  542.600; -635.000; -641.000
843.217;  496.100;   20.000;   28.000
843.468;  176.200; -104.000; -132.000
843.718;  -38.900; -718.000; -726.000
843.968; -156.300; -837.000; -765.000
844.218;   80.400; -315.000; -262.000
844.469;  -70.500; -577.000; -561.000
844.719; -164.800; -537.000; -682.000
844.969; -147.700; -550.000; -580.000
845.219; -228.200; -814.000; -862.000
845.469;  -84.200; -392.000; -342.000
845.719; -212.800; -792.000; -884.000
845.969;   73.900;  119.000;  174.000
846.219; -214.600; -738.000; -720.000
846.469;  103.400;  464.000;  432.000
846.718;  -62.900; -115.000;   31.000
846.968; -214.800; -827.000; -827.000
847.218;  -22.700; -224.000; -371.000
847.468; -167.900; -586.000; -555.000
847.718; -254.100; -827.000; -798.000
847.967; -223.300; -826.000; -915.000
848.217; -122.800; -449.000; -569.000
848.467;  -62.300; -405.000; -376.000
848.716; -177.200; -708.000; -725.000
848.966;   48.900; -372.000; -358.000
849.215; -112.900; -428.000; -419.000
849.465; -151.200; -785.000; -615.000
849.714; -221.600;-1132.000;-1150.000
849.964;  -90.800; -551.000; -613.000
850.213;    0.900; -393.000; -355.000
850.463;  189.900;  137.000;  340.000
850.712;  -21.500; -542.000; -567.000
850.961;   57.800; -739.000; -678.000
851.211;  176.100; -513.000; -504.000
851.460;  244.900; -635.000; -650.000
851.709; 1000.200;  -25.000;   18.000
851.958;18533.200; -912.000; -750.000
852.208;17092.000; -859.000; -879.000
852.457;  675.800; -181.000;  -13.000
852.706;   62.300; -791.000; -823.000
852.955;   42.800; -507.000; -528.000
853.204; -110.900; -521.000; -461.000
853.453; -127.600; -418.000; -458.000
853.702; -193.100; -660.000; -750.000
853.951; -140.200; -532.000; -520.000
854.200; -170.900; -613.000; -562.000
854.449; -194.500; -695.000; -661.000
854.698; -135.000; -340.000; -279.000
854.946;  -73.400; -181.000; -284.000
855.195; -252.100; -843.000; -868.000
855.444; -130.500; -395.000; -420.000
855.693; -190.700; -345.000; -432.000
855.941; -139.100; -387.000; -516.000
856.190;  -33.900; -256.000; -382.000
856.439; -202.900; -652.000; -703.000
856.687;  -46.600;  -99.000;  -72.000
856.936; -152.200; -621.000; -323.000
857.184; -321.800;-1067.000;-1020.000
857.433; -116.900; -423.000; -512.000
857.681; -284.500; -989.000; -953.000
857.930;  -75.400; -282.000; -433.000
858.178; -290.900; -856.000; -929.000
858.427; -247.000; -802.000; -781.000
858.675; -180.700; -377.000; -544.000
858.923; -176.900; -527.000; -819.000
859.172; -311.300;-1094.000;-1070.000
859.420;  -94.500; -339.000; -239.000
859.668; -247.700; -624.000; -628.000
859.916;   16.200;  109.000;  115.000
860.164; -162.600; -699.000; -603.000
860.413;  510.300; -878.000; -696.000
860.661;  253.800; -709.000; -577.000
860.909; -108.500; -339.000; -325.000
861.157;  -92.900; -277.000; -444.000
861.405; -180.000; -534.000; -670.000
861.653;   78.400;  310.000;  310.000
861.901;  356.400; -543.000; -613.000
862.149;  -56.100; -801.000; -824.000
862.396; -118.500; -297.000; -187.000
862.644; -123.500; -368.000; -347.000
862.892;   35.300;   98.000;  138.000
863.140; -168.900; -549.000; -530.000
863.388; -258.600; -815.000; -759.000
863.635; -199.800; -642.000; -601.000
863.883;   80.100;  231.000;  190.000
864.131;  -84.300; -288.000; -357.000
864.378; -206.600; -675.000; -540.000
864.626; -144.700; -347.000; -415.000
864.873; -171.000; -556.000; -505.000
865.121; -230.200; -714.000; -799.000
865.368;   -1.700; -173.000;   75.000
865.616;   -8.900;  -33.000;  -40.000
865.863; -140.000; -462.000; -506.000
866.111; -195.800; -795.000; -824.000
866.358;   53.700; -426.000; -420.000
866.605; 4000.600;  -64.000; -804.000
866.853; 2969.000; -621.000; -537.000
867.100;  -99.500; -728.000; -775.000
867.347; -164.900; -672.000; -611.000
867.594; -144.500; -740.000; -714.000
867.841;  209.700;   97.000;   17.000
868.089; -232.700; -746.000; -698.000
868.336; -152.400; -477.000; -420.000
868.583; -216.200; -637.000; -741.000
868.830;  -36.100; -131.000; -170.000
869.077; -261.900; -859.000; -787.000
869.324; -180.800; -502.000; -458.000
869.571; -200.500; -398.000; -430.000
869.818; -152.000; -485.000; -439.000
870.065; -160.800; -439.000; -513.000
870.311; -150.900; -456.000; -542.000
870.558; -134.200; -332.000; -311.000
870.805; -103.000; -320.000; -384.000
871.052; -140.900; -494.000; -369.000
871.298;  -69.400; -204.000; -131.000
871.545;  -40.900; -151.000; -185.000
871.792; -119.000; -173.000; -222.000
872.038;  -56.800;   43.000; -126.000
872.285; -191.600; -496.000; -387.000
872.532; -133.400; -357.000; -387.000
872.778;  114.500;  556.000;  403.000
873.025; -104.500; -384.000; -359.000
873.271;  154.600;  501.000;  578.000
873.517;   12.600; -133.000; -209.000
873.764;  -15.300; -193.000;  -80.000
874.010;  -76.700; -143.000; -230.000
874.257;    0.400;  123.000;   90.000
874.503; -211.700; -579.000; -479.000
874.749;  -83.800;   31.000;  275.000
874.995;  -45.000;  -80.000;  -20.000
875.242; -147.900; -540.000; -478.000
875.488; -130.200; -414.000; -439.000
875.734;  -55.800; -106.000; -234.000
875.980;  436.800; -872.000;-1032.000
876.226;  537.600; -157.000; -255.000
876.472;   44.400;  343.000;  237.000
876.718;    6.200;  184.000;  158.000
876.964;   13.700;   56.000;   55.000
877.210; -215.500; -547.000; -677.000
877.456; -218.000; -630.000; -557.000
877.702; -281.300; -821.000; -832.000
877.948; -135.600; -377.000; -497.000
878.193;   97.100;  361.000;  255.000
878.439; -135.700; -487.000; -472.000
878.685; -112.600; -272.000; -343.000
878.931; -194.300; -618.000; -676.000
879.176;  -78.800; -201.000; -201.000
879.422; -281.700; -933.000; -820.000
879.668;  196.400;   10.000;   79.000
879.913;  289.400;   53.000;  137.000
880.159;  -54.300; -112.000;  -17.000
880.404;  -35.200; -152.000; -162.000
880.650;  -21.400;   91.000;  141.000
880.895; -240.000; -670.000; -710.000
881.141; -184.200; -454.000; -428.000
881.386; -233.300; -503.000; -658.000
881.631; -114.600; -311.000; -166.000
881.877;  -17.600;  112.000;  -13.000
882.122; -215.600; -684.000; -600.000
882.367;  -84.700; -136.000; -186.000
882.612;  -56.100;  -80.000; -176.000
882.858; -268.400; -877.000; -823.000
883.103;  -98.400; -297.000; -267.000
883.348; -242.500; -759.000; -852.000
883.593; -224.900; -677.000; -602.000
883.838;  -36.000; -311.000;  -24.000
884.083;  122.400;  353.000;  288.000
884.328; -133.200; -564.000; -545.000
884.573;  -55.300; -196.000; -143.000
884.818;  410.500; -694.000; -531.000
885.063;  238.700; -348.000; -315.000
885.308; -144.000; -475.000; -398.000
885.553;   76.200;  245.000;  325.000
885.797; -191.400; -545.000; -615.000
886.042;  -54.400;    8.000;   58.000
886.287;  -90.700; -253.000; -211.000
886.532;   -9.600;   26.000;  204.000
886.776; -112.900; -407.000; -525.000
887.021; -245.800; -621.000; -574.000
887.265; -244.000; -685.000; -689.000
887.510; -213.500; -557.000; -496.000
887.755; -100.500; -194.000; -164.000
887.999; -194.500; -552.000; -575.000
888.244;  -35.600;  -58.000;  161.000
888.488;   79.700;  371.000;  393.000
888.732; -176.400; -368.000; -520.000
888.977; -203.300; -622.000; -567.000
889.221; -253.200; -683.000; -659.000
889.465; -173.900; -422.000; -566.000
889.710;  -88.900;  -56.000; -299.000
889.954;   74.900;  579.000;  467.000
890.198; -237.900; -584.000; -707.000
890.442; -251.900; -716.000; -712.000
890.687; -278.700; -800.000; -753.000
890.931; -101.900; -273.000; -210.000
891.175; -231.100; -502.000; -500.000
891.419;  -74.600; -105.000; -110.000
891.663; -130.100; -239.000; -112.000
891.907; -261.000; -801.000; -545.000
892.151; -244.900; -920.000; -815.000
892.395; -160.700; -274.000; -387.000
892.638;   44.800;  408.000;  291.000
892.882; -288.400; -780.000; -867.000
893.126;  116.500;  758.000;  558.000
893.370; -119.500; -167.000; -168.000
893.614; -220.700; -714.000; -715.000
893.857; -133.400; -183.000; -197.000
894.101; -200.500; -527.000; -631.000
894.345;  -54.100;  300.000;  150.000
894.588;  103.700;  569.000;  380.000
894.832;  -76.100; -178.000;  -84.000
895.075;  -75.600;   15.000;  -92.000
895.319; -214.300; -552.000; -420.000
895.563; -162.000; -413.000; -353.000
895.806; -229.400; -628.000; -741.000
896.049;  -60.200; -576.000; -368.000
896.293;  272.600;  527.000;  405.000
896.536;  -95.400; -465.000; -468.000
896.779;  -48.300; -149.000;   -1.000
897.023; -225.200; -751.000; -714.000
897.266;   34.500;  325.000;  269.000
897.509; -296.300; -900.000; -901.000
897.752;   12.200;  149.000;  171.000
897.996; -319.800; -972.000; -864.000
898.239;  -20.100;  168.000;  102.000
898.482; -178.600; -431.000; -453.000
898.725;  -38.300;  101.000;   53.000
898.968; -251.100; -609.000; -744.000
899.211; -146.300; -513.000; -361.000
899.454; -172.600; -633.000; -539.000
899.697;  -64.200;   90.000;  -43.000
899.940; -262.900; -761.000; -757.000
900.182; -122.600; -335.000; -405.000
900.425; -153.300; -150.000; -298.000
900.668;   68.400;  491.000;  350.000
900.911; -120.500; -292.000; -345.000
901.154;  -42.600;  141.000;   -3.000
901.396; -208.900; -407.000; -412.000
901.639; -205.000; -430.000; -496.000
901.882; -310.200; -790.000; -809.000
902.124;  -81.900;  -29.000; -143.000
902.367; -136.800; -315.000; -361.000
902.609; -195.100; -476.000; -453.000
902.852;  -80.600; -108.000; -260.000
903.094; -212.400; -458.000; -337.000
903.337;  -35.500;  -26.000;   53.000
903.579; -154.800; -228.000; -441.000
903.821; -236.200; -597.000; -744.000
904.064;  -65.700;   85.000;  127.000
904.306; -106.600; -126.000; -166.000
904.548; -139.300; -152.000; -366.000
904.790; -122.700; -195.000; -340.000
905.033; -182.500; -625.000; -577.000
905.275; -180.800; -513.000; -524.000
905.517;  128.800;  468.000;  256.000
905.759; -127.500; -667.000; -761.000
906.001; -108.300; -322.000; -369.000
906.243;  -58.700; -162.000; -224.000
906.485;  280.500; -265.000; -207.000
906.727;  180.700; -499.000; -542.000
906.969;  -35.300;  -30.000; -135.000
907.211;  275.800; -316.000; -382.000
907.453;  483.600; -188.000; -237.000
907.695;   15.000; -158.000; -385.000
907.936;  193.900;  818.000;  706.000
908.178;  -11.100;   92.000; -135.000
908.420;  -49.600; -111.000; -162.000
908.662; -208.800; -633.000; -682.000
908.903;  -92.000; -208.000; -123.000
909.145;  -65.000; -240.000; -305.000
909.386;   85.800;  315.000;  280.000
909.628;  106.600;  363.000;  397.000
909.870;   94.900;   29.000;  264.000
910.111; -138.400; -809.000; -949.000
910.353;   53.700; -123.000; -161.000
910.594;    3.500; -574.000; -606.000
910.835;  196.900; -265.000; -326.000
911.077;  275.400; -503.000; -604.000
911.318;  510.500; -505.000; -471.000
911.559;  839.900; -577.000; -880.000
911.801; 2628.400; -284.000; -280.000
912.042;22867.800;  -50.000; -159.000
912.283;47141.000;  404.000;  371.000
912.524; 5553.900; -396.000; -457.000
912.765;  876.300; -193.000;   79.000
913.006;  484.500; -307.000; -338.000
913.247;  152.700; -270.000; -290.000
913.488;   51.700;  -43.000;   30.000
913.729; -115.000; -373.000; -373.000
913.970;  -76.500;  -96.000; -292.000
914.211;  -74.300; -160.000; -198.000
914.452;  -87.600; -118.000;  -11.000
914.693;  108.000;  510.000;  592.000
914.934;  103.600;  510.000;  440.000
915.175;  -53.100;   53.000;  -95.000
915.415;  -62.800; -137.000;   27.000
915.656; -106.500;  -28.000;  192.000
915.897; -115.800; -252.000;  -82.000
916.137;  -64.100;   74.000;   -9.000
916.378; -177.500; -573.000; -517.000
916.619; -122.600; -159.000;  -63.000
916.859;   19.400;  303.000;  330.000
917.100;  391.000; 1655.000; 1070.000
917.340;  173.700;  930.000;  728.000
917.581;  179.700;  965.000;  789.000
917.821;   -8.500; -171.000;  143.000
918.061;   32.300; -199.000;  -72.000
918.302;  -24.300; -152.000; -211.000
918.542;   22.600;  -22.000;    3.000
918.782;  128.600;  369.000;  377.000
919.023;  301.500;  360.000;  427.000
919.263; 2693.000; 8131.000;  202.000
919.503; 1733.400; -137.000;  -54.000
919.743; 1120.400;  390.000;  266.000
919.983;  425.300; -134.000;  -26.000
920.223;  177.700;  135.000;   14.000
920.463;  316.700;  631.000;  554.000
920.703;  249.200;   84.000;   39.000
920.943;  282.300; -110.000;   90.000
921.183;  395.300; -414.000; -405.000
921.423;  886.900;  307.000;  546.000
921.663; 1246.800; -174.000; -257.000
921.903; 2798.600;  237.000;  173.000
922.143;16827.500;  372.000;  389.000
922.383;56713.100;  158.000;  115.000
922.622;14483.300; -120.000;  -15.000
922.862; 1881.500;  796.000;  785.000
923.102;  759.900;  -51.000;   33.000
923.341;  340.600;   59.000;   74.000
923.581;  207.800;  450.000;  360.000
923.821;  103.900;  301.000;  398.000
924.060;   51.900;  351.000;  193.000
924.300;  -24.000;  -16.000; -128.000
924.539;   72.000;  584.000;  473.000
924.779;   96.200;  812.000;  597.000
925.018;   -3.500;  247.000;  353.000
925.257;   66.100;  595.000;  666.000
925.497;  -22.700;  447.000;  412.000
925.736;  -62.500;  -35.000;  102.000
925.975;   78.700;  687.000;  669.000
926.214;  128.200;  907.000;  850.000
926.454;  115.200;  706.000;  757.000
926.693;    2.900;  419.000;  543.000
926.932;  157.700; 1021.000;  825.000
927.171;  238.100; 1107.000; 1044.000
927.410;  222.000; 1144.000;  967.000
927.649;  110.700;  924.000;  742.000
927.888;   60.100;  590.000;  564.000
928.127;   66.000;  680.000;  678.000
928.366;  126.600;  842.000;  826.000
928.605;  172.700;  831.000;  737.000
928.844;  516.100; 1451.000; 1393.000
929.083; 1135.800;  770.000;  613.000
929.321;  519.100; 1335.000; 1359.000
929.560;  235.200; 1158.000; 1122.000
929.799;   10.500;  574.000;  475.000
930.038;  244.300; 1025.000; 1394.000
930.276;   -7.500;  334.000;  397.000
930.515;   62.500;  827.000;  681.000
930.753;   30.700;  614.000;  589.000
930.992;   55.200;  664.000;  717.000
931.230;   53.800;  847.000;  847.000
931.469;  460.500; 2162.000;  892.000
931.707;  227.100;  840.000;  751.000
931.946;  223.000; 1278.000; 1344.000
932.184;  239.300; 1437.000; 1175.000
932.423;  173.100; 1265.000;  963.000
932.661;  247.900; 1296.000; 1428.000
932.899;  150.800;  987.000;  821.000
933.137;   96.600;  754.000;  564.000
933.376;  377.400; 1664.000; 1335.000
933.614;  360.500; 1759.000; 1196.000
933.852;  235.800; 1357.000; 1171.000
934.090;  338.100; 1722.000; 1747.000
934.328;  278.400; 1252.000; 1457.000
934.566;  267.800; 1431.000; 1110.000
934.804;  320.900; 1263.000; 1309.000
935.042;  902.300; 1861.000; 1850.000
935.280; 3342.400; 2088.000; 2063.000
935.518; 2529.500; 2113.000; 2007.000
935.756;  659.000; 2481.000; 2316.000
935.994;  401.400; 1808.000; 1751.000
936.231;  740.900; 2890.000; 2950.000
936.469;  480.300; 2367.000; 2378.000
936.707;  407.200; 2220.000; 2167.000
936.945;  567.700; 2825.000; 2882.000
937.182;  515.000; 2679.000; 2741.000
937.420;  717.400; 3602.000; 3031.000
937.657;  907.800; 3365.000; 3478.000
937.895;  784.300; 3331.000; 3488.000
938.133;  719.300; 3540.000; 3528.000
938.370;  739.100; 3896.000; 4191.000
938.607;  870.300; 4488.000; 4205.000
938.845; 1209.900; 5587.000; 5549.000
939.082; 1064.600; 5387.000; 5177.000
939.320; 1184.900; 5799.000; 5728.000
939.557; 1387.300; 6549.000; 6491.000
939.794; 1580.200; 7285.000; 7097.000
940.031; 1933.200; 8421.000; 8368.000
940.269; 2272.100; 9552.000; 9107.000
940.506; 2379.800;10901.000;10507.000

