
Integration time [ms]: 200.000
Averaging Nr. [scans]: 10
Smoothing Nr. [pixels]: 0
Data measured with spectrometer [name]: 2101013U2
Wave   ;Sample   ;Dark     ;Reference
[nm]   ;[counts] ;[counts] ;[counts] 

394.013;  109.095; -450.257; -315.536
394.305;  463.992; -461.258; -419.536
394.596; 1902.040; -676.269; -527.514
394.887; 4515.565; -796.268; -654.518
395.178; 1812.310;  145.736;   11.476
395.470;  154.926; -210.263; -356.526
395.761;  424.087;  305.734;  394.479
396.052;  744.057; -545.284; -306.489
396.343;  702.459; -557.276; -454.503
396.634;  204.313; -200.279; -290.497
396.926;  188.961; -618.268; -565.517
397.217;  216.366;   11.725;  -17.504
397.508;   69.989; -366.273; -154.507
397.799;   63.113; -555.279; -571.497
398.090;  -27.895; -973.280; -902.495
398.381;  219.747;   11.708;  -11.473
398.672;  -22.451; -585.292; -742.473
398.963;  101.422; -348.279; -373.498
399.254;  200.662;   54.709; -209.475
399.545;  -83.418;-1017.266; -883.520
399.836;   99.043; -407.277; -343.501
400.127;   77.512; -205.295; -209.468
400.418;  108.781; -423.274; -392.506
400.709;  101.986; -359.281; -333.493
401.000;   86.668; -268.291; -309.476
401.290;  234.619;  225.698;  115.545
401.581;  128.832; -166.286; -228.485
401.872;   45.871; -542.298; -486.462
402.163;  104.401; -313.296; -252.467
402.454;  173.363; -123.291; -163.475
402.744;  110.988; -844.297; -813.465
403.035;  744.934; -226.293;  -86.471
403.326;  922.253; -366.292; -384.474
403.617;  654.363;  204.701;  165.539
403.907;  411.865; -593.283; -679.490
404.198; 3972.652; -545.307; -599.446
404.489;10251.873; -618.283; -588.491
404.779; 3561.824; -618.302; -660.456
405.070;  410.193;  -67.304; -174.451
405.360;  581.237; -259.293; -238.472
405.651;  654.541;  125.699;   98.542
405.942;  412.725;  209.714;  127.516
406.232;  502.246; -432.285; -413.487
406.523;  872.827;  641.706;  758.530
406.813;  182.928; -579.286; -644.484
407.104;  655.745;  261.708;  144.527
407.394;  286.565; -604.299; -591.462
407.685;  325.245;  336.715;  222.513
407.975;  127.970; -400.283; -382.490
408.265;  195.884; -134.289; -190.478
408.556;  128.658; -472.291; -459.475
408.846;  347.528;  474.706;  429.530
409.137;  187.096;   -1.288; -216.480
409.427;   96.346; -193.285; -271.487
409.717;   38.694; -776.273; -692.508
410.007;  248.836;    4.715; -170.486
410.298;  181.116; -360.295; -342.469
410.588;  116.042; -495.285; -510.486
410.878;    8.913; -792.287; -873.482
411.168;  219.475; -481.298; -478.463
411.459;  189.563; -295.283; -242.489
411.749;   95.456; -609.292; -507.474
412.039;   81.894; -755.289; -386.480
412.329;  366.633;   40.722;  132.501
412.619;  339.528;  -62.286; -148.485
412.909;  721.788;  639.711;  594.521
413.199;  593.106; -130.280; -251.495
413.490;  735.774;  521.710;  352.523
413.780;  186.511;-1013.279; -913.496
414.070;  590.461;  -46.276;  235.497
414.360;  618.427; -729.278; -666.498
414.650;  652.607; -726.288; -688.482
414.940;  876.810; -538.280; -441.496
415.230; 1544.902;   50.712;   74.519
415.520;10416.439;  155.730;   66.486
415.809;39563.086; -305.281; -125.493
416.099;31360.247; -388.277; -229.501
416.389; 8533.878;  435.726;  236.494
416.679; 5174.631;   91.738;   85.473
416.969;  865.719; -527.287; -503.483
417.259; 1019.214;  341.721;  171.503
417.549; 1216.084;  522.718;  318.508
417.838; 2693.364; -205.268; -147.518
418.128; 8916.782;  650.710;  492.522
418.418; 7466.903; -491.272; -579.509
418.708; 5110.178;    9.726;  -48.506
418.997;18689.572; -474.275; -480.505
419.287;19695.288; -733.273; -790.507
419.577;18792.161; -160.283; -123.489
419.866;59170.644; -588.277; -498.501
420.156;61123.433; -242.270;  -55.513
420.446;11818.820; -112.263;  -26.526
420.735; 1453.525; -376.271; -446.512
421.025; 1599.126; 1830.722;  315.502
421.314; 1197.422; -203.271; -226.512
421.604; 2470.453;   89.732;  233.484
421.893; 1382.216; -705.271; -602.511
422.183;  371.621; -487.263; -461.526
422.472;  651.019;  -36.271; -107.511
422.762;  713.390; -416.266; -379.521
423.051;  391.462; -916.276; -916.503
423.341;  522.991; -491.273; -439.507
423.630;  705.499; -121.265;   15.477
423.919;  701.871;   58.725;   49.495
424.209;  673.329;  -31.263;   56.473
424.498;  802.560;   68.732;  161.483
424.787; 1755.770; -535.267; -601.518
425.077; 5379.397;   34.735;   29.478
425.366; 7470.737; -734.262; -744.528
425.655;15858.592;  639.727;  259.493
425.945;33356.826; -313.247; -268.554
426.234;19332.070;  117.741;  300.467
426.523; 8178.878;  -86.259; -350.534
426.812;11519.684;  107.734;  159.480
427.101;16559.248; -127.269; -323.515
427.390;20928.839;  -55.270;  -86.514
427.680; 4830.106; -624.257; -411.538
427.969;  839.522; -330.255; -301.540
428.258;  535.994; -385.257; -477.536
428.547;  953.709;  449.728;  397.490
428.836; 2046.046; -421.253; -398.543
429.125; 2933.880; -199.259;  -72.534
429.414; 1344.679; -330.251; -294.548
429.703; 5142.879; -231.251; -213.548
429.992;14974.184; -938.250; -828.549
430.281;10092.710; -397.264; -331.524
430.570; 1078.265;  -21.252;   32.454
430.859; 1062.077;  279.741;  352.466
431.148;  879.720;  636.752;  631.446
431.437;  603.365;  391.748;  367.454
431.725;  297.096; -544.257; -481.536
432.014;  204.757; -845.253; -756.545
432.303;  672.231; -149.239; -105.569
432.592;  998.820; -460.263; -178.525
432.881; 1610.221; -601.248; -437.554
433.169; 9917.924; -343.255;  -61.540
433.458;19941.780;  445.765;  540.424
433.747; 8673.245; -397.261; -289.529
434.036; 1527.695; -275.242; -280.564
434.324; 3390.603; -395.249; -379.551
434.613; 5833.386;   40.757;  159.437
434.902; 2064.216;  333.760;  439.433
435.190; 1015.529;   75.761;  295.431
435.479;  578.459;  -52.245;   83.441
435.767;  201.671; -411.244; -427.561
436.056;  354.789; -340.242; -294.563
436.345;  594.620; -372.240; -223.568
436.633;  695.696;   60.750;  383.450
436.922;  497.823;  208.760;  414.432
437.210; 1011.866; -194.236;    1.426
437.499; 3211.277; -583.235; -432.576
437.787; 3622.965; -339.236;  -10.574
438.075;  969.437;   56.761;  162.430
438.364; 1291.341;  -44.238;  250.429
438.652;  781.094; -286.226; -138.592
438.941;  246.342;    3.770;  269.415
439.229;   28.261; -665.252; -466.545
439.517;   99.990; -160.234;  -85.577
439.806;  -13.183; -501.225; -290.595
440.094;  403.101;  377.766;  650.421
440.382;  281.906; -653.233; -302.580
440.670;  350.877; -361.235; -285.576
440.959;   61.943; -347.223; -170.599
441.247;  139.658; -151.229; -109.587
441.535;  184.087; -266.235;   31.423
441.823;   28.997; -497.234; -305.578
442.111;  368.464;  173.771;  327.412
442.400;  887.458; -628.245; -335.559
442.688; 2323.400; -111.234; -620.579
442.976; 1682.871; -786.213; -450.617
443.264;  193.027; -324.224; -364.597
443.552;  185.996; -258.226;   51.408
443.840;  341.885;  602.765;  876.423
444.128;  224.605;  265.767;  269.420
444.416;  -22.632; -694.228; -312.588
444.704;   45.786; -465.219;  -92.605
444.992;  136.800;   -0.226;  240.407
445.280;  103.743; -517.230;  -94.585
445.568;   71.476; -694.212; -396.618
445.856;  576.463; -174.221;  357.398
446.143; 1243.681;  -54.220;   -7.604
446.431; 1098.774;  -25.228;  625.411
446.719;  453.814;  489.783;  675.391
447.007;  359.734;  481.769;  705.416
447.295;  352.538;  597.777;  871.402
447.583;  158.255; -464.229;  -34.587
447.870;  246.458; -434.221; -202.601
448.158;  716.341; -104.230;  129.415
448.446;  498.482; -800.219; -338.604
448.733;  292.729;   13.776;  269.403
449.021;  423.576;   60.788;  341.382
449.309;  320.598; -296.210;  208.379
449.596;  367.409;  128.783;   59.392
449.884;  243.949; -571.222; -325.600
450.172;  181.281; -756.227; -406.590
450.459;  763.447;  645.786;  780.387
450.747; 3690.507; -411.218; -147.608
451.034;11615.875;  493.772;  889.411
451.322; 9779.851; -413.214; -170.614
451.609;  925.631;  292.777;  508.403
451.897;  907.490; -550.203; -183.634
452.184; 2803.839; -622.223; -400.598
452.472; 2757.029;   97.792;  269.375
452.759;  667.383;  512.781;  864.395
453.047;  194.072; -407.212; -125.617
453.334;  135.495; -732.219; -216.606
453.621;  168.655; -438.214; -161.615
453.909;  202.678;   13.796;  384.368
454.196;  185.945; -299.199; -123.641
454.483;  377.609;  317.798;  540.364
454.771;  231.134; -215.208;  196.374
455.058;  100.938; -316.207;  102.374
455.345;  247.625;   71.807;  344.347
455.632;  196.643; -128.207;  235.373
455.919;  120.778;  -82.196;  182.354
456.207; -119.149; -774.198; -450.642
456.494;  -35.773; -475.200;  -66.639
456.781;   35.103; -399.202; -198.635
457.068;   94.153; -253.206;  -29.628
457.355;  -19.946; -698.206; -401.629
457.642;    6.662; -552.205; -290.630
457.929;   30.412; -778.194; -417.651
458.216;  117.073; -575.212; -354.617
458.503;  387.719; -173.193;  -19.652
458.790;  317.230; -864.208; -630.625
459.077;  434.010;  -77.202;  110.364
459.364; 1267.702; -350.195; -210.649
459.651; 2654.250;  -46.206;  220.372
459.938; 1229.616; -864.209; -665.623
460.225;  321.415;  132.799;  276.363
460.512;  -92.226; -836.197; -688.645
460.799;  197.305;  -32.218;  320.392
461.086;  136.633; -370.200; -251.640
461.372;  101.252; -509.198; -279.642
461.659;  194.279; -165.196;  108.354
461.946;  134.517; -445.193;  -54.651
462.233;  453.830;  842.800;  888.361
462.519;  538.625; -814.201; -464.639
462.806; 1515.674; -768.197; -497.645
463.093; 1412.647; -445.191;  -66.656
463.380;  -60.692; -920.186; -824.664
463.666;   90.677; -259.197;  -18.646
463.953;  165.994; -406.195; -243.648
464.239;  323.294; -173.195;  -77.648
464.526;  681.710;  413.806;  743.350
464.813;  522.564; -565.190; -304.658
465.099;  623.819;  606.807;  607.348
465.386;  626.624;  903.807;  921.348
465.672;   28.374; -694.197; -522.645
465.959;   69.091; -598.188; -520.662
466.245;   56.924; -468.193; -359.652
466.532;  207.391; -109.195;   63.352
466.818;   96.307; -357.186; -216.664
467.104;    1.966; -488.182; -415.672
467.391;  -21.133; -628.189; -459.658
467.677;   67.213; -289.186;    9.335
467.964;   -4.623; -682.189; -471.660
468.250;  108.717; -331.186; -160.665
468.536;  159.269;   90.811;  180.341
468.822;  -74.066; -821.184; -574.668
469.109;  286.084;  351.827;  471.311
469.395;  399.539;  729.808;  787.346
469.681;  330.973;   46.811;  156.341
469.967; 1954.680; -699.188; -382.660
470.254; 4009.692; -494.188; -306.662
470.540; 2696.877; -601.196; -476.646
470.826;  371.982; -488.181; -397.675
471.112;  517.239;  288.816;  113.331
471.398;  206.046; -253.183;  -58.670
471.684;   77.124; -626.177; -447.680
471.970;  -53.712; -918.180; -981.675
472.256;   44.437; -521.192; -441.654
472.542;   13.400; -499.171; -434.691
472.828;   10.360; -743.182; -607.672
473.114;   92.964; -380.166; -283.700
473.400;   33.748; -504.175; -293.684
473.686;   43.173; -452.166; -400.701
473.972;  134.569; -230.174; -131.687
474.258; -107.016; -925.173; -843.689
474.544;  315.212; -183.178;   -2.679
474.830;  508.150;  -65.175;   45.316
475.116;  752.767; -123.190; -196.658
475.401;  976.191; -558.180; -467.676
475.687;  300.490; -725.180; -718.676
475.973;   -2.728; -673.181; -770.673
476.259;  457.054;  736.825;  764.315
476.544;  549.935; -539.176; -437.682
476.830; 1170.694; -398.172; -322.690
477.116; 1072.434; -430.177; -336.682
477.401;  309.291;  346.820;  358.324
477.687;   -0.152; -289.175; -405.684
477.973;   89.477;   21.819;   28.326
478.258;  -44.997; -448.163; -348.706
478.544;  155.624;   21.815;   61.334
478.829;  -82.892; -818.171; -738.692
479.115;  -93.806; -749.172; -651.690
479.401;  -31.137; -444.174; -449.686
479.686;   76.589; -253.180;  -74.676
479.972;  -94.981; -886.178; -776.680
480.257;   76.066; -258.166;  -65.700
480.542;   26.314; -614.170; -469.693
480.828;  513.046; 1288.824; 1392.317
481.113;  -55.558; -464.176; -426.683
481.399;   -3.762; -236.161; -202.711
481.684; -120.835; -620.166; -462.700
481.969;   46.258; -158.159;  -73.713
482.255;  -11.470; -439.169; -285.695
482.540;    7.220; -569.178; -441.680
482.825;   16.900; -395.187; -404.663
483.110;  185.034;  -85.169; -105.696
483.396;  238.289; -840.157; -652.718
483.681;  858.670;  543.826;  730.313
483.966;  203.249; -696.160; -700.712
484.251;   25.568; -404.174; -310.687
484.536;   13.481; -356.165; -378.703
484.822;   48.172; -205.173; -218.687
485.107;  -58.955; -599.152; -502.726
485.392;  282.889;  662.836;  541.296
485.677;  172.649;  354.832;  163.302
485.962;  215.086;  160.843;  270.283
486.247;  165.315;  -14.162;   -8.707
486.532;  100.468; -178.166; -325.701
486.817;  338.830;  381.839;  431.291
487.102;  208.320; -453.154; -514.722
487.387;  961.592; -637.156; -652.718
487.672; 1671.397; -154.164;  -38.705
487.957; 1191.440; -394.160; -286.711
488.241;  335.969; -290.150; -314.729
488.526; 1108.747; -280.152; -148.726
488.811; 1728.422; -881.177; -818.680
489.096; 1322.524; -666.154; -702.723
489.381;  828.442;    3.847;  162.275
489.666;  541.037; -428.161; -510.710
489.950;  351.728;  558.846;  627.277
490.235;  -44.538; -480.151; -458.728
490.520;  -73.464; -756.161; -723.710
490.804; -133.205; -827.156; -736.719
491.089;   -9.508; -469.149; -299.732
491.374;   59.795; -132.164;  -75.704
491.658;  -17.991; -817.147; -717.735
491.943;  222.753; -657.152; -609.727
492.227;  380.414; -178.155;  -38.721
492.512;   98.285; -294.157; -341.717
492.797; -125.616; -713.149; -716.731
493.081;  -90.187; -588.147; -598.735
493.366;  -75.862; -751.161; -635.711
493.650;  376.891;  831.859;  917.254
493.935;   37.208; -648.147; -447.734
494.219;  -84.328; -778.142; -687.743
494.503;  -59.324; -585.150; -487.730
494.788;   90.673;   46.842;   74.285
495.072;  212.771;  184.850;  434.271
495.356;  227.597; -463.148; -343.733
495.641;  646.723; -812.146; -736.736
495.925;  646.702; -976.156; -903.719
496.209;   86.392; -599.149; -451.732
496.494;  -93.327; -763.142; -544.744
496.778;   19.220; -364.154; -360.722
497.062; -126.399; -819.156; -627.719
497.346;  -77.557; -869.160; -640.711
497.631;  321.102;  580.852;  560.266
497.915;  161.738;  -64.145;  175.261
498.199;  108.989; -341.157; -277.718
498.483;   94.045; -562.152; -508.725
498.767;  357.373;  301.850;  300.271
499.051;  300.988; -126.149; -100.732
499.335;   44.086; -693.149; -739.731
499.619;  -59.061; -381.129; -423.767
499.903;   72.312; -272.155;  -65.721
500.187;   47.931; -588.153; -316.724
500.471;    4.652; -796.152; -595.727
500.755;  202.737;   62.839;  -96.710
501.039;   45.713; -270.155; -357.721
501.323;  201.894;  -21.141;  264.254
501.607;   64.904; -447.163; -503.706
501.891;   -8.609; -607.156; -512.718
502.174;  -78.545; -726.144; -585.741
502.458;  186.558;   89.849;  370.273
502.742;   61.828; -180.138; -191.751
503.026;  159.708; -412.147; -254.734
503.310;  258.756; -437.159; -375.713
503.593;  191.410; -464.147; -325.735
503.877;  203.987; -232.133; -156.760
504.161;  302.934;    2.847;  -50.724
504.444;  140.376; -841.158; -710.716
504.728;  672.394; -487.164; -522.704
505.012; 1090.468; -257.150;  -76.729
505.295;  826.538; -417.161; -212.711
505.579;  760.901; -256.156; -496.719
505.862; 1144.733; -555.145; -333.738
506.146; 1034.260; -681.159; -758.714
506.429;  673.960;  568.841;  461.286
506.713;   71.164; -732.151; -667.728
506.996;  558.619;   90.846;  295.278
507.280;  496.187; -633.165; -474.703
507.563;  387.410; -469.155; -261.721
507.847;  145.332; -423.153; -112.724
508.130;  126.139; -665.161; -456.711
508.413;  161.960; -758.167; -577.700
508.697;  375.060; -151.167;   12.300
508.980;  224.534; -422.153; -312.724
509.263;   -4.995; -466.155; -450.720
509.547;   87.268; -124.150;   82.271
509.830;   74.742; -172.160;  140.289
510.113;  187.001;  128.844;  298.281
510.396;   63.842; -530.152; -300.725
510.680;  255.135; -818.145; -812.738
510.963; 1074.326;  184.846;  180.277
511.246;  926.479; -493.150; -357.730
511.529;  457.442; -482.145;  -83.739
511.812;  578.982; -250.134;   10.241
512.095;  356.360; -740.151; -396.728
512.378;  144.516; -317.147; -245.736
512.661;   39.040; -703.137; -623.753
512.944;   25.175; -750.142; -637.744
513.227;  123.836; -170.137; -171.752
513.510;  -14.645; -479.144; -671.741
513.793;   85.400; -485.140; -435.747
514.076;  250.769;  -43.127;  -39.771
514.359;  220.293; -294.149; -135.732
514.642;  124.180; -442.142; -567.744
514.925; 1195.598;  581.860;  561.253
515.208; 1410.477; -498.134; -443.758
515.491; 1006.897; -276.133; -182.761
515.773;  550.060; -410.143; -337.742
516.056; 3167.249;  249.864;  409.246
516.339; 4075.555; -754.136; -652.755
516.622; 3039.776; -518.150; -488.730
516.904; 2096.270;  882.857;  975.257
517.187;  874.234; -730.138; -523.752
517.470;  578.868; -568.143; -510.743
517.752;  622.259; -624.136; -470.756
518.035;  476.915; -708.139; -725.749
518.318;  543.255; -799.136; -744.755
518.600; 3458.302; -300.132; -325.762
518.883; 4723.579;  310.858;   88.256
519.165; 2341.823; -585.138; -426.751
519.448;  644.802;  -61.132;  -19.762
519.730;  299.880; -573.126; -415.773
520.013;  544.992;  588.867;  664.240
520.295; 1368.785;  -94.134;  -15.759
520.578; 2996.821; -335.131; -305.764
520.860; 3297.402; -254.132;   56.238
521.143; 1709.562; -763.135; -584.756
521.425;  733.899; -251.125; -279.775
521.707; 1039.070; -622.127; -380.771
521.990; 2655.970; -199.127;  167.229
522.272; 2895.302; -116.140;   -4.748
522.554; 1452.561; -237.143; -157.742
522.836;  613.982;  -24.134;   99.241
523.119;  302.706; -496.148; -189.734
523.401;  233.331; -448.130; -314.766
523.683;  104.540; -865.137; -693.753
523.965;  473.631;  408.862;  260.248
524.247;  422.030;   54.878;  170.220
524.529;  295.085; -451.134; -367.759
524.812;  557.834;   -3.130;  191.234
525.094; 1235.430; -773.138; -631.751
525.376; 1915.312; -143.124;   78.223
525.658; 1207.851; -441.136; -339.754
525.940;    6.916; -805.131; -671.764
526.222;   83.456; -188.136;  -88.755
526.504;  219.413; -190.131;   32.237
526.786;  264.988; -960.133; -647.760
527.068;  467.120; -124.123;  -67.778
527.349;  188.746; -865.137; -774.754
527.631;  205.802; -137.132;   22.238
527.913;  231.069; -664.127; -450.771
528.195;  182.589; -761.125; -639.774
528.477;  373.777;  -93.134;  -30.758
528.759;  164.734; -648.130; -522.766
529.040;   61.019; -569.123; -293.778
529.322;   68.193; -235.125;  -10.774
529.604;  213.037;  -47.130;   93.233
529.886;  198.880; -546.126; -302.773
530.167;  229.825;  232.870;  192.235
530.449;  104.815;    1.853;   63.265
530.731;   12.229; -572.122; -459.779
531.012;   89.859; -513.120; -216.784
531.294;  133.416; -118.116;  -43.792
531.575;  270.199;  290.875;  538.225
531.857;   44.870; -548.135; -266.757
532.138;  131.691; -113.141;   40.254
532.420;  328.464;  294.865;  403.244
532.701;  327.892; -722.133; -751.760
532.983;  611.296;  232.867;  182.239
533.264;  209.977; -243.126;  175.228
533.546;  -39.644; -491.136; -508.755
533.827;  119.787;  173.867;   -1.759
534.109;   64.570; -352.135;  -80.757
534.390;  100.508; -725.132; -582.762
534.671;  395.364; -270.135;  -82.756
534.953;  166.823; -751.123; -611.779
535.234;   24.794; -426.117; -255.789
535.515; -132.729; -891.119; -735.785
535.796;  -36.837; -431.128; -193.770
536.078; -229.788;-1050.124; -904.777
536.359;   39.424;  -22.123;    3.221
536.640;   -9.709; -480.125; -197.774
536.921;  286.345;  225.871;  143.232
537.202;  559.225;  -87.138;  -16.751
537.483;  688.220;  251.869;  377.236
537.764;  274.625;   17.870;   98.235
538.045;  -44.024; -543.134; -371.758
538.326;  -47.353; -596.129; -447.768
538.607;   -7.129; -686.127; -476.771
538.888;  285.346;   98.879;    5.218
539.169;  278.838; -704.122; -535.781
539.450;  532.643;  236.871;   16.233
539.731;  331.852; -361.121; -182.783
540.012;  221.259;  199.880;  412.216
540.293;  146.004;   82.876;  158.224
540.574;  -15.053; -895.113; -717.796
540.855;  763.350;  435.879;  377.218
541.136;  801.434;   47.878;  139.220
541.416;  460.735; -161.130; -220.766
541.697;  303.514; -274.131; -170.763
541.978; 1525.767; -270.135; -315.757
542.259; 1856.771; -211.127; -236.771
542.539;  924.407; -191.116; -186.790
542.820;  374.999;  461.875;  480.225
543.101;  235.837;  -52.145;  -77.738
543.381;  -15.730; -638.127; -591.771
543.662;  465.867;  159.873; -254.771
543.942;  791.964; -751.127; -830.770
544.223; 1568.437;  193.878;  161.219
544.504;  954.312; -275.124; -182.777
544.784;  890.680; -592.126; -408.773
545.065; 2387.213;  104.884; -254.791
545.345; 2856.672;  227.881;   14.215
545.626; 1960.446;  -14.113; -108.796
545.906; 1266.324;   77.869;   98.235
546.186;  551.486;   92.874;  -95.773
546.467;  301.815;   99.877;  -95.778
546.747;  466.607;  264.884;  327.210
547.027;  561.209;   91.876;  111.223
547.308;  476.463; -376.127; -530.770
547.588;  615.448;  299.871;  371.232
547.868;  353.726;  458.870;  588.235
548.149;  404.724;  609.885;  593.207
548.429;  182.668; -347.127; -299.771
548.709;  254.459; -645.120; -461.784
548.989;  705.286;   84.882;   88.213
549.269; 3165.900;   10.868;  139.239
549.550; 6833.321;  215.877;  117.222
549.830; 6098.972; -758.111; -556.799
550.110; 1303.583; -468.110; -320.801
550.390; 1244.829; -128.122;  -56.779
550.670; 1538.639; -868.114; -783.795
550.950; 1159.249; -509.121; -471.782
551.230;  398.244;  549.879;  460.218
551.510;  -35.953; -381.121; -326.782
551.790;   78.094; -173.109; -127.803
552.070;  511.615;  940.877; 1181.223
552.350;  575.877; -492.119; -377.786
552.630;  852.040;   -2.121;   77.219
552.909;  565.114;  181.884;   73.209
553.189;  333.909;  -49.132;   33.237
553.469;  244.277; -703.119; -514.786
553.749;  217.473; -469.127; -357.772
554.029;  263.001;   33.883;  -24.790
554.308;  218.730; -154.115;  -37.794
554.588;  107.461; -196.128; -204.770
554.868;   82.950; -366.121;  -47.782
555.147;  206.026; -114.115;  -46.793
555.427;  937.517; -260.116; -250.792
555.707; 5613.923; -284.115; -200.793
555.986; 6495.277; -719.111; -538.800
556.266; 3635.605;   23.884;   72.210
556.546;  122.048; -888.121; -675.782
556.825;  329.336; -657.114; -556.794
557.105; 2563.058; -125.128;   17.230
557.384; 2980.612;  122.884;  187.209
557.664; 1134.916; -717.116; -508.792
557.943;  120.449; -557.121; -411.782
558.222;  219.990; -345.118; -344.788
558.502;  416.828; -116.115;  -76.793
558.781;  735.721;  194.885;  499.208
559.061;  564.190; -232.118; -227.788
559.340;  457.597;  302.883;  353.211
559.619; 1022.405;   93.884;  148.210
559.899; 1419.300; -239.117; -266.789
560.178; 1327.127; -778.115; -593.793
560.457; 4575.202; -623.117; -562.790
560.736; 6088.478; -472.111; -482.800
561.015; 4185.855; -500.128; -502.769
561.295;  624.423;  180.893;  215.193
561.574;  519.723;  119.885;  116.207
561.853;  786.200;  274.891;  303.197
562.132;  723.031;  -45.114;  182.206
562.411;  669.041;  396.879;  553.219
562.690;  155.621; -592.115; -458.792
562.969;  272.156;  472.888;  630.203
563.248;  969.538; 2966.878; 2487.219
563.527;  368.577; -290.111; -408.800
563.806;  533.868; -650.127; -521.771
564.085;  554.645; -297.105; -206.810
564.364;  318.004; -594.117; -405.790
564.643;  698.242; -276.121; -223.781
564.922; 2711.292;  221.890;  397.198
565.201; 2563.897; -640.109; -700.803
565.479; 1207.619; -297.115; -219.792
565.758;  399.359; -810.128; -712.770
566.037;  692.998; -155.109; -100.803
566.316;  359.512; -286.116;  -28.791
566.595;  117.423;  -17.115;  -12.793
566.873;  194.580; -166.111;  -79.801
567.152; -116.645; -490.113; -590.797
567.431;   69.107; -113.116;    6.210
567.709;   51.624; -344.107; -212.807
567.988;  333.136; -810.114; -769.794
568.266;  727.523; -160.115;  -68.793
568.545;  505.014; -644.100; -514.819
568.824;  852.118;  160.885;  356.208
569.102;  737.535; -351.114; -235.794
569.381;  291.317; -492.116; -407.792
569.659;  -93.650; -553.113; -553.796
569.938;   26.835; -743.122; -465.780
570.216;  160.802; -225.109; -225.804
570.494;  -56.660; -632.114; -572.795
570.773;  106.247;  202.879;  114.218
571.051;   14.219; -373.123; -357.778
571.330;  118.846; -221.113; -174.796
571.608;   81.340; -181.098; -173.823
571.886; -123.831; -671.111; -581.799
572.164; -124.550; -739.121; -621.782
572.443;  -72.349; -562.105; -512.811
572.721;  -46.298; -399.117; -289.790
572.999;  -44.807; -280.117; -168.788
573.277;  233.341;  379.894;  620.191
573.555;  424.844;   94.894;   37.190
573.834; 1862.592;  -86.117; -114.788
574.112; 2254.327;  880.893;  811.193
574.390;  713.479; -143.111;  -96.801
574.668;   26.157;  -91.112;  -61.797
574.946;  -26.655; -165.106; -187.810
575.224;   81.497;   71.891;  -16.803
575.502;  -10.691; -200.116; -204.791
575.780; -168.542; -767.112; -829.798
576.058;  312.878; 1589.889; 1004.200
576.336;  -20.914; -210.110; -129.801
576.614;  -97.741; -511.112; -340.798
576.891;   31.629; -711.115; -823.794
577.169;  677.514; -158.108; -285.805
577.447;  865.626;  169.893;  202.193
577.725;  454.865;  629.888;  854.201
578.003;   35.662;  -71.112; -371.798
578.280;  152.464; -208.104; -242.812
578.558;   64.628; -450.115; -422.793
578.836;  176.040; -210.114; -145.795
579.114;   29.956; -630.112; -670.797
579.391;  127.495;   -6.117;  -18.789
579.669; -118.170; -595.114; -704.794
579.947;  251.321; -326.107; -127.806
580.224;  377.321; -692.107; -524.806
580.502;  506.827;  127.893;   76.193
580.779;   28.104;  -42.117;   75.210
581.057; -116.697; -584.109; -470.804
581.334; -213.014; -726.102; -695.815
581.612;  111.546;   54.895;  511.190
581.889;   -8.595;  -83.101; -129.818
582.167;  -55.174; -298.099; -190.821
582.444; -186.103; -845.102; -814.817
582.721;  238.998;  657.899;  715.183
582.999;   88.022; -326.100; -167.821
583.276;  681.726; -812.123; -713.779
583.553;  975.890; -364.102; -294.816
583.831;  295.359; -607.104; -631.812
584.108;  139.911;  349.892;  174.195
584.385;   48.185; -122.102;  -98.815
584.662; -147.719; -651.111; -828.801
584.940;   89.680;  204.889;  204.199
585.217;  -26.151;  -73.113; -303.796
585.494;   98.193;   71.890;  118.198
585.771;  275.904; -250.109; -354.804
586.048;  675.149; -196.113;  -76.796
586.325;  390.184; -721.110; -773.801
586.602;  185.664;  230.896;  213.188
586.879;  -34.283; -499.100; -580.820
587.156;   77.147; -156.105; -331.810
587.433;  -74.106; -701.102; -667.817
587.710;  144.960;  152.888;  234.202
587.987;  461.155; -264.105; -236.811
588.264; 1195.262;  315.888;  387.202
588.541; 1978.068;  -61.104;   26.187
588.818; 3810.907;   72.892;  171.196
589.095; 3286.161; -163.104; -174.812
589.371;  513.001; -459.109; -414.804
589.648;   -0.373; -581.107; -437.807
589.925;   27.641; -517.114; -621.795
590.202;  -25.541; -741.112; -607.798
590.478;  109.057; -166.105;  -73.811
590.755;  411.316; -241.108; -132.806
591.032; 3570.288; -741.110; -699.802
591.308; 4637.499; -732.094; -790.831
591.585; 2500.187; -573.110; -560.802
591.862;  144.796;-1056.102; -950.817
592.138;   92.212; -475.108; -474.805
592.415;  209.766; -486.104; -495.813
592.691; 2241.262;  460.896;  518.188
592.968; 2595.043; -208.098; -123.824
593.244; 1312.707; -695.116; -595.790
593.521;  126.197; -105.102;  -42.817
593.797;  -35.469; -810.122; -720.780
594.074;  424.661; -611.096; -588.826
594.350; 1057.777;  828.905;  729.172
594.626;  447.481; -303.111; -283.801
594.903;  131.597; -643.101; -645.817
595.179;  370.971;  243.896;  418.187
595.455;   29.329; -136.107; -150.807
595.731;   70.273;  -19.103;  -38.814
596.008;  -54.327; -464.111; -434.800
596.284;   56.320; -187.100; -242.820
596.560;   50.108; -501.093; -493.833
596.836;  303.950; -173.105;  -70.810
597.112;  455.914; -582.108; -437.805
597.388;  398.558;  -49.097;  -48.826
597.665;  211.753;  437.887;  530.203
597.941; -136.049; -572.089; -658.839
598.217;   30.592; -323.110; -293.802
598.493;  416.406;   61.891; -204.804
598.769;  756.112; -175.100;  -50.819
599.045;  398.218; -490.108; -562.806
599.321;   69.719; -193.100; -261.820
599.597;  199.005; -355.109; -476.804
599.872;  748.968;  409.896;  429.187
600.148;  520.360;  -61.097; -172.826
600.424;  476.025;   91.893;  202.193
600.700;  341.528; -170.107; -280.807
600.976;  166.652; -442.097; -464.825
601.252;  343.000; -226.109; -272.803
601.527;  236.569; -833.104; -840.813
601.803;  193.258; -453.105; -404.812
602.079;  264.412; -124.100; -118.819
602.354;  774.622; -620.092; -531.835
602.630; 1166.349; -140.113; -482.796
602.906; 3382.805; -910.101; -863.818
603.181; 9122.477; -627.119; -534.786
603.457; 7913.357;   98.903; -278.826
603.733; 1161.453; -605.120; -626.783
604.008; 1459.945; -245.106; -164.810
604.284; 4158.799; -636.101; -580.817
604.559; 3774.865;   -3.112;  -42.799
604.835;  709.450; -163.105; -225.810
605.110;  555.826; -732.099; -892.821
605.385; 1029.112;  224.907;  267.167
605.661;  915.881; -625.095; -729.829
605.936; 1562.018; -664.108; -737.806
606.211; 1414.983;  -17.103; -170.815
606.487;  306.834; -329.114; -376.794
606.762;  -13.622; -791.119; -745.786
607.037;    5.450; -501.105; -433.810
607.313; -128.528; -589.096; -574.828
607.588;   26.745; -375.106; -137.810
607.863;   86.904;  -28.101; -143.818
608.138;  319.990;  513.890;  516.198
608.413;  -12.668; -576.099; -592.822
608.688;   63.313; -203.108; -267.805
608.964;  285.536; -509.106; -218.809
609.239;  332.346; -107.105; -212.810
609.514;  422.757;  281.895;  240.188
609.789;  915.064; -187.104; -716.812
610.064; 1212.370; -435.096; -609.827
610.339; 1239.001; -855.109; -799.804
610.614; 1674.919; -131.100; -315.820
610.889;  941.858;  215.895;  107.188
611.163;    6.959; -407.104; -591.812
611.438;  156.435;   81.886; -167.794
611.713;    0.700; -467.101; -499.817
611.988;   89.703; -144.101; -328.818
612.263;  -56.814; -771.102; -717.815
612.538;  378.448;  385.887;  251.204
612.812;  175.921; -832.100; -911.820
613.087;  170.740; -358.098; -338.823
613.362;  -79.472; -497.107; -557.807
613.637;  104.577;  261.897;  138.186
613.911;   -4.077; -256.092; -345.835
614.186;  195.826; -249.107; -292.807
614.460;  828.760; -842.081; -758.854
614.735; 1080.485;  -55.087;  -17.843
615.010;  261.070;   43.912;  -82.841
615.284;  433.812;  360.892;  246.195
615.559;  440.921; -792.092; -955.835
615.833;  435.529;  -76.099;  -87.822
616.108;   10.439; -225.090; -390.837
616.382;  283.087;  274.913;  402.156
616.656;  222.539; -241.090; -232.837
616.931;  640.430; -785.099; -700.822
617.205; 1396.270; -973.104; -979.813
617.480; 1391.196;  -91.125;    6.225
617.754;  235.292; -396.125; -128.774
618.028;   37.549; -369.129; -382.768
618.302;  110.910;   73.892;  -25.805
618.577; -112.121; -371.103; -518.815
618.851; -112.704; -399.109; -600.803
619.125;  -76.315; -335.134; -378.759
619.399;  -42.430; -244.104; -374.813
619.673; -106.082; -330.115; -515.792
619.947;  -95.060; -333.114; -448.795
620.222;   -2.818; -198.110; -204.801
620.496;   -3.750;  -47.121;  -96.782
620.770;   44.238; -187.122;  -93.781
621.044;  329.947;  323.895;  346.190
621.318; 1014.954; -653.120; -614.783
621.592;  950.051; -430.121; -409.783
621.866;  441.466; -476.112; -572.799
622.140;   47.409; -207.116; -356.791
622.413;  143.372;  138.889;  112.200
622.687;  -84.700; -746.101; -492.817
622.961;   54.010; -130.108; -143.805
623.235; -138.326; -633.111; -661.800
623.509; -192.743; -816.105; -848.811
623.783;   68.722;  -12.107;   48.193
624.056;  -15.244; -254.120; -280.783
624.330;  119.157;   63.888;   -3.797
624.604;   65.304; -271.116; -355.790
624.877;  112.589;  180.890;   26.198
625.151;   68.932; -249.114; -238.794
625.425;  -36.127; -150.103; -283.814
625.698;  -99.331; -367.119; -374.785
625.972; -184.908; -799.110; -765.802
626.245;  219.707;  685.884;  484.210
626.519;  -72.839; -426.120; -340.784
626.792;  -24.472; -192.107; -380.807
627.066; -169.973; -485.122; -662.779
627.339; -168.614; -736.110; -663.802
627.613;  126.559;  351.880;  148.216
627.886;  125.295;  187.891; -612.803
628.160;  -16.047;  312.880; -161.783
628.433; -162.700; -695.125; -703.775
628.706; -154.339; -517.120; -615.784
628.979;   97.809;  296.876;  117.223
629.253; -153.324; -785.119; -833.786
629.526;  520.077; -334.126; -253.772
629.799;  434.420; -641.123; -479.778
630.072;  211.451; -497.128; -516.769
630.346; -158.593;-1115.116;-1080.790
630.619;  624.229; -467.107; -545.808
630.892;  912.375;  709.889;  593.200
631.165;  544.570;  790.896;  679.187
631.438; -195.938;-1092.112;-1055.798
631.711;  162.524;  453.877;  257.221
631.984;  -99.500; -523.117; -624.789
632.257; -139.405; -636.117; -681.789
632.530;  -90.530; -412.119; -433.785
632.803;   89.829; -109.115;    7.207
633.076; -101.485; -360.123; -422.777
633.349;   46.557;  173.872;  121.231
633.622;  -66.632; -187.119; -240.785
633.895; -226.745; -903.120; -823.783
634.167;  -93.820; -496.126; -525.773
634.440;   44.416;  -19.116; -137.792
634.713;   43.875;  -22.119; -120.786
634.986;  193.543;  593.871;  453.233
635.258; -128.674; -507.115; -597.793
635.531;  249.289;  742.882; -343.788
635.804;  -36.002; -303.117; -318.789
636.077; -177.289; -830.116; -852.791
636.349;  -29.976; -586.115; -474.793
636.622;  776.276; 1695.874; 1392.228
636.894;  320.862; -474.120; -909.784
637.167;  176.868; -836.127; -789.771
637.439;   62.362; -278.128; -213.770
637.712;  -76.821; -312.126; -293.772
637.984; -154.288; -635.116; -707.791
638.257;  633.116;  515.877;  488.222
638.529;  751.801; -881.125; -924.776
638.802;  311.151; -508.128; -449.769
639.074; -230.264; -927.122; -952.781
639.346; -217.028; -942.135; -930.757
639.619;   31.077;  -79.142; -319.744
639.891;   21.027;  -83.122; -168.779
640.163; -132.470; -689.122; -756.780
640.435;  110.533;  273.878;  103.220
640.708;   57.535;  -72.122; -132.780
640.980;  -36.662; -366.122; -362.781
641.252;  330.041;  -25.121;  -71.781
641.524; 2677.943;  580.879;  573.219
641.796; 2487.446;-1094.121; -907.782
642.068;  494.749; -191.121; -300.782
642.340;  -95.349; -486.121; -566.783
642.613;  138.554;  294.880;  323.217
642.885; -171.843; -787.120; -878.783
643.157; -101.241; -810.120; -658.784
643.428;  148.262;  170.880;  218.216
643.700;  -97.435; -498.120; -425.784
643.972;  -16.133;  -16.119; -133.785
644.244; -107.330; -474.119; -559.785
644.516;  -79.427; -250.119; -114.786
644.788;  195.375;  662.881;  548.214
645.060;    4.178;  -12.119; -124.786
645.332; -174.519; -525.118; -535.787
645.603;  128.083;  479.882;  342.213
645.875; -126.914; -334.118; -369.787
646.147;  402.589; 1487.882; 1242.212
646.418; -139.809; -931.117; -918.788
646.690;  127.494; -714.117; -715.789
646.962;   67.797; -413.117; -451.789
647.233;   57.900;   15.883;   11.211
647.505; -157.798; -595.117; -475.790
647.776;   99.505;  328.884;  229.210
648.048;   -3.292; -248.116; -418.790
648.320; -121.490; -752.116; -679.791
648.591; -277.287;-1055.116; -958.791
648.862; -139.784; -505.116; -577.792
649.134;   74.518;  115.885;  198.208
649.405;  -79.679; -661.115; -618.792
649.677;  -97.576; -475.115; -598.793
649.948;   25.526; -181.115; -296.793
650.219;   20.829;  -37.115; -147.793
650.491; -136.368; -431.114; -520.794
650.762; -190.666; -705.114; -731.794
651.033; -129.263; -437.114; -424.795
651.304; -187.660; -743.114; -728.795
651.576; -130.258; -680.114; -645.795
651.847;   -7.255; -250.113; -140.796
652.118;    1.148;  -32.113; -189.796
652.389; -175.050; -639.113; -722.796
652.660;  -33.947; -147.113;  -89.797
652.931; -235.144; -897.112; -871.797
653.202; -117.842; -382.112; -541.798
653.473;  -80.239; -633.112; -533.798
653.744;  189.964; -595.112; -590.798
654.015;  179.866; -356.112; -303.799
654.286; -114.831; -642.111; -663.799
654.557; -105.528; -586.111; -521.799
654.828; -289.226;-1114.111;-1088.800
655.099; -101.123; -404.111; -291.800
655.370; -149.120; -427.111; -543.801
655.641; -194.918; -656.110; -714.801
655.911; -167.115; -618.110; -638.801
656.182;  146.188;  437.890;  387.198
656.453;  232.490;  830.890;  746.198
656.724; -136.307; -466.110; -426.802
656.994; -139.804; -553.109; -568.803
657.265; -186.002; -862.109; -873.803
657.536; -122.099; -500.109; -377.804
657.806; -163.696; -561.109; -593.804
658.077; -240.494; -866.109; -950.804
658.347; -106.491; -523.108; -598.805
658.618; -198.188; -646.108; -694.805
658.888;    8.814;  -41.108;  112.195
659.159; -116.683; -432.108; -548.806
659.429;   -8.980; -292.108; -349.806
659.700;    5.622; -435.107; -390.807
659.970;   -8.775; -370.107; -359.807
660.241;  -14.672; -754.107; -921.807
660.511;  686.430; -147.107; -174.808
660.781;   86.233; -793.106; -748.808
661.052;  -59.964; -222.106; -381.808
661.322;   11.338;   21.894;   -9.809
661.592;   80.041;  257.894;  148.191
661.862;  -96.256; -369.106; -382.810
662.133; -163.354; -551.105; -502.810
662.403; -183.251; -770.105; -676.810
662.673;  -46.848; -256.105; -213.811
662.943; -163.446; -612.105; -551.811
663.213;   27.457;  -85.105;  -81.811
663.483; -150.640; -593.104; -568.812
663.753;  -33.938; -194.104; -152.812
664.023;   -1.135;   68.896;  -32.813
664.293;  -76.232; -319.104; -126.813
664.563; -196.930; -694.104; -648.813
664.833; -195.327; -743.103; -608.814
665.103; -228.024; -730.103; -793.814
665.373; -197.822; -766.103; -806.814
665.643; -170.619; -863.103; -918.815
665.913;   69.684; -534.103; -714.815
666.182;  200.486; -685.102; -719.816
666.452;  407.789;  -22.102;  -89.816
666.722;  -94.208; -724.102; -784.816
666.992; -234.506; -948.102; -921.817
667.261; -164.903; -824.102; -808.817
667.531;  365.800;  134.899;   45.183
667.801;  743.302; -440.101; -412.818
668.070;  485.905;  714.899;  697.182
668.340; -211.892; -883.101; -840.819
668.609;  225.610;  588.900;  301.181
668.879; -122.087; -490.100; -558.819
669.149; -104.484; -539.100; -516.820
669.418; -187.982; -698.100; -726.820
669.688;  -34.479; -482.100; -666.820
669.957;   92.824; -423.099; -546.821
670.226;  -23.174; -268.099; -331.821
670.496; -163.571; -431.099; -635.822
670.765; -110.968; -418.099; -501.822
671.034; -210.166; -872.099; -828.822
671.304;   30.137;   55.902; -111.823
671.573; -277.260;-1085.098; -957.823
671.842;  125.542; -380.098; -294.823
672.112;   30.545; -692.098; -586.824
672.381;   23.048; -239.098; -214.824
672.650; -229.650;-1005.097;-1021.825
672.919; -154.747; -631.097; -507.825
673.188; -173.644; -681.097; -878.825
673.457; -271.342;-1101.097;-1143.826
673.726; -151.539; -579.096; -646.826
673.995;  -67.336; -533.096; -479.826
674.265;  -57.034; -263.096; -333.827
674.534;   34.769; -183.096; -235.827
674.802;  -28.728; -618.096; -703.828
675.071; 1464.675; -886.095; -801.828
675.340; 5166.277; -464.095; -339.828
675.609; 1872.880;  103.905;   82.171
675.878;   31.583; -949.095; -893.829
676.147;   97.485;  -26.095;   -8.829
676.416;  152.188; -210.094; -294.830
676.685; 1108.691; 1000.906; -622.830
676.953;  159.293; -603.094; -452.831
677.222;  -28.204; -193.094; -273.831
677.491;   11.399;  -24.094; -127.831
677.759;   44.201;   11.907;  172.168
678.028;  -44.696; -279.093; -222.832
678.297;   34.607;   71.907;  197.168
678.565; -257.291; -898.093; -944.833
678.834;  -56.788; -311.093; -268.833
679.102; -100.385; -411.092; -391.834
679.371; -279.183; -898.092; -727.834
679.639; -264.080; -797.092; -786.834
679.908; -208.177; -794.092; -724.835
680.176; -282.975; -895.091; -941.835
680.445; -114.372; -346.091; -352.835
680.713;   12.331;  -58.091;  -23.836
680.982; -126.767; -523.091; -525.836
681.250; -165.564; -578.091; -507.837
681.518; -159.661; -534.090; -751.837
681.787;   -9.759; -204.090; -167.837
682.055;  -90.056; -490.090; -422.838
682.323; -279.353; -993.090; -992.838
682.591;   82.649; -216.090; -538.838
682.859;  144.952;    9.911;  -35.839
683.128;   93.555;  232.911;  497.161
683.396; -288.543;-1102.089;-1122.840
683.664;  -20.940; -241.089;   21.160
683.932;   51.663;  144.911;  -76.840
684.200; -119.435; -576.088; -320.841
684.468;  -28.932;  -73.088; -124.841
684.736;  -24.129; -214.088; -175.841
685.004; -237.827;-1024.088; -982.842
685.272; -106.924; -880.088; -774.842
685.540; -116.121; -499.087; -557.843
685.808; -142.619; -651.087; -682.843
686.076; -202.416; -894.087; -969.843
686.343;  -93.313; -601.087; -815.844
686.611;   90.489; -195.087; -224.844
686.879;  713.192; -530.086; -553.844
687.147; 4465.995; -483.086; -480.845
687.414; 1249.197;  -12.086; -169.845
687.682;   -5.200; -658.086; -757.846
687.950;  467.903;  259.915;  263.154
688.217;  -20.695; -792.085; -760.846
688.485;   -6.992; -632.085; -636.847
688.753;  715.611;  -11.085; -102.847
689.020;  171.713; -820.085; -851.847
689.288; -163.784; -853.084; -787.848
689.555;  -23.881; -195.084; -148.848
689.823;  -46.879; -241.084; -345.849
690.090; -149.276; -546.084; -651.849
690.358; -260.973; -877.084; -897.849
690.625;   37.229;  120.917;   45.150
690.892; -150.568; -403.083; -369.850
691.160;   14.635;   72.917;  -35.850
691.427;   46.237;  141.917;  130.149
691.694; -244.560; -855.083; -929.851
691.962; -258.857;-1177.082;-1060.852
692.229;   72.445;  127.918;   56.148
692.496;  167.148;  130.918;  -49.852
692.763;   38.051; -164.082; -201.853
693.031; -100.047; -739.082; -716.853
693.298;  -52.244; -509.081; -368.853
693.565;  480.459; -155.081; -163.854
693.832; 1702.161;   -5.081;   -9.854
694.099;  165.964; -643.081; -642.855
694.366; -103.733; -882.081; -896.855
694.633; -129.631; -920.080; -633.855
694.900; 1574.272; 4367.920; -114.856
695.167;  655.075; -214.080; -380.856
695.434;   87.977; -646.080; -623.856
695.701;  374.080;  121.921;  -61.857
695.968;  667.183; -365.079; -361.857
696.234; 1705.785; -415.079; -646.858
696.501;16039.988; -776.079; -614.858
696.768; 7635.991; -554.079; -617.858
697.035;  521.093; -632.078; -667.859
697.302;   51.496; -448.078; -552.859
697.568;   29.099; -458.078; -497.859
697.835;  -65.999; -683.078; -624.860
698.102;    2.304; -498.078; -407.860
698.368;  166.207;  384.923;  396.139
698.635;  -26.791;  -47.077; -424.861
698.901;   10.012; -240.077; -348.861
699.168;  107.315; -534.077; -456.862
699.435;  147.717;  -72.077;  -13.862
699.701; -229.680; -868.076; -764.862
699.968;  -42.877;  144.924; -441.863
700.234; -154.075; -783.076; -822.863
700.500;  -70.072; -448.076; -539.864
700.767;   60.831;   -1.075;   26.136
701.033; -244.667;-1015.075; -963.864
701.299;  -54.464; -450.075; -483.865
701.566;  277.539;  950.925;  763.135
701.832;  128.041;  -31.075;  -76.865
702.098; -171.056;-1054.074;-1034.866
702.365; -180.753;-1098.074;-1030.866
702.631;  -75.850;-1038.074;-1063.867
702.897; 1992.652; -765.074; -676.867
703.163; 3042.455;  348.926;  254.133
703.429;  282.058; -256.073; -273.868
703.695;  -76.340; -796.073; -792.868
703.961;   42.163; -214.073; -210.868
704.227; -101.134; -630.073; -725.869
704.493;  291.768;  613.927;  510.131
704.759;  -15.329; -565.072; -540.870
705.025;   66.674; -203.072; -194.870
705.291;   -2.724; -666.072; -562.870
705.557;  423.279;  719.928;   34.129
705.823;   69.982; -742.072; -694.871
706.089;  232.384; -307.071; -326.871
706.355;  653.387; -315.071; -244.872
706.620; 9205.490; -776.071; -729.872
706.886;11502.192; -309.071; -362.873
707.152; 1021.195; -818.070; -973.873
707.418;  -38.502;-1153.070;-1186.873
707.683;    6.300; -550.070; -530.874
707.949;  -45.597; -547.070; -578.874
708.215;   34.506; -129.070; -207.874
708.480;  -31.692; -520.069; -420.875
708.746;  204.711;   68.931;   28.125
709.011; -108.386; -578.069; -612.876
709.277; -100.084; -538.069; -543.876
709.542;  -40.181; -428.069; -387.876
709.808;   20.122;  -59.068;   89.123
710.073; -136.976; -577.068; -695.877
710.339;   -7.273; -242.068; -228.877
710.604;   87.930; -780.068; -845.878
710.869;  404.432; -277.068; -366.878
711.135; -138.465; -715.067; -628.879
711.400; -159.162; -507.067; -608.879
711.665; -101.460; -404.067; -479.879
711.931; -164.057; -661.067; -677.880
712.196; -216.854; -876.067; -954.880
712.461;  172.548; -402.066; -490.880
712.726;  143.451; -727.066; -771.881
712.991; -140.146; -647.066; -664.881
713.256;  -57.944; -350.066; -332.882
713.521;  -76.841; -417.065; -381.882
713.787; -101.738; -454.065; -472.882
714.052;  -23.536; -214.065; -400.883
714.317; -179.733;-1045.065; -981.883
714.581; 1652.170; -374.065; -268.883
714.846; 1936.372; -822.064; -888.884
715.111;  306.675;  261.936;  257.116
715.376;  -39.222;  -86.064; -223.885
715.641;   47.580; -365.064; -367.885
715.906;  363.783;   15.936; -551.885
716.171;  252.986;  221.937;  209.114
716.436;   67.888;  -78.063; -104.886
716.700; -176.909; -818.063; -692.886
716.965; -228.706; -794.063; -807.887
717.230;  -74.404; -339.063; -392.887
717.494;    7.799;  -40.062; -134.888
717.759; -157.898; -784.062; -640.888
718.024;   76.404;  269.938;  250.112
718.288;  211.507;  685.938;  395.111
718.553; -245.990; -803.062; -977.889
718.817; -223.988; -883.061; -899.889
719.082;   -5.785; -115.061; -125.890
719.346; -246.582;-1000.061; -947.890
719.611;  -53.880; -300.061; -255.891
719.875; -144.077; -568.060; -537.891
720.140;  -68.374; -453.060; -603.891
720.404;   93.828; -136.060; -249.892
720.668; 1145.431; -475.060; -411.892
720.933;  459.134;  146.940;  137.108
721.197; -152.864; -667.059; -600.893
721.461; -237.661; -851.059; -826.893
721.725;   22.242;  -21.059; -250.894
721.990;  -86.856; -284.059; -204.894
722.254;   -4.553;  -26.059; -108.894
722.518;  -75.150; -286.058; -442.895
722.782; -163.348; -743.058; -594.895
723.046;  277.855;  614.942;  570.105
723.310;  126.458;  374.942;  210.104
723.574; -137.440; -654.058; -614.896
723.838; -178.837; -576.057; -642.897
724.102;  -26.534; -226.057; -239.897
724.366; -236.732;-1032.057; -978.897
724.630; -156.029; -749.057; -571.898
724.894; -112.526; -722.057; -514.898
725.158;   45.976;   38.944; -295.898
725.422;  -69.721; -394.056; -327.899
725.685;  -87.318; -441.056; -349.899
725.949; -128.416; -566.056; -519.900
726.213; -115.713; -732.056; -811.900
726.477;  177.490;-1020.055; -933.900
726.740;  236.692; -274.055; -104.901
727.004;  611.095; -384.055; -510.901
727.268; 4928.298; -442.055; -400.901
727.531; 1207.900; -961.055; -775.902
727.795;  -81.397; -713.054; -673.902
728.059; -109.894; -552.054; -557.903
728.322; -116.992; -841.054; -669.903
728.586;   13.711; -692.054; -701.903
728.849; -152.986; -695.053; -756.904
729.112; -167.584; -812.053; -912.904
729.376; -202.681; -959.053; -905.904
729.639; -124.278; -536.053; -536.905
729.903; -197.175; -733.053; -699.905
730.166;  -60.873; -437.052; -399.906
730.429;  -14.370; -317.052; -468.906
730.693; -136.767; -355.052; -894.906
730.956;  461.135;  810.948;  651.093
731.219;  930.738; -310.052; -103.907
731.482;  156.241;-1003.051; -894.907
731.745;   69.443; -794.051; -935.908
732.009;   88.046;  -30.051;   50.092
732.272; -153.551; -904.051; -771.909
732.535;  -31.049; -300.051; -310.909
732.798; -265.346;-1083.050;-1166.909
733.061;  -75.743; -430.050; -456.910
733.324;   41.459;   31.950; -180.910
733.587;  175.962;  290.950;  365.090
733.850; -126.335; -973.049;-1050.911
734.113;   92.767;   33.951;   32.089
734.376;   18.370; -328.049; -447.912
734.639;  495.973; 1188.951; 1011.088
734.901;  137.075; -180.049; -402.912
735.164;  736.878; -883.048; -837.913
735.427; 1761.781; -166.048; -355.913
735.690;  246.883; -205.048; -234.913
735.952; -107.714; -923.048; -925.914
736.215;  -76.411;-1113.048;-1009.914
736.478;   11.291; -771.047; -774.915
736.740;  352.094;   33.953;  129.085
737.003; 1115.197; -658.047; -672.915
737.266; 5587.299;  -94.047;   46.084
737.528;  627.802; -682.047; -660.916
737.791;  492.205; -316.046; -327.916
738.053; 1384.707;  465.954;  649.083
738.316;16839.210; -162.046; -136.917
738.578;10242.313; -770.046; -736.918
738.841;  689.315; -382.046; -446.918
739.103;  288.618; -875.045; -777.918
739.365;  748.421;   79.955;  -69.919
739.628;   -7.677; -884.045; -805.919
739.890;  -46.174; -758.045; -710.919
740.152;  -68.071; -692.044; -754.920
740.414;   22.831; -408.044; -359.920
740.677;  -92.166; -785.044; -634.921
740.939;  -60.163; -587.044; -487.921
741.201;  382.139; -432.044; -572.921
741.463;   65.342; -689.043; -745.922
741.725;   61.745;  -21.043; -199.922
741.987;  155.747;  220.957;  116.078
742.249;  -15.050; -751.043; -859.923
742.511;  288.553; -703.043; -794.923
742.773;   30.355; -546.042; -546.924
743.035;  300.558;  796.958;  533.076
743.297;  -59.939; -963.042;-1013.924
743.559; 1106.963; -278.042; -262.925
743.821;   38.566; -735.042; -744.925
744.083;   86.369;  -44.041; -149.925
744.345; -174.529; -869.041; -892.926
744.607;  151.574;   75.959;  122.074
744.868;  -48.423; -490.041; -554.927
745.130; -194.921; -994.041;-1008.927
745.392;  109.782;   -1.040;  -44.927
745.653;    5.385; -411.040; -378.928
745.915;  354.887;  896.960;  631.072
746.177;  154.290;   35.960;  -43.928
746.438;   -1.807; -428.040; -543.929
746.700;  -86.105; -947.039; -988.929
746.961;    8.498; -659.039; -740.930
747.223;  238.701; -190.039;  -74.930
747.484;  161.503; -391.039; -471.930
747.746;  252.006;  -23.038; -106.931
748.007;  165.209; -647.038; -689.931
748.269;  498.411; -468.038; -440.931
748.530;  670.214; -852.038; -638.932
748.791;  397.417; -354.038; -420.932
749.053;  718.719;  286.963;  163.067
749.314;  730.822; -236.037; -169.933
749.575;  704.425; -945.037; -905.933
749.836; 1252.327; -217.037;   86.066
750.098; 4126.530;  -60.037;  -21.934
750.359;51081.633;  414.964;  555.066
750.620;11724.435; -121.036; -220.935
750.881; 1537.238; -585.036; -513.935
751.142; 2059.041; -950.036; -938.936
751.403;25715.643; -789.036; -705.936
751.664; 9614.646;-1034.035; -999.936
751.925;  770.149; -175.035; -262.937
752.186;  481.851; -298.035; -278.937
752.447;  231.454; -590.035; -445.937
752.708;   83.657; -532.035; -648.938
752.969;   28.159; -566.034; -576.938
753.230;  -21.338; -777.034; -672.939
753.491;   19.565; -650.034; -631.939
753.751;  162.767;  109.966;   19.061
754.012;  233.170;  258.967;  181.060
754.273;  119.473; -174.033;  -71.940
754.534;    6.075; -487.033; -580.940
754.794; -146.022; -926.033; -911.941
755.055;  382.881; 1051.967;  881.059
755.316;  -75.117; -700.032; -566.942
755.576;  -28.914; -606.032; -576.942
755.837;  -68.611; -527.032; -695.942
756.097;  -48.908; -530.032; -564.943
756.358; -104.206; -725.032; -770.943
756.618;  -71.803; -705.031; -641.943
756.879;   10.300; -254.031; -349.944
757.139; -230.698;-1098.031;-1116.944
757.400;  -77.895; -538.031; -553.945
757.660;   -9.992; -365.031; -401.945
757.920;   61.110; -266.030; -228.945
758.181;   28.513; -468.030; -351.946
758.441; -165.984; -870.030; -809.946
758.701;  -31.582; -308.030; -215.946
758.961;   15.521; -220.030; -278.947
759.222;  -48.976; -574.029; -502.947
759.482; -115.874; -683.029; -723.948
759.742; -112.771; -706.029; -547.948
760.002;  104.232;  -83.029; -143.948
760.262;  112.834;   50.972;  182.051
760.522;  -33.063; -498.028; -574.949
760.782;  -51.860; -738.028; -612.949
761.042;  -15.658; -618.028; -573.950
761.302;  150.845;   55.972;  -18.950
761.562;  136.048; -164.027; -154.951
761.822;  175.350; -710.027; -551.951
762.082;  -98.347;-1104.027;-1093.951
762.342;  177.756; -328.027; -403.952
762.601;  143.358; -567.027; -506.952
762.861;  613.661; -281.026; -207.952
763.121;  790.464; -406.026; -411.953
763.381;13637.666; -499.026; -485.953
763.640;12462.169; -139.026; -307.954
763.900;  635.372; -242.026; -203.954
764.160;  207.774; -458.025; -491.954
764.419;    9.677; -726.025; -782.955
764.679;  -90.220; -795.025; -726.955
764.939;   43.782; -124.025; -210.955
765.198;  -91.715; -608.025; -563.956
765.458; -109.512; -710.024; -612.956
765.717; -125.410; -454.024; -590.957
765.976;  -48.107; -428.024; -411.957
766.236; -102.904; -475.024; -610.957
766.495;   88.898;  260.977;   73.042
766.755; -176.899;-1090.023; -987.958
767.014;   -0.896; -594.023; -665.958
767.273;  -41.894; -373.023; -397.959
767.533;   -6.191; -228.023; -307.959
767.792;   -5.588; -151.022; -188.960
768.051;  -50.286; -228.022; -276.960
768.310; -114.983; -546.022; -650.960
768.569;   83.420; -161.022;    4.039
768.828;    0.122; -285.022; -363.961
769.088; -211.075;-1050.021; -942.961
769.347; -130.472; -755.021; -599.962
769.606; -152.870; -876.021; -857.962
769.865; -218.467;-1016.021;-1033.963
770.124;   50.336; -411.021; -336.963
770.383;  -83.962; -778.020; -910.963
770.641;   12.841; -398.020; -400.964
770.900; -120.156; -953.020; -846.964
771.159;  -86.654; -851.020; -951.964
771.418;  -22.551; -917.020; -779.965
771.677;  253.252; -224.019; -293.965
771.936;  221.454; -794.019; -865.966
772.194; 4259.957; -465.019; -437.966
772.453;16488.260; -213.019; -391.966
772.712; 1272.462;  416.982;  329.033
772.970;  264.865;   32.982;   63.033
773.229;  188.968;  -22.018;  102.033
773.488; -142.830; -814.018; -770.968
773.746;  197.273;  296.982;  335.032
774.005;   66.676;  190.983;  -22.969
774.263;   80.078;  243.983;  177.031
774.522; -126.919; -422.017; -548.969
774.780;  -76.416; -484.017; -417.970
775.039; -124.014; -551.017; -531.970
775.297;   32.889; -135.016; -351.970
775.555; -166.108; -489.016; -612.971
775.814; -175.106; -618.016; -570.971
776.072; -215.403; -749.016; -740.971
776.330; -121.800; -630.016; -520.972
776.589; -183.798; -703.015; -721.972
776.847; -180.995; -645.015; -624.973
777.105; -271.892;-1016.015;-1032.973
777.363;  -94.090; -459.015; -454.973
777.621; -216.787; -660.015; -717.974
777.879;   20.016;  -42.014;   32.026
778.138; -126.482; -554.014; -717.974
778.396; -159.479; -585.014; -526.975
778.654; -291.176;-1015.014; -970.975
778.912;  -46.974; -269.014; -371.976
779.170; -200.971; -880.013; -803.976
779.427; -226.068; -922.013; -897.976
779.685; -212.566; -880.013; -832.977
779.943; -135.163; -654.013; -593.977
780.201; -268.260; -964.012; -883.978
780.459; -170.758; -651.012; -610.978
780.717; -113.355; -440.012; -390.978
780.974; -128.252; -449.012; -490.979
781.232;  -96.550; -358.012; -338.979
781.490; -115.547; -551.011; -472.979
781.747; -131.144; -555.011; -476.980
782.005;   93.658;  462.989;  254.020
782.263; -289.539; -542.011;-1004.981
782.520; -115.836; -326.011; -501.981
782.778; -263.533;-1013.010;-1051.981
783.035; -281.531; -962.010; -938.982
783.293;  -63.028; -248.010; -206.982
783.550;  -58.125; -134.010; -198.982
783.808; -186.623; -764.010; -776.983
784.065; -260.120; -745.009; -874.983
784.322;  -55.817;   25.991;  -86.984
784.580; -231.315; -915.009; -771.984
784.837; -114.312; -392.009; -466.984
785.094; -213.709; -783.009; -762.985
785.352;  -76.207; -304.008; -404.985
785.609; -193.404; -934.008; -839.985
785.866;  -88.801; -345.008; -401.986
786.123; -108.999; -639.008; -583.986
786.380; -152.196; -665.008; -604.987
786.637;  -51.593; -225.007; -380.987
786.895;  -32.191; -456.007; -543.987
787.152;  -14.188; -135.007; -267.988
787.409;  -20.085; -123.007; -225.988
787.666; -126.583; -299.006; -378.988
787.923; -168.380; -616.006; -695.989
788.179; -163.077; -551.006; -584.989
788.436; -150.575; -585.006; -585.990
788.693;    0.428;  -92.006;  -87.990
788.950;  268.831; -125.005; -112.990
789.207;  290.633; -381.005; -372.991
789.464;  -63.864; -161.005; -301.991
789.720;   62.539;  150.995;  110.009
789.977; -300.659;-1003.005; -671.992
790.234;    7.544;   44.996;  -66.992
790.490; -261.753; -884.004;-1031.993
790.747;   39.749;  -85.004;   22.007
791.004;   16.352; -426.004; -348.993
791.260; -110.645; -430.004; -560.994
791.517; -169.043; -843.003; -788.994
791.773;  -60.740; -379.003; -342.994
792.030; -166.737; -596.003; -660.995
792.286; -132.535; -686.003; -636.995
792.543;    4.468;  -74.002; -159.995
792.799;  -47.329; -584.002; -382.996
793.055; -294.227;-1179.002;-1210.996
793.312; -130.124; -827.002; -816.997
793.568;  -82.521; -746.002; -599.997
793.824;   43.881; -226.001; -284.997
794.081;   54.684; -447.001; -508.998
794.337;  195.487; -664.001; -561.998
794.593; 2672.989; -319.001; -271.999
794.849;10025.892; -746.001; -772.999
795.105;  501.595; -270.000; -261.999
795.361;   92.997; -490.000; -457.000
795.617; -114.400; -875.000; -945.000
795.873;  -50.900; -360.000; -407.000
796.129;  -42.800; -368.000; -306.000
796.385;   35.900; -124.000; -156.000
796.641;  173.700;  412.000;  550.000
796.897; -108.200; -666.000; -635.000
797.153;  195.300;  453.000;  357.000
797.409; -148.600; -785.000; -868.000
797.665; -128.000; -625.000; -732.000
797.921; -136.800; -775.000; -762.000
798.176; -101.700; -744.000; -747.000
798.432;  -75.700; -824.000; -596.000
798.688; -149.000;-1174.000;-1078.000
798.943;  184.100; -165.000; -147.000
799.199;   -9.300;-1005.000; -959.000
799.455;  439.400;  369.000;  316.000
799.710;  215.700; -813.000; -380.000
799.966;  484.100; -162.000; -160.000
800.221;  755.400; -638.000; -721.000
800.477;17483.100; -743.000; -710.000
800.732;12123.400; -773.000; -800.000
800.988; 1007.100;  205.000;  -19.000
801.243; 3676.800; -454.000; -344.000
801.498;12191.800; -814.000; -739.000
801.754;  737.900; -289.000; -163.000
802.009;  212.800; -257.000; -335.000
802.264;  -72.900; -967.000;-1033.000
802.520;  110.100;  222.000;   -3.000
802.775;  -14.700; -524.000; -359.000
803.030;  183.800;  395.000;  356.000
803.285; -200.900; -840.000; -903.000
803.540;  -58.000; -686.000; -699.000
803.795;  -71.400; -648.000; -583.000
804.051;   -2.000; -279.000; -346.000
804.306;   86.100;  168.000;  128.000
804.561;  308.300;  451.000;  362.000
804.816;  324.300;  714.000;  861.000
805.071;   87.900; -185.000; -280.000
805.325;  319.700; -257.000; -427.000
805.580; -186.500; -841.000; -877.000
805.835;   39.700; -204.000; -297.000
806.090;  -85.900; -760.000; -676.000
806.345;   -2.800; -344.000; -264.000
806.600;  -42.200; -549.000; -632.000
806.854;    3.800; -408.000; -538.000
807.109;    3.700; -493.000; -577.000
807.364;   20.900; -407.000; -328.000
807.618;   46.300; -415.000; -381.000
807.873;   89.600; -470.000; -494.000
808.128;  174.300; -257.000; -518.000
808.382;  188.600; -224.000; -332.000
808.637;  185.600; -440.000; -511.000
808.891;  333.100; -257.000; -180.000
809.146;  181.400; -902.000; -794.000
809.400;  428.300; -848.000; -923.000
809.654;  524.000; -779.000; -551.000
809.909;  788.800; -841.000; -927.000
810.163;12122.600; -813.000; -651.000
810.418;24106.800; -940.000; -861.000
810.672; 1569.300; -685.000; -690.000
810.926; 1224.100; -993.000; -973.000
811.180; 2619.300; -439.000; -372.000
811.434;55850.700;  240.000;  135.000
811.689;17171.500; -231.000; -365.000
811.943;  961.000; -936.000; -953.000
812.197;  581.400; -893.000; -671.000
812.451;  222.600; -379.000; -514.000
812.705;   -1.400; -809.000; -619.000
812.959;  -57.400; -263.000; -388.000
813.213;   62.400; -283.000; -209.000
813.467;  214.000;  470.000;  253.000
813.721; -160.700; -764.000; -792.000
813.975; -151.000; -826.000; -877.000
814.229;  166.300;  430.000;  353.000
814.482;  -99.300; -517.000; -566.000
814.736; -177.500; -766.000; -744.000
814.990; -184.600; -779.000; -872.000
815.244;  -13.800; -228.000; -285.000
815.497; -131.500; -636.000; -601.000
815.751;   51.400; -141.000;   82.000
816.005;  -82.500; -470.000; -586.000
816.258;  -47.400; -510.000; -363.000
816.512; -160.400; -693.000; -610.000
816.766;   60.800;  121.000;  157.000
817.019;   88.300;  148.000;  149.000
817.273; -226.500;-1000.000; -802.000
817.526;    7.600; -206.000; -173.000
817.779;  -69.200;-1049.000; -960.000
818.033; -156.800; -693.000; -807.000
818.286; -158.900; -725.000; -792.000
818.540; -137.700; -403.000; -403.000
818.793;  -73.900; -402.000; -489.000
819.046; -119.300; -582.000; -520.000
819.299;    0.800; -157.000; -166.000
819.553; -169.300; -552.000; -592.000
819.806; -251.000;-1016.000; -838.000
820.059;  -73.100; -334.000; -354.000
820.312;   97.600;  152.000;  185.000
820.565;   25.800;  110.000;  -27.000
820.818;  -22.600;  -59.000; -173.000
821.071; -300.500;-1041.000; -957.000
821.324; -123.900; -536.000; -540.000
821.577; -122.200; -457.000; -483.000
821.830;  -74.600; -270.000; -172.000
822.083; -233.100; -733.000; -288.000
822.336;  -38.600; -261.000; -167.000
822.589; -231.200; -805.000; -688.000
822.842; -242.800; -875.000; -770.000
823.094; -321.100;-1076.000;-1114.000
823.347; -205.800; -925.000; -729.000
823.600;  107.400;  402.000;  187.000
823.853;  -65.200; -311.000; -267.000
824.105;  -77.800; -331.000; -575.000
824.358; -153.200; -617.000; -716.000
824.611;  101.700;  234.000;   40.000
824.863;  -60.200; -612.000; -591.000
825.116;   87.500;  -33.000;   27.000
825.368;  166.800; -366.000; -372.000
825.621;  252.600; -186.000; -240.000
825.873;  144.600; -704.000; -737.000
826.126; 1060.900; -669.000; -641.000
826.378;18474.200; -389.000; -505.000
826.630; 3246.600; -890.000; -898.000
826.883;   41.800; -754.000; -693.000
827.135;   82.900; -279.000; -270.000
827.387; -174.800; -893.000; -839.000
827.639;   12.100;  -86.000;   32.000
827.892; -190.700; -742.000; -582.000
828.144; -226.100; -848.000; -804.000
828.396;  -14.400;  104.000;  -80.000
828.648; -123.200; -440.000; -333.000
828.900; -236.700; -702.000; -795.000
829.152; -198.100; -684.000; -683.000
829.404;  -39.800; -215.000; -267.000
829.656;  -29.900;  321.000;  214.000
829.908;   39.100;  393.000;  229.000
830.160; -257.000;-1064.000;-1047.000
830.412; -134.700; -481.000; -430.000
830.664; -207.600; -557.000; -665.000
830.916;  -88.600; -268.000; -206.000
831.167; -308.500;-1073.000; -951.000
831.419; -149.000; -623.000; -566.000
831.671; -252.200; -764.000; -809.000
831.923;  -98.700; -311.000; -447.000
832.174;  -92.700; -273.000; -331.000
832.426; -154.000; -493.000; -582.000
832.678; -330.000;-1043.000;-1091.000
832.929; -246.100; -947.000; -935.000
833.181;  -86.600; -575.000; -677.000
833.432;  -34.300;  -59.000; -186.000
833.684;   58.600;  112.000;  -27.000
833.935; -167.600; -610.000; -566.000
834.187; -212.000; -829.000; -823.000
834.438;   -4.100;  -58.000;  -25.000
834.689;  -37.000; -255.000; -123.000
834.941;  -41.500; -343.000; -244.000
835.192; -126.700; -590.000; -533.000
835.443;  -99.500; -419.000; -506.000
835.695;   49.900;  138.000;  -16.000
835.946; -131.500; -608.000; -378.000
836.197; -195.400; -599.000; -622.000
836.448; -125.900; -528.000; -395.000
836.699;  -72.300; -253.000; -341.000
836.950;   59.900;   72.000;    7.000
837.201; -227.100;-1003.000; -987.000
837.452;  -33.700; -356.000; -170.000
837.703; -204.000; -791.000; -737.000
837.954;  -54.700; -205.000; -365.000
838.205; -152.000;-1029.000;-1008.000
838.456;  270.500; -196.000; -282.000
838.707;  -10.500; -423.000; -519.000
838.958;   25.200; -634.000; -647.000
839.209;  458.400;   18.000;   40.000
839.460;  214.700; -439.000; -201.000
839.710;  288.600; -135.000; -297.000
839.961;  730.600;  730.000;  612.000
840.212;  518.300; -382.000; -497.000
840.462; 1986.000; -328.000; -277.000
840.713;29449.900; -571.000; -536.000
840.964; 8990.000;  -62.000; -143.000
841.214;  718.900; -384.000; -624.000
841.465;  878.100; -214.000; -141.000
841.715;  791.600; -417.000; -380.000
841.966; 1070.300; -746.000; -685.000
842.216;17262.100; -330.000; -431.000
842.466;49771.400; -169.000; -313.000
842.717; 1980.500; -964.000; -952.000
842.967;  572.900; -635.000; -641.000
843.217;  479.600;   20.000;   28.000
843.468;  194.900; -104.000; -132.000
843.718;  -59.800; -718.000; -726.000
843.968; -158.000; -837.000; -765.000
844.218;   67.300; -315.000; -262.000
844.469;  -98.500; -577.000; -561.000
844.719; -177.600; -537.000; -682.000
844.969; -111.100; -550.000; -580.000
845.219; -229.300; -814.000; -862.000
845.469; -108.100; -392.000; -342.000
845.719; -207.500; -792.000; -884.000
845.969;   47.100;  119.000;  174.000
846.219; -194.000; -738.000; -720.000
846.469;  126.800;  464.000;  432.000
846.718;  -22.000; -115.000;   31.000
846.968; -205.100; -827.000; -827.000
847.218;  -32.900; -224.000; -371.000
847.468; -157.300; -586.000; -555.000
847.718; -218.700; -827.000; -798.000
847.967; -210.500; -826.000; -915.000
848.217; -110.300; -449.000; -569.000
848.467;  -58.900; -405.000; -376.000
848.716; -156.700; -708.000; -725.000
848.966;   -4.700; -372.000; -358.000
849.215;  -67.400; -428.000; -419.000
849.465; -151.900; -785.000; -615.000
849.714; -268.100;-1132.000;-1150.000
849.964;  -80.600; -551.000; -613.000
850.213;   17.900; -393.000; -355.000
850.463;  184.300;  137.000;  340.000
850.712;   -3.500; -542.000; -567.000
850.961;   50.200; -739.000; -678.000
851.211;  131.900; -513.000; -504.000
851.460;  261.700; -635.000; -650.000
851.709;  967.800;  -25.000;   18.000
851.958;18143.400; -912.000; -750.000
852.208;16710.600; -859.000; -879.000
852.457;  660.200; -181.000;  -13.000
852.706;   96.400; -791.000; -823.000
852.955;   33.200; -507.000; -528.000
853.204;  -78.500; -521.000; -461.000
853.453; -116.700; -418.000; -458.000
853.702; -227.900; -660.000; -750.000
853.951; -153.900; -532.000; -520.000
854.200; -125.700; -613.000; -562.000
854.449; -195.900; -695.000; -661.000
854.698; -127.200; -340.000; -279.000
854.946;  -47.100; -181.000; -284.000
855.195; -242.300; -843.000; -868.000
855.444;  -82.300; -395.000; -420.000
855.693; -170.300; -345.000; -432.000
855.941; -159.700; -387.000; -516.000
856.190;  -93.800; -256.000; -382.000
856.439; -202.200; -652.000; -703.000
856.687;  -20.100;  -99.000;  -72.000
856.936; -148.300; -621.000; -323.000
857.184; -310.900;-1067.000;-1020.000
857.433; -107.000; -423.000; -512.000
857.681; -275.800; -989.000; -953.000
857.930; -113.500; -282.000; -433.000
858.178; -291.300; -856.000; -929.000
858.427; -231.700; -802.000; -781.000
858.675; -196.800; -377.000; -544.000
858.923; -164.200; -527.000; -819.000
859.172; -289.600;-1094.000;-1070.000
859.420;  -83.700; -339.000; -239.000
859.668; -199.900; -624.000; -628.000
859.916;  -11.900;  109.000;  115.000
860.164; -178.800; -699.000; -603.000
860.413;  440.300; -878.000; -696.000
860.661;  204.100; -709.000; -577.000
860.909;  -99.200; -339.000; -325.000
861.157; -107.100; -277.000; -444.000
861.405; -208.700; -534.000; -670.000
861.653;   89.800;  310.000;  310.000
861.901;  297.600; -543.000; -613.000
862.149;  -86.500; -801.000; -824.000
862.396;  -57.200; -297.000; -187.000
862.644;  -94.400; -368.000; -347.000
862.892;    9.800;   98.000;  138.000
863.140; -169.400; -549.000; -530.000
863.388; -251.100; -815.000; -759.000
863.635; -170.400; -642.000; -601.000
863.883;   58.800;  231.000;  190.000
864.131; -125.400; -288.000; -357.000
864.378; -195.200; -675.000; -540.000
864.626; -138.200; -347.000; -415.000
864.873; -176.400; -556.000; -505.000
865.121; -212.800; -714.000; -799.000
865.368;  -13.800; -173.000;   75.000
865.616;   -5.600;  -33.000;  -40.000
865.863;  -83.900; -462.000; -506.000
866.111; -193.700; -795.000; -824.000
866.358;  122.500; -426.000; -420.000
866.605; 4191.700;  -64.000; -804.000
866.853; 3186.900; -621.000; -537.000
867.100;  -79.700; -728.000; -775.000
867.347; -136.800; -672.000; -611.000
867.594; -103.100; -740.000; -714.000
867.841;  162.900;   97.000;   17.000
868.089; -241.900; -746.000; -698.000
868.336; -155.400; -477.000; -420.000
868.583; -240.500; -637.000; -741.000
868.830;  -37.400; -131.000; -170.000
869.077; -289.900; -859.000; -787.000
869.324; -182.700; -502.000; -458.000
869.571; -185.600; -398.000; -430.000
869.818; -175.300; -485.000; -439.000
870.065; -156.300; -439.000; -513.000
870.311; -143.500; -456.000; -542.000
870.558; -141.100; -332.000; -311.000
870.805;  -67.900; -320.000; -384.000
871.052; -130.300; -494.000; -369.000
871.298;  -44.600; -204.000; -131.000
871.545;  -50.400; -151.000; -185.000
871.792; -101.400; -173.000; -222.000
872.038;  -44.700;   43.000; -126.000
872.285; -183.700; -496.000; -387.000
872.532; -113.300; -357.000; -387.000
872.778;   80.800;  556.000;  403.000
873.025; -102.900; -384.000; -359.000
873.271;  119.300;  501.000;  578.000
873.517;    2.200; -133.000; -209.000
873.764;  -20.800; -193.000;  -80.000
874.010;  -89.700; -143.000; -230.000
874.257;   -9.400;  123.000;   90.000
874.503; -202.600; -579.000; -479.000
874.749;  -59.300;   31.000;  275.000
874.995;  -52.500;  -80.000;  -20.000
875.242; -173.900; -540.000; -478.000
875.488; -153.100; -414.000; -439.000
875.734;  -57.800; -106.000; -234.000
875.980;  297.300; -872.000;-1032.000
876.226;  493.500; -157.000; -255.000
876.472;   59.900;  343.000;  237.000
876.718;   -3.200;  184.000;  158.000
876.964;   12.200;   56.000;   55.000
877.210; -217.000; -547.000; -677.000
877.456; -206.800; -630.000; -557.000
877.702; -262.800; -821.000; -832.000
877.948; -145.200; -377.000; -497.000
878.193;   72.800;  361.000;  255.000
878.439; -147.900; -487.000; -472.000
878.685; -135.900; -272.000; -343.000
878.931; -176.900; -618.000; -676.000
879.176;  -98.600; -201.000; -201.000
879.422; -273.500; -933.000; -820.000
879.668;  176.700;   10.000;   79.000
879.913;  206.500;   53.000;  137.000
880.159;  -53.500; -112.000;  -17.000
880.404;  -45.400; -152.000; -162.000
880.650;   -5.600;   91.000;  141.000
880.895; -242.500; -670.000; -710.000
881.141; -131.400; -454.000; -428.000
881.386; -207.500; -503.000; -658.000
881.631; -133.500; -311.000; -166.000
881.877;   11.200;  112.000;  -13.000
882.122; -179.400; -684.000; -600.000
882.367; -125.600; -136.000; -186.000
882.612;  -67.600;  -80.000; -176.000
882.858; -291.900; -877.000; -823.000
883.103; -109.100; -297.000; -267.000
883.348; -271.300; -759.000; -852.000
883.593; -215.500; -677.000; -602.000
883.838;  -64.800; -311.000;  -24.000
884.083;   77.600;  353.000;  288.000
884.328; -127.000; -564.000; -545.000
884.573;  -54.200; -196.000; -143.000
884.818;  300.300; -694.000; -531.000
885.063;  206.300; -348.000; -315.000
885.308; -131.000; -475.000; -398.000
885.553;   70.100;  245.000;  325.000
885.797; -192.600; -545.000; -615.000
886.042;  -32.800;    8.000;   58.000
886.287;  -83.700; -253.000; -211.000
886.532;  -29.500;   26.000;  204.000
886.776; -158.400; -407.000; -525.000
887.021; -211.100; -621.000; -574.000
887.265; -222.100; -685.000; -689.000
887.510; -223.200; -557.000; -496.000
887.755; -115.000; -194.000; -164.000
887.999; -221.900; -552.000; -575.000
888.244;  -28.800;  -58.000;  161.000
888.488;   75.000;  371.000;  393.000
888.732; -173.800; -368.000; -520.000
888.977; -171.900; -622.000; -567.000
889.221; -270.800; -683.000; -659.000
889.465; -179.200; -422.000; -566.000
889.710;  -76.800;  -56.000; -299.000
889.954;   91.300;  579.000;  467.000
890.198; -243.800; -584.000; -707.000
890.442; -227.400; -716.000; -712.000
890.687; -258.900; -800.000; -753.000
890.931;  -91.300; -273.000; -210.000
891.175; -180.800; -502.000; -500.000
891.419;  -50.700; -105.000; -110.000
891.663; -101.300; -239.000; -112.000
891.907; -247.600; -801.000; -545.000
892.151; -285.700; -920.000; -815.000
892.395; -137.300; -274.000; -387.000
892.638;   16.300;  408.000;  291.000
892.882; -269.500; -780.000; -867.000
893.126;  100.000;  758.000;  558.000
893.370; -121.900; -167.000; -168.000
893.614; -222.100; -714.000; -715.000
893.857; -107.900; -183.000; -197.000
894.101; -224.800; -527.000; -631.000
894.345;   -5.400;  300.000;  150.000
894.588;  112.900;  569.000;  380.000
894.832; -102.900; -178.000;  -84.000
895.075; -100.800;   15.000;  -92.000
895.319; -164.600; -552.000; -420.000
895.563; -153.900; -413.000; -353.000
895.806; -245.300; -628.000; -741.000
896.049;  -79.500; -576.000; -368.000
896.293;  262.400;  527.000;  405.000
896.536; -111.300; -465.000; -468.000
896.779;  -39.500; -149.000;   -1.000
897.023; -214.700; -751.000; -714.000
897.266;   28.500;  325.000;  269.000
897.509; -299.100; -900.000; -901.000
897.752;   -2.700;  149.000;  171.000
897.996; -310.000; -972.000; -864.000
898.239;   -9.300;  168.000;  102.000
898.482; -208.000; -431.000; -453.000
898.725;  -17.700;  101.000;   53.000
898.968; -259.900; -609.000; -744.000
899.211; -172.800; -513.000; -361.000
899.454; -200.600; -633.000; -539.000
899.697;  -66.400;   90.000;  -43.000
899.940; -233.100; -761.000; -757.000
900.182; -134.400; -335.000; -405.000
900.425;  -93.900; -150.000; -298.000
900.668;   53.800;  491.000;  350.000
900.911; -156.700; -292.000; -345.000
901.154;   -5.400;  141.000;   -3.000
901.396; -223.200; -407.000; -412.000
901.639; -212.400; -430.000; -496.000
901.882; -272.100; -790.000; -809.000
902.124;  -82.700;  -29.000; -143.000
902.367; -193.800; -315.000; -361.000
902.609; -195.500; -476.000; -453.000
902.852; -111.900; -108.000; -260.000
903.094; -168.900; -458.000; -337.000
903.337;  -29.800;  -26.000;   53.000
903.579; -137.100; -228.000; -441.000
903.821; -261.600; -597.000; -744.000
904.064;  -54.000;   85.000;  127.000
904.306;  -97.100; -126.000; -166.000
904.548; -131.100; -152.000; -366.000
904.790; -135.800; -195.000; -340.000
905.033; -174.600; -625.000; -577.000
905.275; -206.200; -513.000; -524.000
905.517;  153.500;  468.000;  256.000
905.759; -140.400; -667.000; -761.000
906.001; -131.800; -322.000; -369.000
906.243;  -65.400; -162.000; -224.000
906.485;  227.400; -265.000; -207.000
906.727;  120.900; -499.000; -542.000
906.969;  -34.800;  -30.000; -135.000
907.211;  239.600; -316.000; -382.000
907.453;  439.600; -188.000; -237.000
907.695;   29.500; -158.000; -385.000
907.936;  163.300;  818.000;  706.000
908.178;  -72.500;   92.000; -135.000
908.420;  -31.400; -111.000; -162.000
908.662; -209.800; -633.000; -682.000
908.903;  -96.900; -208.000; -123.000
909.145;  -34.000; -240.000; -305.000
909.386;   81.100;  315.000;  280.000
909.628;  117.300;  363.000;  397.000
909.870;   87.000;   29.000;  264.000
910.111; -146.300; -809.000; -949.000
910.353;   72.400; -123.000; -161.000
910.594;   30.200; -574.000; -606.000
910.835;  195.200; -265.000; -326.000
911.077;  303.100; -503.000; -604.000
911.318;  530.700; -505.000; -471.000
911.559;  791.800; -577.000; -880.000
911.801; 2620.900; -284.000; -280.000
912.042;22732.400;  -50.000; -159.000
912.283;47041.900;  404.000;  371.000
912.524; 5602.700; -396.000; -457.000
912.765;  931.800; -193.000;   79.000
913.006;  467.800; -307.000; -338.000
913.247;  146.600; -270.000; -290.000
913.488;   21.800;  -43.000;   30.000
913.729; -106.000; -373.000; -373.000
913.970;  -73.800;  -96.000; -292.000
914.211;  -66.700; -160.000; -198.000
914.452;  -51.500; -118.000;  -11.000
914.693;  103.000;  510.000;  592.000
914.934;   84.500;  510.000;  440.000
915.175;  -48.900;   53.000;  -95.000
915.415;  -98.700; -137.000;   27.000
915.656;  -57.000;  -28.000;  192.000
915.897; -113.500; -252.000;  -82.000
916.137;  -60.000;   74.000;   -9.000
916.378; -179.400; -573.000; -517.000
916.619; -104.200; -159.000;  -63.000
916.859;    5.300;  303.000;  330.000
917.100;  372.300; 1655.000; 1070.000
917.340;  155.800;  930.000;  728.000
917.581;  193.800;  965.000;  789.000
917.821;    5.700; -171.000;  143.000
918.061;   15.700; -199.000;  -72.000
918.302;  -59.000; -152.000; -211.000
918.542;    9.000;  -22.000;    3.000
918.782;   99.900;  369.000;  377.000
919.023;  310.300;  360.000;  427.000
919.263; 3582.900; 8131.000;  202.000
919.503; 1657.000; -137.000;  -54.000
919.743; 1077.400;  390.000;  266.000
919.983;  387.300; -134.000;  -26.000
920.223;  173.500;  135.000;   14.000
920.463;  320.500;  631.000;  554.000
920.703;  237.200;   84.000;   39.000
920.943;  320.600; -110.000;   90.000
921.183;  347.700; -414.000; -405.000
921.423;  897.200;  307.000;  546.000
921.663; 1196.900; -174.000; -257.000
921.903; 2883.200;  237.000;  173.000
922.143;16994.400;  372.000;  389.000
922.383;56980.600;  158.000;  115.000
922.622;14745.500; -120.000;  -15.000
922.862; 1895.400;  796.000;  785.000
923.102;  765.700;  -51.000;   33.000
923.341;  320.000;   59.000;   74.000
923.581;  194.100;  450.000;  360.000
923.821;   81.000;  301.000;  398.000
924.060;   95.700;  351.000;  193.000
924.300;  -88.200;  -16.000; -128.000
924.539;   35.000;  584.000;  473.000
924.779;  116.600;  812.000;  597.000
925.018;  -41.000;  247.000;  353.000
925.257;   59.700;  595.000;  666.000
925.497;   14.000;  447.000;  412.000
925.736;  -61.600;  -35.000;  102.000
925.975;  112.400;  687.000;  669.000
926.214;  143.000;  907.000;  850.000
926.454;  119.500;  706.000;  757.000
926.693;   18.100;  419.000;  543.000
926.932;  159.800; 1021.000;  825.000
927.171;  248.800; 1107.000; 1044.000
927.410;  198.300; 1144.000;  967.000
927.649;  168.000;  924.000;  742.000
927.888;   56.600;  590.000;  564.000
928.127;   48.100;  680.000;  678.000
928.366;  132.800;  842.000;  826.000
928.605;  191.800;  831.000;  737.000
928.844;  522.600; 1451.000; 1393.000
929.083; 1069.000;  770.000;  613.000
929.321;  561.400; 1335.000; 1359.000
929.560;  249.800; 1158.000; 1122.000
929.799;   22.300;  574.000;  475.000
930.038;  268.200; 1025.000; 1394.000
930.276;  -68.300;  334.000;  397.000
930.515;   63.200;  827.000;  681.000
930.753;   29.700;  614.000;  589.000
930.992;   60.300;  664.000;  717.000
931.230;   82.800;  847.000;  847.000
931.469;  467.500; 2162.000;  892.000
931.707;  222.400;  840.000;  751.000
931.946;  198.600; 1278.000; 1344.000
932.184;  220.900; 1437.000; 1175.000
932.423;  179.600; 1265.000;  963.000
932.661;  242.300; 1296.000; 1428.000
932.899;  121.300;  987.000;  821.000
933.137;  116.100;  754.000;  564.000
933.376;  364.900; 1664.000; 1335.000
933.614;  365.700; 1759.000; 1196.000
933.852;  230.700; 1357.000; 1171.000
934.090;  370.800; 1722.000; 1747.000
934.328;  302.300; 1252.000; 1457.000
934.566;  269.700; 1431.000; 1110.000
934.804;  351.700; 1263.000; 1309.000
935.042;  940.000; 1861.000; 1850.000
935.280; 3501.700; 2088.000; 2063.000
935.518; 2746.000; 2113.000; 2007.000
935.756;  640.600; 2481.000; 2316.000
935.994;  365.600; 1808.000; 1751.000
936.231;  763.300; 2890.000; 2950.000
936.469;  449.500; 2367.000; 2378.000
936.707;  419.300; 2220.000; 2167.000
936.945;  586.000; 2825.000; 2882.000
937.182;  535.300; 2679.000; 2741.000
937.420;  718.300; 3602.000; 3031.000
937.657;  956.300; 3365.000; 3478.000
937.895;  772.600; 3331.000; 3488.000
938.133;  758.900; 3540.000; 3528.000
938.370;  751.200; 3896.000; 4191.000
938.607;  890.500; 4488.000; 4205.000
938.845; 1232.500; 5587.000; 5549.000
939.082; 1067.500; 5387.000; 5177.000
939.320; 1220.400; 5799.000; 5728.000
939.557; 1411.900; 6549.000; 6491.000
939.794; 1530.900; 7285.000; 7097.000
940.031; 1954.600; 8421.000; 8368.000
940.269; 2331.000; 9552.000; 9107.000
940.506; 2313.900;10901.000;10507.000

