
Integration time [ms]: 100.000
Averaging Nr. [scans]: 40
Smoothing Nr. [pixels]: 0
Data measured with spectrometer [name]: 2101013U2
Wave   ;Sample   ;Dark     ;Reference
[nm]   ;[counts] ;[counts] ;[counts] 

394.013;   66.790; -450.257; -315.536
394.305;  209.888; -461.258; -419.536
394.596; 1161.183; -676.269; -527.514
394.887; 2829.375; -796.268; -654.518
395.178; 1077.131;  145.736;   11.476
395.470;   86.292; -210.263; -356.526
395.761;  191.915;  305.734;  394.479
396.052;  307.731; -545.284; -306.489
396.343;  311.252; -557.276; -454.503
396.634;   94.720; -200.279; -290.497
396.926;   97.222; -618.268; -565.517
397.217;  100.482;   11.725;  -17.504
397.508;   52.448; -366.273; -154.507
397.799;   31.245; -555.279; -571.497
398.090;   -7.835; -973.280; -902.495
398.381;   92.230;   11.708;  -11.473
398.672;   -7.293; -585.292; -742.473
398.963;   46.202; -348.279; -373.498
399.254;  102.016;   54.709; -209.475
399.545;  -30.113;-1017.266; -883.520
399.836;   67.966; -407.277; -343.501
400.127;   54.256; -205.295; -209.468
400.418;   62.517; -423.274; -392.506
400.709;   42.177; -359.281; -333.493
401.000;   25.695; -268.291; -309.476
401.290;   99.842;  225.698;  115.545
401.581;   63.114; -166.286; -228.485
401.872;   20.453; -542.298; -486.462
402.163;   38.049; -313.296; -252.467
402.454;   87.291; -123.291; -163.475
402.744;   65.140; -844.297; -813.465
403.035;  395.422; -226.293;  -86.471
403.326;  518.809; -366.292; -384.474
403.617;  367.272;  204.701;  165.539
403.907;  258.912; -593.283; -679.490
404.198; 2501.895; -545.307; -599.446
404.489; 6494.217; -618.283; -588.491
404.779; 2069.171; -618.302; -660.456
405.070;  228.174;  -67.304; -174.451
405.360;  331.423; -259.293; -238.472
405.651;  378.507;  125.699;   98.542
405.942;  163.259;  209.714;  127.516
406.232;  234.124; -432.285; -413.487
406.523;  441.716;  641.706;  758.530
406.813;   73.211; -579.286; -644.484
407.104;  300.754;  261.708;  144.527
407.394;  146.649; -604.299; -591.462
407.685;  148.648;  336.715;  222.513
407.975;   47.916; -400.283; -382.490
408.265;  109.006; -134.289; -190.478
408.556;   51.513; -472.291; -459.475
408.846;  151.567;  474.706;  429.530
409.137;   77.965;   -1.288; -216.480
409.427;   36.074; -193.285; -271.487
409.717;   38.351; -776.273; -692.508
410.007;  131.267;    4.715; -170.486
410.298;   77.534; -360.295; -342.469
410.588;   61.446; -495.285; -510.486
410.878;   48.001; -792.287; -873.482
411.168;  107.880; -481.298; -478.463
411.459;  114.785; -295.283; -242.489
411.749;   73.212; -609.292; -507.474
412.039;   53.263; -755.289; -386.480
412.329;  199.609;   40.722;  132.501
412.619;  196.137;  -62.286; -148.485
412.909;  348.334;  639.711;  594.521
413.199;  324.665; -130.280; -251.495
413.490;  376.924;  521.710;  352.523
413.780;  153.844;-1013.279; -913.496
414.070;  318.178;  -46.276;  235.497
414.360;  378.605; -729.278; -666.498
414.650;  415.222; -726.288; -688.482
414.940;  528.293; -538.280; -441.496
415.230;  961.294;   50.712;   74.519
415.520; 6260.857;  155.730;   66.486
415.809;24890.151; -305.281; -125.493
416.099;19062.943; -388.277; -229.501
416.389; 5427.940;  435.726;  236.494
416.679; 3169.521;   91.738;   85.473
416.969;  549.605; -527.287; -503.483
417.259;  478.721;  341.721;  171.503
417.549;  704.125;  522.718;  318.508
417.838; 1715.000; -205.268; -147.518
418.128; 5776.430;  650.710;  492.522
418.418; 4775.883; -491.272; -579.509
418.708; 3238.740;    9.726;  -48.506
418.997;12240.336; -474.275; -480.505
419.287;12707.147; -733.273; -790.507
419.577;12117.210; -160.283; -123.489
419.866;40108.966; -588.277; -498.501
420.156;40581.128; -242.270;  -55.513
420.446; 7132.538; -112.263;  -26.526
420.735;  845.772; -376.271; -446.512
421.025;  827.779; 1830.722;  315.502
421.314;  642.295; -203.271; -226.512
421.604; 1300.642;   89.732;  233.484
421.893;  742.267; -705.271; -602.511
422.183;  238.639; -487.263; -461.526
422.472;  386.443;  -36.271; -107.511
422.762;  468.918; -416.266; -379.521
423.051;  268.004; -916.276; -916.503
423.341;  287.324; -491.273; -439.507
423.630;  413.774; -121.265;   15.477
423.919;  380.285;   58.725;   49.495
424.209;  368.794;  -31.263;   56.473
424.498;  512.872;   68.732;  161.483
424.787; 1147.303; -535.267; -601.518
425.077; 3451.647;   34.735;   29.478
425.366; 4751.100; -734.262; -744.528
425.655;10420.250;  639.727;  259.493
425.945;23311.706; -313.247; -268.554
426.234;12691.048;  117.741;  300.467
426.523; 5255.703;  -86.259; -350.534
426.812; 7166.339;  107.734;  159.480
427.101;10694.864; -127.269; -323.515
427.390;13382.382;  -55.270;  -86.514
427.680; 2865.898; -624.257; -411.538
427.969;  466.634; -330.255; -301.540
428.258;  310.790; -385.257; -477.536
428.547;  534.712;  449.728;  397.490
428.836; 1188.425; -421.253; -398.543
429.125; 1716.755; -199.259;  -72.534
429.414;  810.648; -330.251; -294.548
429.703; 3241.923; -231.251; -213.548
429.992; 9793.127; -938.250; -828.549
430.281; 6332.831; -397.264; -331.524
430.570;  565.539;  -21.252;   32.454
430.859;  524.628;  279.741;  352.466
431.148;  411.101;  636.752;  631.446
431.437;  289.888;  391.748;  367.454
431.725;  169.341; -544.257; -481.536
432.014;  126.458; -845.253; -756.545
432.303;  375.178; -149.239; -105.569
432.592;  583.938; -460.263; -178.525
432.881; 1071.528; -601.248; -437.554
433.169; 6532.435; -343.255;  -61.540
433.458;13230.112;  445.765;  540.424
433.747; 5417.406; -397.261; -289.529
434.036;  859.579; -275.242; -280.564
434.324; 2147.090; -395.249; -379.551
434.613; 3771.047;   40.757;  159.437
434.902; 1220.018;  333.760;  439.433
435.190;  502.702;   75.761;  295.431
435.479;  274.054;  -52.245;   83.441
435.767;  104.387; -411.244; -427.561
436.056;  203.474; -340.242; -294.563
436.345;  367.620; -372.240; -223.568
436.633;  375.435;   60.750;  383.450
436.922;  242.248;  208.760;  414.432
437.210;  518.377; -194.236;    1.426
437.499; 1628.985; -583.235; -432.576
437.787; 1811.502; -339.236;  -10.574
438.075;  450.833;   56.761;  162.430
438.364;  628.335;  -44.238;  250.429
438.652;  366.766; -286.226; -138.592
438.941;  128.605;    3.770;  269.415
439.229;    4.786; -665.252; -466.545
439.517;   35.169; -160.234;  -85.577
439.806;  -24.568; -501.225; -290.595
440.094;  154.627;  377.766;  650.421
440.382;  180.555; -653.233; -302.580
440.670;  173.860; -361.235; -285.576
440.959;   12.900; -347.223; -170.599
441.247;   68.691; -151.229; -109.587
441.535;   76.742; -266.235;   31.423
441.823;   24.599; -497.234; -305.578
442.111;  172.671;  173.771;  327.412
442.400;  458.728; -628.245; -335.559
442.688; 1235.551; -111.234; -620.579
442.976;  848.613; -786.213; -450.617
443.264;   95.464; -324.224; -364.597
443.552;   83.317; -258.226;   51.408
443.840;  163.641;  602.765;  876.423
444.128;   98.105;  265.767;  269.420
444.416;   -5.202; -694.228; -312.588
444.704;   16.780; -465.219;  -92.605
444.992;   64.520;   -0.226;  240.407
445.280;   40.355; -517.230;  -94.585
445.568;   30.542; -694.212; -396.618
445.856;  314.564; -174.221;  357.398
446.143;  693.476;  -54.220;   -7.604
446.431;  550.852;  -25.228;  625.411
446.719;  228.549;  489.783;  675.391
447.007;  178.975;  481.769;  705.416
447.295;  164.947;  597.777;  871.402
447.583;   79.114; -464.229;  -34.587
447.870;  129.810; -434.221; -202.601
448.158;  372.204; -104.230;  129.415
448.446;  278.177; -800.219; -338.604
448.733;  158.090;   13.776;  269.403
449.021;  231.817;   60.788;  341.382
449.309;  167.682; -296.210;  208.379
449.596;  208.970;  128.783;   59.392
449.884;  148.029; -571.222; -325.600
450.172;  163.957; -756.227; -406.590
450.459;  455.172;  645.786;  780.387
450.747; 2525.619; -411.218; -147.608
451.034; 8075.178;  493.772;  889.411
451.322; 6618.800; -413.214; -170.614
451.609;  532.692;  292.777;  508.403
451.897;  627.746; -550.203; -183.634
452.184; 1893.472; -622.223; -400.598
452.472; 1786.378;   97.792;  269.375
452.759;  329.153;  512.781;  864.395
453.047;  112.714; -407.212; -125.617
453.334;   52.560; -732.219; -216.606
453.621;   66.802; -438.214; -161.615
453.909;  102.862;   13.796;  384.368
454.196;   97.433; -299.199; -123.641
454.483;  195.134;  317.798;  540.364
454.771;  126.582; -215.208;  196.374
455.058;   33.110; -316.207;  102.374
455.345;  109.889;   71.807;  344.347
455.632;   99.938; -128.207;  235.373
455.919;   47.381;  -82.196;  182.354
456.207;  -50.362; -774.198; -450.642
456.494;  -12.554; -475.200;  -66.639
456.781;    2.329; -399.202; -198.635
457.068;   54.670; -253.206;  -29.628
457.355;  -10.104; -698.206; -401.629
457.642;   -8.199; -552.205; -290.630
457.929;   -6.445; -778.194; -417.651
458.216;   52.765; -575.212; -354.617
458.503;  227.485; -173.193;  -19.652
458.790;  244.704; -864.208; -630.625
459.077;  268.509;  -77.202;  110.364
459.364;  825.423; -350.195; -210.649
459.651; 1780.293;  -46.206;  220.372
459.938;  817.545; -864.209; -665.623
460.225;  138.838;  132.799;  276.363
460.512;  -51.697; -836.197; -688.645
460.799;   94.643;  -32.218;  320.392
461.086;   68.276; -370.200; -251.640
461.372;   28.888; -509.198; -279.642
461.659;   94.982; -165.196;  108.354
461.946;   48.433; -445.193;  -54.651
462.233;  228.648;  842.800;  888.361
462.519;  362.020; -814.201; -464.639
462.806; 1052.254; -768.197; -497.645
463.093;  909.204; -445.191;  -66.656
463.380;  -25.004; -920.186; -824.664
463.666;   53.906; -259.197;  -18.646
463.953;   98.418; -406.195; -243.648
464.239;  194.293; -173.195;  -77.648
464.526;  380.404;  413.806;  743.350
464.813;  339.191; -565.190; -304.658
465.099;  349.610;  606.807;  607.348
465.386;  303.588;  903.807;  921.348
465.672;   15.754; -694.197; -522.645
465.959;   17.759; -598.188; -520.662
466.245;   13.989; -468.193; -359.652
466.532;   96.341; -109.195;   63.352
466.818;   51.421; -357.186; -216.664
467.104;    2.612; -488.182; -415.672
467.391;  -28.907; -628.189; -459.658
467.677;   27.200; -289.186;    9.335
467.964;    0.475; -682.189; -471.660
468.250;   44.502; -331.186; -160.665
468.536;   75.344;   90.811;  180.341
468.822;  -36.911; -821.184; -574.668
469.109;  146.168;  351.827;  471.311
469.395;  177.673;  729.808;  787.346
469.681;  196.972;   46.811;  156.341
469.967; 1300.677; -699.188; -382.660
470.254; 2826.085; -494.188; -306.662
470.540; 1786.381; -601.196; -476.646
470.826;  251.073; -488.181; -397.675
471.112;  311.943;  288.816;  113.331
471.398;   74.672; -253.183;  -58.670
471.684;   38.001; -626.177; -447.680
471.970;   -5.023; -918.180; -981.675
472.256;   11.897; -521.192; -441.654
472.542;    9.879; -499.171; -434.691
472.828;   11.657; -743.182; -607.672
473.114;   13.173; -380.166; -283.700
473.400;    0.768; -504.175; -293.684
473.686;   34.180; -452.166; -400.701
473.972;   43.333; -230.174; -131.687
474.258;  -50.207; -925.173; -843.689
474.544;  209.093; -183.178;   -2.679
474.830;  342.970;  -65.175;   45.316
475.116;  530.693; -123.190; -196.658
475.401;  715.254; -558.180; -467.676
475.687;  201.603; -725.180; -718.676
475.973;    8.766; -673.181; -770.673
476.259;  233.797;  736.825;  764.315
476.544;  365.659; -539.176; -437.682
476.830;  888.850; -398.172; -322.690
477.116;  788.008; -430.177; -336.682
477.401;  135.228;  346.820;  358.324
477.687;  -16.232; -289.175; -405.684
477.973;   50.644;   21.819;   28.326
478.258;  -16.750; -448.163; -348.706
478.544;   47.708;   21.815;   61.334
478.829;  -51.540; -818.171; -738.692
479.115;  -55.425; -749.172; -651.690
479.401;  -25.747; -444.174; -449.686
479.686;   17.277; -253.180;  -74.676
479.972;  -32.452; -886.178; -776.680
480.257;   41.750; -258.166;  -65.700
480.542;    1.839; -614.170; -469.693
480.828;  210.266; 1288.824; 1392.317
481.113;  -37.961; -464.176; -426.683
481.399;   -8.326; -236.161; -202.711
481.684;  -63.201; -620.166; -462.700
481.969;   10.063; -158.159;  -73.713
482.255;  -16.650; -439.169; -285.695
482.540;   -1.626; -569.178; -441.680
482.825;    7.966; -395.187; -404.663
483.110;   99.303;  -85.169; -105.696
483.396;  218.835; -840.157; -652.718
483.681;  511.808;  543.826;  730.313
483.966;  185.182; -696.160; -700.712
484.251;    1.282; -404.174; -310.687
484.536;   -5.690; -356.165; -378.703
484.822;    0.485; -205.173; -218.687
485.107;  -30.277; -599.152; -502.726
485.392;  128.141;  662.836;  541.296
485.677;   80.763;  354.832;  163.302
485.962;   80.607;  160.843;  270.283
486.247;   82.633;  -14.162;   -8.707
486.532;   42.201; -178.166; -325.701
486.817;  157.394;  381.839;  431.291
487.102;  116.431; -453.154; -514.722
487.387;  709.787; -637.156; -652.718
487.672; 1287.146; -154.164;  -38.705
487.957;  790.926; -394.160; -286.711
488.241;  207.690; -290.150; -314.729
488.526;  789.950; -280.152; -148.726
488.811; 1284.100; -881.177; -818.680
489.096;  943.884; -666.154; -702.723
489.381;  521.996;    3.847;  162.275
489.666;  408.049; -428.161; -510.710
489.950;  163.612;  558.846;  627.277
490.235;  -35.090; -480.151; -458.728
490.520;  -48.627; -756.161; -723.710
490.804;  -54.211; -827.156; -736.719
491.089;    3.706; -469.149; -299.732
491.374;   26.795; -132.164;  -75.704
491.658;   -9.182; -817.147; -717.735
491.943;  148.529; -657.152; -609.727
492.227;  226.052; -178.155;  -38.721
492.512;   53.932; -294.157; -341.717
492.797;  -69.900; -713.149; -716.731
493.081;  -47.779; -588.147; -598.735
493.366;  -41.900; -751.161; -635.711
493.650;  203.249;  831.859;  917.254
493.935;   33.967; -648.147; -447.734
494.219;  -39.714; -778.142; -687.743
494.503;  -58.480; -585.150; -487.730
494.788;   40.948;   46.842;   74.285
495.072;  103.542;  184.850;  434.271
495.356;  184.559; -463.148; -343.733
495.641;  480.252; -812.146; -736.736
495.925;  440.819; -976.156; -903.719
496.209;   26.806; -599.149; -451.732
496.494;  -40.113; -763.142; -544.744
496.778;    5.506; -364.154; -360.722
497.062;  -50.782; -819.156; -627.719
497.346;  -35.147; -869.160; -640.711
497.631;  137.088;  580.852;  560.266
497.915;   74.813;  -64.145;  175.261
498.199;   53.410; -341.157; -277.718
498.483;   34.473; -562.152; -508.725
498.767;  183.068;  301.850;  300.271
499.051;  186.978; -126.149; -100.732
499.335;   28.476; -693.149; -739.731
499.619;  -37.248; -381.129; -423.767
499.903;   15.151; -272.155;  -65.721
500.187;   37.588; -588.153; -316.724
500.471;   23.378; -796.152; -595.727
500.755;   99.223;   62.839;  -96.710
501.039;   18.801; -270.155; -357.721
501.323;   83.276;  -21.141;  264.254
501.607;   26.626; -447.163; -503.706
501.891;   -3.589; -607.156; -512.718
502.174;  -49.251; -726.144; -585.741
502.458;   61.257;   89.849;  370.273
502.742;   59.125; -180.138; -191.751
503.026;  111.217; -412.147; -254.734
503.310;  190.862; -437.159; -375.713
503.593;  113.768; -464.147; -325.735
503.877;  123.241; -232.133; -156.760
504.161;  178.341;    2.847;  -50.724
504.444;  126.376; -841.158; -710.716
504.728;  493.769; -487.164; -522.704
505.012;  747.115; -257.150;  -76.729
505.295;  563.674; -417.161; -212.711
505.579;  580.693; -256.156; -496.719
505.862;  783.359; -555.145; -333.738
506.146;  804.414; -681.159; -758.714
506.429;  421.240;  568.841;  461.286
506.713;   61.737; -732.151; -667.728
506.996;  327.806;   90.846;  295.278
507.280;  371.414; -633.165; -474.703
507.563;  262.624; -469.155; -261.721
507.847;  113.064; -423.153; -112.724
508.130;  102.050; -665.161; -456.711
508.413;  120.970; -758.167; -577.700
508.697;  256.796; -151.167;   12.300
508.980;  171.841; -422.153; -312.724
509.263;    6.771; -466.155; -450.720
509.547;   47.239; -124.150;   82.271
509.830;   36.752; -172.160;  140.289
510.113;   82.568;  128.844;  298.281
510.396;   33.221; -530.152; -300.725
510.680;  134.961; -818.145; -812.738
510.963;  525.285;  184.846;  180.277
511.246;  447.722; -493.150; -357.730
511.529;  245.141; -482.145;  -83.739
511.812;  408.812; -250.134;   10.241
512.095;  287.109; -740.151; -396.728
512.378;   75.573; -317.147; -245.736
512.661;   34.058; -703.137; -623.753
512.944;   41.913; -750.142; -637.744
513.227;   60.330; -170.137; -171.752
513.510;   29.499; -479.144; -671.741
513.793;   32.430; -485.140; -435.747
514.076;  119.223;  -43.127;  -39.771
514.359;   95.382; -294.149; -135.732
514.642;  105.591; -442.142; -567.744
514.925;  799.454;  581.860;  561.253
515.208; 1091.734; -498.134; -443.758
515.491;  704.923; -276.133; -182.761
515.773;  386.078; -410.143; -337.742
516.056; 2216.414;  249.864;  409.246
516.339; 2975.543; -754.136; -652.755
516.622; 1921.720; -518.150; -488.730
516.904; 1118.160;  882.857;  975.257
517.187;  505.779; -730.138; -523.752
517.470;  389.609; -568.143; -510.743
517.752;  441.621; -624.136; -470.756
518.035;  366.966; -708.139; -725.749
518.318;  394.143; -799.136; -744.755
518.600; 2623.026; -300.132; -325.762
518.883; 3614.516;  310.858;   88.256
519.165; 1731.896; -585.138; -426.751
519.448;  377.101;  -61.132;  -19.762
519.730;  204.430; -573.126; -415.773
520.013;  295.519;  588.867;  664.240
520.295;  744.064;  -94.134;  -15.759
520.578; 1719.964; -335.131; -305.764
520.860; 1915.101; -254.132;   56.238
521.143; 1021.198; -763.135; -584.756
521.425;  498.318; -251.125; -279.775
521.707;  712.223; -622.127; -380.771
521.990; 1928.123; -199.127;  167.229
522.272; 2172.957; -116.140;   -4.748
522.554;  929.329; -237.143; -157.742
522.836;  329.062;  -24.134;   99.241
523.119;  212.540; -496.148; -189.734
523.401;  159.496; -448.130; -314.766
523.683;  108.408; -865.137; -693.753
523.965;  283.677;  408.862;  260.248
524.247;  292.965;   54.878;  170.220
524.529;  215.939; -451.134; -367.759
524.812;  362.873;   -3.130;  191.234
525.094;  909.501; -773.138; -631.751
525.376; 1474.427; -143.124;   78.223
525.658;  879.616; -441.136; -339.754
525.940;   31.761; -805.131; -671.764
526.222;   30.919; -188.136;  -88.755
526.504;  115.359; -190.131;   32.237
526.786;  170.742; -960.133; -647.760
527.068;  292.183; -124.123;  -67.778
527.349;  107.687; -865.137; -774.754
527.631;  137.376; -137.132;   22.238
527.913;  134.147; -664.127; -450.771
528.195;  196.436; -761.125; -639.774
528.477;  267.384;  -93.134;  -30.758
528.759;  150.498; -648.130; -522.766
529.040;   72.607; -569.123; -293.778
529.322;   43.789; -235.125;  -10.774
529.604;  133.700;  -47.130;   93.233
529.886;  127.855; -546.126; -302.773
530.167;  114.642;  232.870;  192.235
530.449;   39.547;    1.853;   63.265
530.731;   26.614; -572.122; -459.779
531.012;   77.310; -513.120; -216.784
531.294;   79.749; -118.116;  -43.792
531.575;  163.893;  290.875;  538.225
531.857;   65.204; -548.135; -266.757
532.138;  106.450; -113.141;   40.254
532.420;  161.450;  294.865;  403.244
532.701;  207.619; -722.133; -751.760
532.983;  329.772;  232.867;  182.239
533.264;  107.878; -243.126;  175.228
533.546;  -40.431; -491.136; -508.755
533.827;   32.641;  173.867;   -1.759
534.109;   35.254; -352.135;  -80.757
534.390;   85.980; -725.132; -582.762
534.671;  247.825; -270.135;  -82.756
534.953;  154.784; -751.123; -611.779
535.234;   27.559; -426.117; -255.789
535.515;  -73.782; -891.119; -735.785
535.796;  -15.882; -431.128; -193.770
536.078; -107.573;-1050.124; -904.777
536.359;  -12.340;  -22.123;    3.221
536.640;   -6.612; -480.125; -197.774
536.921;  165.981;  225.871;  143.232
537.202;  385.898;  -87.138;  -16.751
537.483;  485.114;  251.869;  377.236
537.764;  192.142;   17.870;   98.235
538.045;  -56.217; -543.134; -371.758
538.326;  -33.368; -596.129; -447.768
538.607;   30.174; -686.127; -476.771
538.888;  176.726;   98.879;    5.218
539.169;  195.770; -704.122; -535.781
539.450;  334.154;  236.871;   16.233
539.731;  221.105; -361.121; -182.783
540.012;  151.810;  199.880;  412.216
540.293;   81.197;   82.876;  158.224
540.574;   -3.930; -895.113; -717.796
540.855;  467.278;  435.879;  377.218
541.136;  544.843;   47.878;  139.220
541.416;  282.249; -161.130; -220.766
541.697;  209.384; -274.131; -170.763
541.978; 1114.177; -270.135; -315.757
542.259; 1389.199; -211.127; -236.771
542.539;  656.193; -191.116; -186.790
542.820;  177.143;  461.875;  480.225
543.101;  137.362;  -52.145;  -77.738
543.381;   38.648; -638.127; -591.771
543.662;  280.996;  159.873; -254.771
543.942;  621.894; -751.127; -830.770
544.223; 1139.669;  193.878;  161.219
544.504;  730.702; -275.124; -182.777
544.784;  622.230; -592.126; -408.773
545.065; 1763.897;  104.884; -254.791
545.345; 2066.768;  227.881;   14.215
545.626; 1347.144;  -14.113; -108.796
545.906;  951.766;   77.869;   98.235
546.186;  376.359;   92.874;  -95.773
546.467;  207.054;   99.877;  -95.778
546.747;  340.268;  264.884;  327.210
547.027;  377.725;   91.876;  111.223
547.308;  361.893; -376.127; -530.770
547.588;  414.683;  299.871;  371.232
547.868;  192.592;  458.870;  588.235
548.149;  199.079;  609.885;  593.207
548.429;  139.847; -347.127; -299.771
548.709;  208.509; -645.120; -461.784
548.989;  512.478;   84.882;   88.213
549.269; 2244.899;   10.868;  139.239
549.550; 5229.859;  215.877;  117.222
549.830; 4621.588; -758.111; -556.799
550.110;  922.445; -468.110; -320.801
550.390;  891.089; -128.122;  -56.779
550.670; 1230.865; -868.114; -783.795
550.950;  837.353; -509.121; -471.782
551.230;  197.099;  549.879;  460.218
551.510;   -3.648; -381.121; -326.782
551.790;   39.078; -173.109; -127.803
552.070;  250.554;  940.877; 1181.223
552.350;  437.147; -492.119; -377.786
552.630;  643.172;   -2.121;   77.219
552.909;  373.847;  181.884;   73.209
553.189;  251.831;  -49.132;   33.237
553.469;  203.672; -703.119; -514.786
553.749;  207.650; -469.127; -357.772
554.029;  171.988;   33.883;  -24.790
554.308;  149.309; -154.115;  -37.794
554.588;   69.567; -196.128; -204.770
554.868;   78.204; -366.121;  -47.782
555.147;  163.056; -114.115;  -46.793
555.427;  629.925; -260.116; -250.792
555.707; 4183.304; -284.115; -200.793
555.986; 5116.366; -719.111; -538.800
556.266; 2667.217;   23.884;   72.210
556.546;  133.052; -888.121; -675.782
556.825;  275.788; -657.114; -556.794
557.105; 1912.365; -125.128;   17.230
557.384; 2245.771;  122.884;  187.209
557.664;  893.574; -717.116; -508.792
557.943;  121.803; -557.121; -411.782
558.222;  200.381; -345.118; -344.788
558.502;  307.257; -116.115;  -76.793
558.781;  522.078;  194.885;  499.208
559.061;  434.581; -232.118; -227.788
559.340;  307.611;  302.883;  353.211
559.619;  761.191;   93.884;  148.210
559.899; 1106.013; -239.117; -266.789
560.178; 1027.507; -778.115; -593.793
560.457; 3365.914; -623.117; -562.790
560.736; 4740.942; -472.111; -482.800
561.015; 3147.013; -500.128; -502.769
561.295;  406.498;  180.893;  215.193
561.574;  345.879;  119.885;  116.207
561.853;  523.182;  274.891;  303.197
562.132;  524.909;  -45.114;  182.206
562.411;  475.772;  396.879;  553.219
562.690;  155.077; -592.115; -458.792
562.969;  152.052;  472.888;  630.203
563.248;  490.770; 2966.878; 2487.219
563.527;  290.991; -290.111; -408.800
563.806;  414.322; -650.127; -521.771
564.085;  466.038; -297.105; -206.810
564.364;  265.791; -594.117; -405.790
564.643;  529.648; -276.121; -223.781
564.922; 2008.051;  221.890;  397.198
565.201; 2057.130; -640.109; -700.803
565.479;  889.301; -297.115; -219.792
565.758;  366.890; -810.128; -712.770
566.037;  493.906; -155.109; -100.803
566.316;  265.397; -286.116;  -28.791
566.595;   41.804;  -17.115;  -12.793
566.873;   88.943; -166.111;  -79.801
567.152;  -54.674; -490.113; -590.797
567.431;   -3.583; -113.116;    6.210
567.709;    8.923; -344.107; -212.807
567.988;  284.838; -810.114; -769.794
568.266;  563.804; -160.115;  -68.793
568.545;  423.761; -644.100; -514.819
568.824;  598.575;  160.885;  356.208
569.102;  607.662; -351.114; -235.794
569.381;  249.025; -492.116; -407.792
569.659;  -41.228; -553.113; -553.796
569.938;   43.568; -743.122; -465.780
570.216;  114.459; -225.109; -225.804
570.494;  -26.909; -632.114; -572.795
570.773;   28.001;  202.879;  114.218
571.051;    0.757; -373.123; -357.778
571.330;   67.570; -221.113; -174.796
571.608;   44.429; -181.098; -173.823
571.886;  -55.989; -671.111; -581.799
572.164;  -56.896; -739.121; -621.782
572.443;  -28.183; -562.105; -512.811
572.721;  -47.835; -399.117; -289.790
572.999;  -16.992; -280.117; -168.788
573.277;   85.661;  379.894;  620.191
573.555;  309.938;   94.894;   37.190
573.834; 1445.758;  -86.117; -114.788
574.112; 1679.776;  880.893;  811.193
574.390;  497.893; -143.111;  -96.801
574.668;    6.127;  -91.112;  -61.797
574.946;  -16.387; -165.106; -187.810
575.224;   -3.320;   71.891;  -16.803
575.502;  -28.831; -200.116; -204.791
575.780;  -94.722; -767.112; -829.798
576.058;  217.742; 1589.889; 1004.200
576.336;  -20.503; -210.110; -129.801
576.614;  -53.521; -511.112; -340.798
576.891;   70.158; -711.115; -823.794
577.169;  519.817; -158.108; -285.805
577.447;  599.025;  169.893;  202.193
577.725;  270.633;  629.888;  854.201
578.003;   18.256;  -71.112; -371.798
578.280;   98.526; -208.104; -242.812
578.558;   73.682; -450.115; -422.793
578.836;  139.590; -210.114; -145.795
579.114;   47.727; -630.112; -670.797
579.391;   63.410;   -6.117;  -18.789
579.669;  -84.391; -595.114; -704.794
579.947;  191.597; -326.107; -127.806
580.224;  350.972; -692.107; -524.806
580.502;  342.951;  127.893;   76.193
580.779;   31.740;  -42.117;   75.210
581.057;  -66.991; -584.109; -470.804
581.334;  -98.084; -726.102; -695.815
581.612;   27.589;   54.895;  511.190
581.889;  -32.720;  -83.101; -129.818
582.167;  -35.356; -298.099; -190.821
582.444; -102.326; -845.102; -814.817
582.721;   93.700;  657.899;  715.183
582.999;   48.266; -326.100; -167.821
583.276;  556.512; -812.123; -713.779
583.553;  784.044; -364.102; -294.816
583.831;  247.323; -607.104; -631.812
584.108;   55.565;  349.892;  174.195
584.385;   14.616; -122.102;  -98.815
584.662;  -63.606; -651.111; -828.801
584.940;   23.218;  204.889;  204.199
585.217;  -13.328;  -73.113; -303.796
585.494;   31.077;   71.890;  118.198
585.771;  198.710; -250.109; -354.804
586.048;  539.722; -196.113;  -76.796
586.325;  341.246; -721.110; -773.801
586.602;   70.552;  230.896;  213.188
586.879;  -14.562; -499.100; -580.820
587.156;   48.365; -156.105; -331.810
587.433;  -40.228; -701.102; -667.817
587.710;   74.454;  152.888;  234.202
587.987;  309.520; -264.105; -236.811
588.264;  818.806;  315.888;  387.202
588.541; 1408.479;  -61.104;   26.187
588.818; 2824.212;   72.892;  171.196
589.095; 2430.550; -163.104; -174.812
589.371;  374.808; -459.109; -414.804
589.648;   29.051; -581.107; -437.807
589.925;   45.341; -517.114; -621.795
590.202;   25.379; -741.112; -607.798
590.478;   87.897; -166.105;  -73.811
590.755;  275.218; -241.108; -132.806
591.032; 2631.899; -741.110; -699.802
591.308; 3686.619; -732.094; -790.831
591.585; 1873.398; -573.110; -560.802
591.862;  176.424;-1056.102; -950.817
592.138;   76.791; -475.108; -474.805
592.415;  173.552; -486.104; -495.813
592.691; 1522.175;  460.896;  518.188
592.968; 1957.381; -208.098; -123.824
593.244;  924.143; -695.116; -595.790
593.521;   72.749; -105.102;  -42.817
593.797;  -32.260; -810.122; -720.780
594.074;  343.894; -611.096; -588.826
594.350;  689.430;  828.905;  729.172
594.626;  310.069; -303.111; -283.801
594.903;  119.124; -643.101; -645.817
595.179;  193.606;  243.896;  418.187
595.455;   16.727; -136.107; -150.807
595.731;   -2.342;  -19.103;  -38.814
596.008;  -40.312; -464.111; -434.800
596.284;   31.565; -187.100; -242.820
596.560;   56.451; -501.093; -493.833
596.836;  196.342; -173.105;  -70.810
597.112;  358.141; -582.108; -437.805
597.388;  304.416;  -49.097;  -48.826
597.665;  103.200;  437.887;  530.203
597.941;  -64.245; -572.089; -658.839
598.217;   18.877; -323.110; -293.802
598.493;  283.186;   61.891; -204.804
598.769;  536.784; -175.100;  -50.819
599.045;  338.044; -490.108; -562.806
599.321;   49.214; -193.100; -261.820
599.597;  143.686; -355.109; -476.804
599.872;  512.154;  409.896;  429.187
600.148;  381.818;  -61.097; -172.826
600.424;  310.924;   91.893;  202.193
600.700;  264.826; -170.107; -280.807
600.976;  125.162; -442.097; -464.825
601.252;  278.182; -226.109; -272.803
601.527;  233.105; -833.104; -840.813
601.803;  150.022; -453.105; -404.812
602.079;  187.759; -124.100; -118.819
602.354;  599.411; -620.092; -531.835
602.630;  882.797; -140.113; -482.796
602.906; 2440.705; -910.101; -863.818
603.181; 7197.847; -627.119; -534.786
603.457; 6073.141;   98.903; -278.826
603.733;  888.556; -605.120; -626.783
604.008;  989.763; -245.106; -164.810
604.284; 3261.376; -636.101; -580.817
604.559; 2808.808;   -3.112;  -42.799
604.835;  518.691; -163.105; -225.810
605.110;  464.919; -732.099; -892.821
605.385;  738.679;  224.907;  267.167
605.661;  692.032; -625.095; -729.829
605.936; 1243.770; -664.108; -737.806
606.211; 1076.564;  -17.103; -170.815
606.487;  223.661; -329.114; -376.794
606.762;   20.447; -791.119; -745.786
607.037;  -29.683; -501.105; -433.810
607.313;  -46.674; -589.096; -574.828
607.588;  -10.737; -375.106; -137.810
607.863;   42.479;  -28.101; -143.818
608.138;  182.375;  513.890;  516.198
608.413;   39.423; -576.099; -592.822
608.688;   53.291; -203.108; -267.805
608.964;  217.007; -509.106; -218.809
609.239;  255.989; -107.105; -212.810
609.514;  266.622;  281.895;  240.188
609.789;  684.601; -187.104; -716.812
610.064;  896.000; -435.096; -609.827
610.339;  937.208; -855.109; -799.804
610.614; 1268.790; -131.100; -315.820
610.889;  713.047;  215.895;  107.188
611.163;   48.198; -407.104; -591.812
611.438;   91.087;   81.886; -167.794
611.713;   14.351; -467.101; -499.817
611.988;   53.878; -144.101; -328.818
612.263;  -21.534; -771.102; -717.815
612.538;  217.796;  385.887;  251.204
612.812;  196.541; -832.100; -911.820
613.087;  152.754; -358.098; -338.823
613.362;  -42.098; -497.107; -557.807
613.637;   35.136;  261.897;  138.186
613.911;   -7.839; -256.092; -345.835
614.186;  128.975; -249.107; -292.807
614.460;  734.781; -842.081; -758.854
614.735;  851.454;  -55.087;  -17.843
615.010;  181.919;   43.912;  -82.841
615.284;  247.015;  360.892;  246.195
615.559;  394.735; -792.092; -955.835
615.833;  311.546;  -76.099;  -87.822
616.108;    3.572; -225.090; -390.837
616.382;  141.856;  274.913;  402.156
616.656;  169.098; -241.090; -232.837
616.931;  547.647; -785.099; -700.822
617.205; 1133.830; -973.104; -979.813
617.480; 1040.666;  -91.125;    6.225
617.754;  174.664; -396.125; -128.774
618.028;    5.909; -369.129; -382.768
618.302;   87.564;   73.892;  -25.805
618.577;  -49.513; -371.103; -518.815
618.851;  -53.771; -399.109; -600.803
619.125;  -52.886; -335.134; -378.759
619.399;  -48.019; -244.104; -374.813
619.673;  -36.349; -330.115; -515.792
619.947;  -57.960; -333.114; -448.795
620.222;   -8.855; -198.110; -204.801
620.496;    2.178;  -47.121;  -96.782
620.770;    7.970; -187.122;  -93.781
621.044;  212.040;  323.895;  346.190
621.318;  759.106; -653.120; -614.783
621.592;  707.754; -430.121; -409.783
621.866;  387.784; -476.112; -572.799
622.140;   31.519; -207.116; -356.791
622.413;   55.788;  138.889;  112.200
622.687;  -48.974; -746.101; -492.817
622.961;    6.189; -130.108; -143.805
623.235;  -50.411; -633.111; -661.800
623.509; -105.554; -816.105; -848.811
623.783;   16.548;  -12.107;   48.193
624.056;  -17.918; -254.120; -280.783
624.330;   45.452;   63.888;   -3.797
624.604;   53.541; -271.116; -355.790
624.877;   65.274;  180.890;   26.198
625.151;   43.460; -249.114; -238.794
625.425;  -37.617; -150.103; -283.814
625.698;  -61.933; -367.119; -374.785
625.972; -103.523; -799.110; -765.802
626.245;   79.243;  685.884;  484.210
626.519;  -50.539; -426.120; -340.784
626.792;  -44.249; -192.107; -380.807
627.066;  -97.437; -485.122; -662.779
627.339;  -97.452; -736.110; -663.802
627.613;   43.760;  351.880;  148.216
627.886;   44.429;  187.891; -612.803
628.160;  -14.594;  312.880; -161.783
628.433;  -92.256; -695.125; -703.775
628.706;  -75.664; -517.120; -615.784
628.979;   23.450;  296.876;  117.223
629.253;  -62.703; -785.119; -833.786
629.526;  391.078; -334.126; -253.772
629.799;  376.408; -641.123; -479.778
630.072;  178.685; -497.128; -516.769
630.346;  -62.007;-1115.116;-1080.790
630.619;  476.727; -467.107; -545.808
630.892;  668.315;  709.889;  593.200
631.165;  349.506;  790.896;  679.187
631.438;  -78.669;-1092.112;-1055.798
631.711;   48.086;  453.877;  257.221
631.984;  -54.212; -523.117; -624.789
632.257;  -67.165; -636.117; -681.789
632.530;  -54.808; -412.119; -433.785
632.803;   21.383; -109.115;    7.207
633.076;  -59.371; -360.123; -422.777
633.349;    8.264;  173.872;  121.231
633.622;  -46.734; -187.119; -240.785
633.895; -121.568; -903.120; -823.783
634.167;  -69.120; -496.126; -525.773
634.440;  -13.101;  -19.116; -137.792
634.713;    1.545;  -22.119; -120.786
634.986;   88.479;  593.871;  453.233
635.258;  -80.469; -507.115; -597.793
635.531;   95.855;  742.882; -343.788
635.804;  -33.188; -303.117; -318.789
636.077;  -88.305; -830.116; -852.791
636.349;   -2.896; -586.115; -474.793
636.622;  383.252; 1695.874; 1392.228
636.894;  243.662; -474.120; -909.784
637.167;  162.321; -836.127; -789.771
637.439;   21.918; -278.128; -213.770
637.712;  -40.196; -312.126; -293.772
637.984;  -82.579; -635.116; -707.791
638.257;  375.455;  515.877;  488.222
638.529;  601.170; -881.125; -924.776
638.802;  266.135; -508.128; -449.769
639.074; -118.731; -927.122; -952.781
639.346; -115.095; -942.135; -930.757
639.619;   -5.585;  -79.142; -319.744
639.891;   -1.562;  -83.122; -168.779
640.163;  -82.385; -689.122; -756.780
640.435;   20.316;  273.878;  103.220
640.708;    9.368;  -72.122; -132.780
640.980;  -19.455; -366.122; -362.781
641.252;  198.547;  -25.121;  -71.781
641.524; 1817.224;  580.879;  573.219
641.796; 1890.501;-1094.121; -907.782
642.068;  345.903; -191.121; -300.782
642.340;  -42.046; -486.121; -566.783
642.613;   34.906;  294.880;  323.217
642.885;  -90.667; -787.120; -878.783
643.157;  -41.240; -810.120; -658.784
643.428;   71.612;  170.880;  218.216
643.700;  -62.761; -498.120; -425.784
643.972;  -29.560;  -16.119; -133.785
644.244;  -80.858; -474.119; -559.785
644.516;  -61.106; -250.119; -114.786
644.788;   61.871;  662.881;  548.214
645.060;  -20.652;  -12.119; -124.786
645.332;  -88.025; -525.118; -535.787
645.603;   40.902;  479.882;  342.213
645.875;  -75.922; -334.118; -369.787
646.147;  159.255; 1487.882; 1242.212
646.418;  -74.568; -931.117; -918.788
646.690;  176.434; -714.117; -715.789
646.962;   26.436; -413.117; -451.789
647.233;  -10.112;   15.883;   11.211
647.505; -111.336; -595.117; -475.790
647.776;   19.466;  328.884;  229.210
648.048;  -10.832; -248.116; -418.790
648.320;  -70.705; -752.116; -679.791
648.591; -158.828;-1055.116; -958.791
648.862;  -76.501; -505.116; -577.792
649.134;   14.876;  115.885;  198.208
649.405;  -40.273; -661.115; -618.792
649.677;  -60.621; -475.115; -598.793
649.948;   -2.494; -181.115; -296.793
650.219;   -9.642;  -37.115; -147.793
650.491;  -78.515; -431.114; -520.794
650.762; -123.738; -705.114; -731.794
651.033;  -76.012; -437.114; -424.795
651.304;  -91.085; -743.114; -728.795
651.576;  -60.933; -680.114; -645.795
651.847;  -41.081; -250.113; -140.796
652.118;   -3.129;  -32.113; -189.796
652.389; -115.727; -639.113; -722.796
652.660;  -30.850; -147.113;  -89.797
652.931; -132.874; -897.112; -871.797
653.202;  -83.747; -382.112; -541.798
653.473;  -71.720; -633.112; -533.798
653.744;  168.232; -595.112; -590.798
654.015;  137.184; -356.112; -303.799
654.286;  -64.764; -642.111; -663.799
654.557;  -51.838; -586.111; -521.799
654.828; -160.511;-1114.111;-1088.800
655.099;  -91.109; -404.111; -291.800
655.370; -104.382; -427.111; -543.801
655.641; -124.105; -656.110; -714.801
655.911;  -96.703; -618.110; -638.801
656.182;   32.749;  437.890;  387.198
656.453;   80.425;  830.890;  746.198
656.724;  -75.523; -466.110; -426.802
656.994;  -80.046; -553.109; -568.803
657.265; -107.944; -862.109; -873.803
657.536;  -88.317; -500.109; -377.804
657.806; -103.740; -561.109; -593.804
658.077; -146.414; -866.109; -950.804
658.347;  -87.612; -523.108; -598.805
658.618; -113.635; -646.108; -694.805
658.888;  -33.058;  -41.108;  112.195
659.159;  -81.681; -432.108; -548.806
659.429;  -27.129; -292.108; -349.806
659.700;   36.348; -435.107; -390.807
659.970;  -16.426; -370.107; -359.807
660.241;   21.151; -754.107; -921.807
660.511;  524.928; -147.107; -174.808
660.781;  102.205; -793.106; -748.808
661.052;  -46.293; -222.106; -381.808
661.322;  -18.541;   21.894;   -9.809
661.592;    9.010;  257.894;  148.191
661.862;  -77.688; -369.106; -382.810
662.133; -104.211; -551.105; -502.810
662.403; -121.409; -770.105; -676.810
662.673;  -59.807; -256.105; -213.811
662.943;  -94.280; -612.105; -551.811
663.213;    9.997;  -85.105;  -81.811
663.483;  -82.227; -593.104; -568.812
663.753;  -56.775; -194.104; -152.812
664.023;  -25.148;   68.896;  -32.813
664.293;  -61.171; -319.104; -126.813
664.563; -113.969; -694.104; -648.813
664.833; -122.817; -743.103; -608.814
665.103; -126.941; -730.103; -793.814
665.373; -119.014; -766.103; -806.814
665.643;  -82.712; -863.103; -918.815
665.913;   40.990; -534.103; -714.815
666.182;  164.117; -685.102; -719.816
666.452;  270.119;  -22.102;  -89.816
666.722;  -26.979; -724.102; -784.816
666.992; -122.753; -948.102; -921.817
667.261;  -95.226; -824.102; -808.817
667.531;  195.701;  134.899;   45.183
667.801;  550.603; -440.101; -412.818
668.070;  235.980;  714.899;  697.182
668.340;  -87.318; -883.101; -840.819
668.609;   84.133;  588.900;  301.181
668.879;  -80.615; -490.100; -558.819
669.149;  -72.488; -539.100; -516.820
669.418;  -97.361; -698.100; -726.820
669.688;  -32.234; -482.100; -666.820
669.957;   76.218; -423.099; -546.821
670.226;  -29.080; -268.099; -331.821
670.496;  -98.329; -431.099; -635.822
670.765;  -80.952; -418.099; -501.822
671.034; -120.450; -872.099; -828.822
671.304;  -16.073;   55.902; -111.823
671.573; -133.021;-1085.098; -957.823
671.842;   90.656; -380.098; -294.823
672.112;   31.957; -692.098; -586.824
672.381;    5.759; -239.098; -214.824
672.650; -123.989;-1005.097;-1021.825
672.919;  -97.487; -631.097; -507.825
673.188;  -83.710; -681.097; -878.825
673.457; -156.283;-1101.097;-1143.826
673.726;  -67.606; -579.096; -646.826
673.995;  -43.155; -533.096; -479.826
674.265;  -17.928; -263.096; -333.827
674.534;    4.024; -183.096; -235.827
674.802;   15.101; -618.096; -703.828
675.071; 1013.778; -886.095; -801.828
675.340; 4187.005; -464.095; -339.828
675.609; 1362.181;  103.905;   82.171
675.878;  104.558; -949.095; -893.829
676.147;   36.185;  -26.095;   -8.829
676.416;   80.362; -210.094; -294.830
676.685;  766.939; 1000.906; -622.830
676.953;  131.941; -603.094; -452.831
677.222;  -30.682; -193.094; -273.831
677.491;  -24.356;  -24.094; -127.831
677.759;  -22.079;   11.907;  172.168
678.028;  -16.752; -279.093; -222.832
678.297;  -26.000;   71.907;  197.168
678.565; -150.173; -898.093; -944.833
678.834;  -45.271; -311.093; -268.833
679.102;  -72.395; -411.092; -391.834
679.371; -149.068; -898.092; -727.834
679.639; -128.091; -797.092; -786.834
679.908; -110.064; -794.092; -724.835
680.176; -137.862; -895.091; -941.835
680.445;  -71.885; -346.091; -352.835
680.713;  -17.558;  -58.091;  -23.836
680.982;  -86.207; -523.091; -525.836
681.250;  -98.480; -578.091; -507.837
681.518; -105.878; -534.090; -751.837
681.787;  -23.326; -204.090; -167.837
682.055;  -59.624; -490.090; -422.838
682.323; -152.122; -993.090; -992.838
682.591;   35.879; -216.090; -538.838
682.859;   96.056;    9.911;  -35.839
683.128;   20.858;  232.911;  497.161
683.396; -164.640;-1102.089;-1122.840
683.664;  -28.613; -241.089;   21.160
683.932;    3.639;  144.911;  -76.840
684.200;  -77.934; -576.088; -320.841
684.468;  -24.133;  -73.088; -124.841
684.736;  -44.456; -214.088; -175.841
685.004; -115.529;-1024.088; -982.842
685.272;  -41.427; -880.088; -774.842
685.540;  -72.350; -499.087; -557.843
685.808;  -75.398; -651.087; -682.843
686.076; -104.222; -894.087; -969.843
686.343;  -43.370; -601.087; -815.844
686.611;   41.232; -195.087; -224.844
686.879;  441.384; -530.086; -553.844
687.147; 3474.486; -483.086; -480.845
687.414; 1000.113;  -12.086; -169.845
687.682;   25.365; -658.086; -757.846
687.950;  317.791;  259.915;  263.154
688.217;   19.993; -792.085; -760.846
688.485;    4.695; -632.085; -636.847
688.753;  546.172;  -11.085; -102.847
689.020;  183.524; -820.085; -851.847
689.288;  -94.224; -853.084; -787.848
689.555;  -25.323; -195.084; -148.848
689.823;  -43.421; -241.084; -345.849
690.090;  -71.794; -546.084; -651.849
690.358; -137.617; -877.084; -897.849
690.625;   14.160;  120.917;   45.150
690.892;  -80.188; -403.083; -369.850
691.160;  -29.586;   72.917;  -35.850
691.427;   -8.135;  141.917;  130.149
691.694; -132.308; -855.083; -929.851
691.962; -138.631;-1177.082;-1060.852
692.229;    8.496;  127.918;   56.148
692.496;   82.098;  130.918;  -49.852
692.763;   24.675; -164.082; -201.853
693.031;  -54.424; -739.082; -716.853
693.298;  -30.297; -509.081; -368.853
693.565;  323.555; -155.081; -163.854
693.832; 1358.032;   -5.081;   -9.854
694.099;  170.409; -643.081; -642.855
694.366;  -55.439; -882.081; -896.855
694.633;  -41.387; -920.080; -633.855
694.900;  748.514; 4367.920; -114.856
695.167;  443.166; -214.080; -380.856
695.434;  104.793; -646.080; -623.856
695.701;  192.895;  121.921;  -61.857
695.968;  484.822; -365.079; -361.857
696.234;  980.849; -415.079; -646.858
696.501;10205.875; -776.079; -614.858
696.768; 5352.202; -554.079; -617.858
697.035;  319.879; -632.078; -667.859
697.302;   38.256; -448.078; -552.859
697.568;    2.933; -458.078; -497.859
697.835;  -42.790; -683.078; -624.860
698.102;  -22.413; -498.078; -407.860
698.368;   73.013;  384.923;  396.139
698.635;  -34.385;  -47.077; -424.861
698.901;  -20.208; -240.077; -348.861
699.168;   71.319; -534.077; -456.862
699.435;   98.296;  -72.077;  -13.862
699.701; -114.877; -868.076; -764.862
699.968;   19.074;  144.924; -441.863
700.234;  -91.224; -783.076; -822.863
700.500;  -50.847; -448.076; -539.864
700.767;   12.230;   -1.075;   26.136
701.033; -130.268;-1015.075; -963.864
701.299;  -55.841; -450.075; -483.865
701.566;  104.110;  950.925;  763.135
701.832;   25.737;  -31.075;  -76.865
702.098;  -90.511;-1054.074;-1034.866
702.365;  -80.834;-1098.074;-1030.866
702.631;  -24.432;-1038.074;-1063.867
702.897; 1342.020; -765.074; -676.867
703.163; 2372.772;  348.926;  254.133
703.429;  166.973; -256.073; -273.868
703.695;  -29.025; -796.073; -792.868
703.961;   20.977; -214.073; -210.868
704.227;  -66.571; -630.073; -725.869
704.493;  126.306;  613.927;  510.131
704.759;  -29.792; -565.072; -540.870
705.025;   20.359; -203.072; -194.870
705.291;  -17.864; -666.072; -562.870
705.557;  178.488;  719.928;   34.129
705.823;   20.115; -742.072; -694.871
706.089;  125.342; -307.071; -326.871
706.355;  347.444; -315.071; -244.872
706.620; 5202.071; -776.071; -729.872
706.886; 7780.522; -309.071; -362.873
707.152;  757.974; -818.070; -973.873
707.418;  -10.749;-1153.070;-1186.873
707.683;   -6.022; -550.070; -530.874
707.949;  -50.845; -547.070; -578.874
708.215;  -10.968; -129.070; -207.874
708.480;  -32.942; -520.069; -420.875
708.746;  109.710;   68.931;   28.125
709.011;  -64.613; -578.069; -612.876
709.277;  -83.861; -538.069; -543.876
709.542;  -37.909; -428.069; -387.876
709.808;   -2.157;  -59.068;   89.123
710.073;  -80.505; -577.068; -695.877
710.339;  -30.029; -242.068; -228.877
710.604;   65.823; -780.068; -845.878
710.869;  338.575; -277.068; -366.878
711.135;  -70.473; -715.067; -628.879
711.400;  -90.921; -507.067; -608.879
711.665;  -53.244; -404.067; -479.879
711.931; -107.493; -661.067; -677.880
712.196; -113.691; -876.067; -954.880
712.461;  106.761; -402.066; -490.880
712.726;  147.188; -727.066; -771.881
712.991;  -95.260; -647.066; -664.881
713.256;  -50.808; -350.066; -332.882
713.521;  -61.931; -417.065; -381.882
713.787;  -68.605; -454.065; -472.882
714.052;  -36.303; -214.065; -400.883
714.317;  -95.251;-1045.065; -981.883
714.581;  966.576; -374.065; -268.883
714.846; 1397.378; -822.064; -888.884
715.111;  131.055;  261.936;  257.116
715.376;  -25.044;  -86.064; -223.885
715.641;  -25.267; -365.064; -367.885
715.906;  306.585;   15.936; -551.885
716.171;  148.012;  221.937;  209.114
716.436;   35.664;  -78.063; -104.886
716.700; -106.534; -818.063; -692.886
716.965; -131.007; -794.063; -807.887
717.230;  -82.556; -339.063; -392.887
717.494;  -36.929;  -40.062; -134.888
717.759; -100.477; -784.062; -640.888
718.024;    2.175;  269.938;  250.112
718.288;   87.302;  685.938;  395.111
718.553; -133.271; -803.062; -977.889
718.817; -134.120; -883.061; -899.889
719.082;  -42.768; -115.061; -125.890
719.346; -147.366;-1000.061; -947.890
719.611;  -59.189; -300.061; -255.891
719.875; -107.487; -568.060; -537.891
720.140;  -56.660; -453.060; -603.891
720.404;   41.792; -136.060; -249.892
720.668;  889.143; -475.060; -411.892
720.933;  364.520;  146.940;  137.108
721.197; -106.853; -667.059; -600.893
721.461; -127.626; -851.059; -826.893
721.725;  -16.199;  -21.059; -250.894
721.990;  -58.172; -284.059; -204.894
722.254;  -20.346;  -26.059; -108.894
722.518;  -75.194; -286.058; -442.895
722.782;  -78.442; -743.058; -594.895
723.046;  109.910;  614.942;  570.105
723.310;    9.987;  374.942;  210.104
723.574; -106.286; -654.058; -614.896
723.838;  -98.234; -576.057; -642.897
724.102;  -53.483; -226.057; -239.897
724.366; -135.256;-1032.057; -978.897
724.630;  -90.704; -749.057; -571.898
724.894;  -89.027; -722.057; -514.898
725.158;   -8.250;   38.944; -295.898
725.422;  -56.873; -394.056; -327.899
725.685;  -62.022; -441.056; -349.899
725.949;  -75.795; -566.056; -519.900
726.213;  -78.168; -732.056; -811.900
726.477;  180.984;-1020.055; -933.900
726.740;  153.886; -274.055; -104.901
727.004;  338.813; -384.055; -510.901
727.268; 3253.440; -442.055; -400.901
727.531;  938.941; -961.055; -775.902
727.795;  -50.107; -713.054; -673.902
728.059;  -61.055; -552.054; -557.903
728.322;  -71.978; -841.054; -669.903
728.586;   42.949; -692.054; -701.903
728.849;  -73.574; -695.053; -756.904
729.112; -103.298; -812.053; -912.904
729.376; -116.271; -959.053; -905.904
729.639;  -73.219; -536.053; -536.905
729.903; -110.742; -733.053; -699.905
730.166;  -57.890; -437.052; -399.906
730.429;  -25.538; -317.052; -468.906
730.693;  -75.011; -355.052; -894.906
730.956;  195.090;  810.948;  651.093
731.219;  738.267; -310.052; -103.907
731.482;  136.844;-1003.051; -894.907
731.745;  115.346; -794.051; -935.908
732.009;    8.198;  -30.051;   50.092
732.272; -102.500; -904.051; -771.909
732.535;  -49.124; -300.051; -310.909
732.798; -143.722;-1083.050;-1166.909
733.061;  -58.645; -430.050; -456.910
733.324;   18.657;   31.950; -180.910
733.587;   64.034;  290.950;  365.090
733.850;  -64.339; -973.049;-1050.911
734.113;   18.138;   33.951;   32.089
734.376;    1.764; -328.049; -447.912
734.639;  209.041; 1188.951; 1011.088
734.901;   61.593; -180.049; -402.912
735.164;  494.345; -883.048; -837.913
735.427; 1367.872; -166.048; -355.913
735.690;  116.624; -205.048; -234.913
735.952;  -24.900; -923.048; -925.914
736.215;  -18.548;-1113.048;-1009.914
736.478;   46.554; -771.047; -774.915
736.740;  233.206;   33.953;  129.085
737.003;  680.883; -658.047; -672.915
737.266; 4276.435;  -94.047;   46.084
737.528;  468.237; -682.047; -660.916
737.791;  320.713; -316.046; -327.916
738.053;  795.390;  465.954;  649.083
738.316;10545.517; -162.046; -136.917
738.578; 7867.919; -770.046; -736.918
738.841;  447.596; -382.046; -446.918
739.103;  188.873; -875.045; -777.918
739.365;  520.449;   79.955;  -69.919
739.628;    4.251; -884.045; -805.919
739.890;  -26.172; -758.045; -710.919
740.152;  -45.070; -692.044; -754.920
740.414;  -21.768; -408.044; -359.920
740.677;  -58.541; -785.044; -634.921
740.939;  -48.964; -587.044; -487.921
741.201;  286.637; -432.044; -572.921
741.463;   53.339; -689.043; -745.922
741.725;   13.016;  -21.043; -199.922
741.987;   52.793;  220.957;  116.078
742.249;   -6.055; -751.043; -859.923
742.511;  227.772; -703.043; -794.923
742.773;   27.748; -546.042; -546.924
743.035;  122.400;  796.958;  533.076
743.297;  -43.198; -963.042;-1013.924
743.559;  757.454; -278.042; -262.925
743.821;   65.531; -735.042; -744.925
744.083;   14.458;  -44.041; -149.925
744.345;  -85.565; -869.041; -892.926
744.607;   32.136;   75.959;  122.074
744.868;  -45.262; -490.041; -554.927
745.130; -113.335; -994.041;-1008.927
745.392;   42.342;   -1.040;  -44.927
745.653;   -9.156; -411.040; -378.928
745.915;  133.321;  896.960;  631.072
746.177;   63.172;   35.960;  -43.928
746.438;    1.274; -428.040; -543.929
746.700;  -50.099; -947.039; -988.929
746.961;   16.003; -659.039; -740.930
747.223;  138.480; -190.039;  -74.930
747.484;   98.982; -391.039; -471.930
747.746;  170.559;  -23.038; -106.931
748.007;  117.010; -647.038; -689.931
748.269;  308.662; -468.038; -440.931
748.530;  515.414; -852.038; -638.932
748.791;  266.716; -354.038; -420.932
749.053;  449.893;  286.963;  163.067
749.314;  470.270; -236.037; -169.933
749.575;  525.446; -945.037; -905.933
749.836;  869.323; -217.037;   86.066
750.098; 2409.600;  -60.037;  -21.934
750.359;37194.527;  414.964;  555.066
750.620;10078.004; -121.036; -220.935
750.881; 1063.856; -585.036; -513.935
751.142; 1363.033; -950.036; -938.936
751.403;16483.734; -789.036; -705.936
751.664; 7866.436;-1034.035; -999.936
751.925;  504.463; -175.035; -262.937
752.186;  295.215; -298.035; -278.937
752.447;  136.967; -590.035; -445.937
752.708;   63.869; -532.035; -648.938
752.969;   14.295; -566.034; -576.938
753.230;   -9.978; -777.034; -672.939
753.491;    7.299; -650.034; -631.939
753.751;   80.226;  109.966;   19.061
754.012;  106.578;  258.967;  181.060
754.273;   65.655; -174.033;  -71.940
754.534;   13.157; -487.033; -580.940
754.794;  -68.217; -926.033; -911.941
755.055;  125.010; 1051.967;  881.059
755.316;  -50.013; -700.032; -566.942
755.576;  -29.661; -606.032; -576.942
755.837;  -54.259; -527.032; -695.942
756.097;  -37.057; -530.032; -564.943
756.358;  -72.156; -725.032; -770.943
756.618;  -60.579; -705.031; -641.943
756.879;    2.873; -254.031; -349.944
757.139; -111.250;-1098.031;-1116.944
757.400;  -50.948; -538.031; -553.945
757.660;  -25.846; -365.031; -401.945
757.920;   16.106; -266.030; -228.945
758.181;  -11.693; -468.030; -351.946
758.441;  -94.166; -870.030; -809.946
758.701;  -31.139; -308.030; -215.946
758.961;  -18.612; -220.030; -278.947
759.222;  -39.285; -574.029; -502.947
759.482;  -78.333; -683.029; -723.948
759.742;  -85.057; -706.029; -547.948
760.002;    6.945;  -83.029; -143.948
760.262;   20.222;   50.972;  182.051
760.522;  -34.251; -498.028; -574.949
760.782;  -62.799; -738.028; -612.949
761.042;  -25.372; -618.028; -573.950
761.302;   37.255;   55.972;  -18.950
761.562;   61.631; -164.027; -154.951
761.822;   89.908; -710.027; -551.951
762.082;  -36.090;-1104.027;-1093.951
762.342;   64.037; -328.027; -403.952
762.601;   67.539; -567.027; -506.952
762.861;  349.316; -281.026; -207.952
763.121;  398.692; -406.026; -411.953
763.381; 7132.144; -499.026; -485.953
763.640; 8456.871; -139.026; -307.954
763.900;  372.523; -242.026; -203.954
764.160;   82.750; -458.025; -491.954
764.419;   -5.673; -726.025; -782.955
764.679;  -65.097; -795.025; -726.955
764.939;  -26.095; -124.025; -210.955
765.198;  -78.268; -608.025; -563.956
765.458;  -86.916; -710.024; -612.956
765.717;  -83.239; -454.024; -590.957
765.976;  -50.362; -428.024; -411.957
766.236;  -84.360; -475.024; -610.957
766.495;   11.891;  260.977;   73.042
766.755;  -79.707;-1090.023; -987.958
767.014;    0.595; -594.023; -665.958
767.273;  -57.928; -373.023; -397.959
767.533;  -49.976; -228.023; -307.959
767.792;  -15.799; -151.022; -188.960
768.051;  -48.648; -228.022; -276.960
768.310;  -75.921; -546.022; -650.960
768.569;  -15.694; -161.022;    4.039
768.828;  -29.342; -285.022; -363.961
769.088; -101.940;-1050.021; -942.961
769.347;  -76.988; -755.021; -599.962
769.606;  -93.361; -876.021; -857.962
769.865; -121.985;-1016.021;-1033.963
770.124;    4.117; -411.021; -336.963
770.383;  -51.006; -778.020; -910.963
770.641;   -1.979; -398.020; -400.964
770.900;  -67.927; -953.020; -846.964
771.159;  -49.350; -851.020; -951.964
771.418;  -24.074; -917.020; -779.965
771.677;  126.278; -224.019; -293.965
771.936;  120.630; -794.019; -865.966
772.194; 1945.457; -465.019; -437.966
772.453;11012.934; -213.019; -391.966
772.712;  788.836;  416.982;  329.033
772.970;  119.313;   32.982;   63.033
773.229;   90.164;  -22.018;  102.033
773.488;  -80.759; -814.018; -770.968
773.746;   49.168;  296.982;  335.032
774.005;   -5.555;  190.983;  -22.969
774.263;    6.297;  243.983;  177.031
774.522;  -38.901; -422.017; -548.969
774.780;  -79.875; -484.017; -417.970
775.039;  -79.148; -551.017; -531.970
775.297;  -21.421; -135.016; -351.970
775.555; -112.294; -489.016; -612.971
775.814; -112.842; -618.016; -570.971
776.072; -121.090; -749.016; -740.971
776.330; -108.688; -630.016; -520.972
776.589; -122.237; -703.015; -721.972
776.847; -124.635; -645.015; -624.973
777.105; -159.733;-1016.015;-1032.973
777.363;  -87.831; -459.015; -454.973
777.621; -134.154; -660.015; -717.974
777.879;  -25.352;  -42.014;   32.026
778.138;  -84.826; -554.014; -717.974
778.396;  -99.974; -585.014; -526.975
778.654; -161.022;-1015.014; -970.975
778.912;  -87.295; -269.014; -371.976
779.170; -133.818; -880.013; -803.976
779.427; -156.016; -922.013; -897.976
779.685; -135.389; -880.013; -832.977
779.943;  -83.213; -654.013; -593.977
780.201; -162.436; -964.012; -883.978
780.459; -111.184; -651.012; -610.978
780.717;  -80.257; -440.012; -390.978
780.974;  -99.730; -449.012; -490.979
781.232;  -74.578; -358.012; -338.979
781.490;  -81.852; -551.011; -472.979
781.747; -103.925; -555.011; -476.980
782.005;   26.402;  462.989;  254.020
782.263; -161.796; -542.011;-1004.981
782.520;  -92.094; -326.011; -501.981
782.778; -156.842;-1013.010;-1051.981
783.035; -170.640; -962.010; -938.982
783.293;  -62.964; -248.010; -206.982
783.550;  -54.012; -134.010; -198.982
783.808; -138.835; -764.010; -776.983
784.065; -159.658; -745.009; -874.983
784.322;  -45.156;   25.991;  -86.984
784.580; -141.004; -915.009; -771.984
784.837;  -96.078; -392.009; -466.984
785.094; -136.626; -783.009; -762.985
785.352;  -67.674; -304.008; -404.985
785.609;  -99.072; -934.008; -839.985
785.866;  -79.145; -345.008; -401.986
786.123;  -73.268; -639.008; -583.986
786.380; -102.016; -665.008; -604.987
786.637;  -47.765; -225.007; -380.987
786.895;  -17.113; -456.007; -543.987
787.152;  -41.861; -135.007; -267.988
787.409;  -38.809; -123.007; -225.988
787.666;  -97.082; -299.006; -378.988
787.923; -100.855; -616.006; -695.989
788.179; -101.679; -551.006; -584.989
788.436; -116.252; -585.006; -585.990
788.693;  -40.850;  -92.006;  -87.990
788.950;  137.477; -125.005; -112.990
789.207;  228.829; -381.005; -372.991
789.464;  -49.244; -161.005; -301.991
789.720;  -10.592;  150.995;  110.009
789.977; -153.991;-1003.005; -671.992
790.234;  -38.864;   44.996;  -66.992
790.490; -141.962; -884.004;-1031.993
790.747;  -15.960;  -85.004;   22.007
791.004;  -24.008; -426.004; -348.993
791.260;  -60.281; -430.004; -560.994
791.517; -105.255; -843.003; -788.994
791.773;  -56.678; -379.003; -342.994
792.030; -106.026; -596.003; -660.995
792.286; -104.599; -686.003; -636.995
792.543;  -27.322;  -74.002; -159.995
792.799;  -45.820; -584.002; -382.996
793.055; -151.468;-1179.002;-1210.996
793.312;  -92.942; -827.002; -816.997
793.568;  -51.465; -746.002; -599.997
793.824;   11.512; -226.001; -284.997
794.081;   10.464; -447.001; -508.998
794.337;   52.091; -664.001; -561.998
794.593; 1204.643; -319.001; -271.999
794.849; 6756.969; -746.001; -772.999
795.105;  364.096; -270.000; -261.999
795.361;   -1.677; -490.000; -457.000
795.617;  -51.275; -875.000; -945.000
795.873;  -50.875; -360.000; -407.000
796.129;  -47.175; -368.000; -306.000
796.385;  -16.225; -124.000; -156.000
796.641;   54.500;  412.000;  550.000
796.897;  -81.725; -666.000; -635.000
797.153;   65.050;  453.000;  357.000
797.409;  -97.875; -785.000; -868.000
797.665;  -73.450; -625.000; -732.000
797.921;  -87.150; -775.000; -762.000
798.176;  -72.500; -744.000; -747.000
798.432;  -51.650; -824.000; -596.000
798.688;  -65.025;-1174.000;-1078.000
798.943;   81.575; -165.000; -147.000
799.199;   -1.250;-1005.000; -959.000
799.455;  214.525;  369.000;  316.000
799.710;  135.150; -813.000; -380.000
799.966;  277.150; -162.000; -160.000
800.221;  469.475; -638.000; -721.000
800.477; 9901.350; -743.000; -710.000
800.732; 9779.350; -773.000; -800.000
800.988;  616.225;  205.000;  -19.000
801.243; 1545.900; -454.000; -344.000
801.498; 7526.825; -814.000; -739.000
801.754;  444.600; -289.000; -163.000
802.009;   90.750; -257.000; -335.000
802.264;  -47.775; -967.000;-1033.000
802.520;   35.450;  222.000;   -3.000
802.775;  -42.525; -524.000; -359.000
803.030;   45.425;  395.000;  356.000
803.285; -113.275; -840.000; -903.000
803.540;  -51.850; -686.000; -699.000
803.795;  -41.475; -648.000; -583.000
804.051;  -39.950; -279.000; -346.000
804.306;    9.925;  168.000;  128.000
804.561;  153.975;  451.000;  362.000
804.816;  136.850;  714.000;  861.000
805.071;    2.100; -185.000; -280.000
805.325;  228.975; -257.000; -427.000
805.580;  -90.250; -841.000; -877.000
805.835;   -1.000; -204.000; -297.000
806.090;  -74.750; -760.000; -676.000
806.345;   -8.100; -344.000; -264.000
806.600;  -24.400; -549.000; -632.000
806.854;  -26.100; -408.000; -538.000
807.109;  -17.175; -493.000; -577.000
807.364;   15.725; -407.000; -328.000
807.618;   11.500; -415.000; -381.000
807.873;   64.500; -470.000; -494.000
808.128;   96.450; -257.000; -518.000
808.382;  120.625; -224.000; -332.000
808.637;   92.700; -440.000; -511.000
808.891;  173.525; -257.000; -180.000
809.146;  121.875; -902.000; -794.000
809.400;  260.350; -848.000; -923.000
809.654;  355.375; -779.000; -551.000
809.909;  475.475; -841.000; -927.000
810.163; 6333.350; -813.000; -651.000
810.418;18268.150; -940.000; -861.000
810.672; 1099.325; -685.000; -690.000
810.926;  725.400; -993.000; -973.000
811.180; 1332.650; -439.000; -372.000
811.434;30459.650;  240.000;  135.000
811.689;13715.475; -231.000; -365.000
811.943;  664.300; -936.000; -953.000
812.197;  327.300; -893.000; -671.000
812.451;  125.850; -379.000; -514.000
812.705;  -25.625; -809.000; -619.000
812.959;   -1.925; -263.000; -388.000
813.213;   -0.200; -283.000; -209.000
813.467;   71.425;  470.000;  253.000
813.721;  -97.425; -764.000; -792.000
813.975; -117.775; -826.000; -877.000
814.229;   39.000;  430.000;  353.000
814.482;  -59.325; -517.000; -566.000
814.736; -105.650; -766.000; -744.000
814.990; -128.450; -779.000; -872.000
815.244;  -52.300; -228.000; -285.000
815.497;  -95.600; -636.000; -601.000
815.751;  -19.650; -141.000;   82.000
816.005;  -83.975; -470.000; -586.000
816.258;  -64.900; -510.000; -363.000
816.512; -110.150; -693.000; -610.000
816.766;    0.900;  121.000;  157.000
817.019;   20.325;  148.000;  149.000
817.273; -132.175;-1000.000; -802.000
817.526;  -33.650; -206.000; -173.000
817.779;  -32.700;-1049.000; -960.000
818.033;  -57.325; -693.000; -807.000
818.286; -130.425; -725.000; -792.000
818.540;  -88.375; -403.000; -403.000
818.793;  -87.650; -402.000; -489.000
819.046;  -98.050; -582.000; -520.000
819.299;  -62.950; -157.000; -166.000
819.553; -102.425; -552.000; -592.000
819.806; -158.925;-1016.000; -838.000
820.059;  -60.350; -334.000; -354.000
820.312;    4.625;  152.000;  185.000
820.565;  -13.400;  110.000;  -27.000
820.818;  -42.975;  -59.000; -173.000
821.071; -161.100;-1041.000; -957.000
821.324;  -97.750; -536.000; -540.000
821.577;  -98.425; -457.000; -483.000
821.830;  -66.350; -270.000; -172.000
822.083; -130.350; -733.000; -288.000
822.336;  -61.075; -261.000; -167.000
822.589; -128.875; -805.000; -688.000
822.842; -140.125; -875.000; -770.000
823.094; -175.350;-1076.000;-1114.000
823.347; -127.225; -925.000; -729.000
823.600;    9.400;  402.000;  187.000
823.853;  -52.825; -311.000; -267.000
824.105;  -78.725; -331.000; -575.000
824.358; -108.325; -617.000; -716.000
824.611;   28.325;  234.000;   40.000
824.863;  -40.825; -612.000; -591.000
825.116;   54.775;  -33.000;   27.000
825.368;   85.775; -366.000; -372.000
825.621;  155.500; -186.000; -240.000
825.873;   77.000; -704.000; -737.000
826.126;  536.075; -669.000; -641.000
826.378;11351.525; -389.000; -505.000
826.630; 3204.475; -890.000; -898.000
826.883;   66.050; -754.000; -693.000
827.135;   41.650; -279.000; -270.000
827.387; -105.000; -893.000; -839.000
827.639;  -22.300;  -86.000;   32.000
827.892; -125.950; -742.000; -582.000
828.144; -134.725; -848.000; -804.000
828.396;  -54.375;  104.000;  -80.000
828.648;  -86.525; -440.000; -333.000
828.900; -149.200; -702.000; -795.000
829.152; -113.675; -684.000; -683.000
829.404;  -50.325; -215.000; -267.000
829.656;   -9.150;  321.000;  214.000
829.908;   -6.925;  393.000;  229.000
830.160; -157.000;-1064.000;-1047.000
830.412; -105.800; -481.000; -430.000
830.664; -112.500; -557.000; -665.000
830.916;  -67.600; -268.000; -206.000
831.167; -172.375;-1073.000; -951.000
831.419; -111.125; -623.000; -566.000
831.671; -153.100; -764.000; -809.000
831.923;  -87.275; -311.000; -447.000
832.174;  -78.375; -273.000; -331.000
832.426; -118.425; -493.000; -582.000
832.678; -183.625;-1043.000;-1091.000
832.929; -162.725; -947.000; -935.000
833.181;  -57.400; -575.000; -677.000
833.432;  -48.650;  -59.000; -186.000
833.684;  -28.275;  112.000;  -27.000
833.935; -130.125; -610.000; -566.000
834.187; -128.325; -829.000; -823.000
834.438;  -47.675;  -58.000;  -25.000
834.689;  -57.100; -255.000; -123.000
834.941;  -46.500; -343.000; -244.000
835.192;  -86.450; -590.000; -533.000
835.443;  -90.600; -419.000; -506.000
835.695;  -16.875;  138.000;  -16.000
835.946;  -99.550; -608.000; -378.000
836.197; -104.775; -599.000; -622.000
836.448;  -78.250; -528.000; -395.000
836.699;  -45.825; -253.000; -341.000
836.950;   -2.875;   72.000;    7.000
837.201; -150.700;-1003.000; -987.000
837.452;  -58.600; -356.000; -170.000
837.703; -107.650; -791.000; -737.000
837.954;  -42.225; -205.000; -365.000
838.205;  -70.000;-1029.000;-1008.000
838.456;  191.750; -196.000; -282.000
838.707;    9.625; -423.000; -519.000
838.958;   21.775; -634.000; -647.000
839.209;  284.050;   18.000;   40.000
839.460;  118.575; -439.000; -201.000
839.710;  179.475; -135.000; -297.000
839.961;  424.200;  730.000;  612.000
840.212;  356.225; -382.000; -497.000
840.462; 1088.075; -328.000; -277.000
840.713;17402.625; -571.000; -536.000
840.964; 8025.700;  -62.000; -143.000
841.214;  542.925; -384.000; -624.000
841.465;  597.450; -214.000; -141.000
841.715;  518.025; -417.000; -380.000
841.966;  669.375; -746.000; -685.000
842.216; 8616.725; -330.000; -431.000
842.466;36724.400; -169.000; -313.000
842.717; 2317.550; -964.000; -952.000
842.967;  318.125; -635.000; -641.000
843.217;  303.375;   20.000;   28.000
843.468;   70.475; -104.000; -132.000
843.718;  -18.350; -718.000; -726.000
843.968;  -93.350; -837.000; -765.000
844.218;   30.300; -315.000; -262.000
844.469;  -39.425; -577.000; -561.000
844.719;  -97.500; -537.000; -682.000
844.969;  -90.700; -550.000; -580.000
845.219; -143.800; -814.000; -862.000
845.469;  -76.300; -392.000; -342.000
845.719; -140.500; -792.000; -884.000
845.969;  -23.700;  119.000;  174.000
846.219; -115.625; -738.000; -720.000
846.469;   17.275;  464.000;  432.000
846.718;  -38.650; -115.000;   31.000
846.968; -152.225; -827.000; -827.000
847.218;  -55.475; -224.000; -371.000
847.468; -118.800; -586.000; -555.000
847.718; -149.975; -827.000; -798.000
847.967; -138.625; -826.000; -915.000
848.217;  -92.975; -449.000; -569.000
848.467;  -74.550; -405.000; -376.000
848.716; -106.425; -708.000; -725.000
848.966;    9.425; -372.000; -358.000
849.215;  -45.725; -428.000; -419.000
849.465;  -91.525; -785.000; -615.000
849.714; -145.325;-1132.000;-1150.000
849.964;  -61.625; -551.000; -613.000
850.213;  -14.300; -393.000; -355.000
850.463;   75.000;  137.000;  340.000
850.712;    3.375; -542.000; -567.000
850.961;   27.500; -739.000; -678.000
851.211;   87.450; -513.000; -504.000
851.460;  167.000; -635.000; -650.000
851.709;  558.025;  -25.000;   18.000
851.958; 9821.925; -912.000; -750.000
852.208;13576.050; -859.000; -879.000
852.457;  501.300; -181.000;  -13.000
852.706;   70.300; -791.000; -823.000
852.955;   18.150; -507.000; -528.000
853.204;  -69.000; -521.000; -461.000
853.453;  -87.100; -418.000; -458.000
853.702; -128.625; -660.000; -750.000
853.951; -106.325; -532.000; -520.000
854.200; -111.250; -613.000; -562.000
854.449; -141.950; -695.000; -661.000
854.698; -103.725; -340.000; -279.000
854.946;  -67.550; -181.000; -284.000
855.195; -149.150; -843.000; -868.000
855.444;  -94.150; -395.000; -420.000
855.693; -125.025; -345.000; -432.000
855.941; -118.975; -387.000; -516.000
856.190;  -60.300; -256.000; -382.000
856.439; -133.450; -652.000; -703.000
856.687;  -61.600;  -99.000;  -72.000
856.936; -106.625; -621.000; -323.000
857.184; -175.575;-1067.000;-1020.000
857.433; -122.675; -423.000; -512.000
857.681; -158.900; -989.000; -953.000
857.930;  -84.775; -282.000; -433.000
858.178; -172.525; -856.000; -929.000
858.427; -144.350; -802.000; -781.000
858.675; -122.250; -377.000; -544.000
858.923; -107.200; -527.000; -819.000
859.172; -189.525;-1094.000;-1070.000
859.420;  -90.825; -339.000; -239.000
859.668; -129.800; -624.000; -628.000
859.916;  -31.625;  109.000;  115.000
860.164; -118.100; -699.000; -603.000
860.413;  302.100; -878.000; -696.000
860.661;  277.750; -709.000; -577.000
860.909;  -81.325; -339.000; -325.000
861.157;  -77.025; -277.000; -444.000
861.405; -121.425; -534.000; -670.000
861.653;    0.950;  310.000;  310.000
861.901;  185.025; -543.000; -613.000
862.149;   24.625; -801.000; -824.000
862.396;  -78.775; -297.000; -187.000
862.644;  -87.125; -368.000; -347.000
862.892;  -32.925;   98.000;  138.000
863.140; -113.775; -549.000; -530.000
863.388; -152.350; -815.000; -759.000
863.635; -131.800; -642.000; -601.000
863.883;  -21.850;  231.000;  190.000
864.131;  -94.625; -288.000; -357.000
864.378; -147.475; -675.000; -540.000
864.626; -104.925; -347.000; -415.000
864.873; -119.175; -556.000; -505.000
865.121; -133.350; -714.000; -799.000
865.368;  -48.950; -173.000;   75.000
865.616;  -43.375;  -33.000;  -40.000
865.863;  -70.350; -462.000; -506.000
866.111; -119.925; -795.000; -824.000
866.358;   10.625; -426.000; -420.000
866.605; 2008.075;  -64.000; -804.000
866.853; 2330.175; -621.000; -537.000
867.100;  -23.175; -728.000; -775.000
867.347;  -91.750; -672.000; -611.000
867.594;  -98.350; -740.000; -714.000
867.841;   90.975;   97.000;   17.000
868.089; -141.500; -746.000; -698.000
868.336; -109.650; -477.000; -420.000
868.583; -142.400; -637.000; -741.000
868.830;  -55.325; -131.000; -170.000
869.077; -166.925; -859.000; -787.000
869.324; -136.825; -502.000; -458.000
869.571; -126.575; -398.000; -430.000
869.818; -116.175; -485.000; -439.000
870.065;  -96.875; -439.000; -513.000
870.311; -116.650; -456.000; -542.000
870.558; -105.725; -332.000; -311.000
870.805;  -85.625; -320.000; -384.000
871.052; -119.450; -494.000; -369.000
871.298;  -42.850; -204.000; -131.000
871.545;  -62.775; -151.000; -185.000
871.792;  -94.850; -173.000; -222.000
872.038;  -68.675;   43.000; -126.000
872.285; -120.950; -496.000; -387.000
872.532;  -98.800; -357.000; -387.000
872.778;   -8.425;  556.000;  403.000
873.025;  -97.925; -384.000; -359.000
873.271;   24.600;  501.000;  578.000
873.517;  -25.800; -133.000; -209.000
873.764;  -30.500; -193.000;  -80.000
874.010;  -64.425; -143.000; -230.000
874.257;  -57.575;  123.000;   90.000
874.503; -139.875; -579.000; -479.000
874.749;  -65.975;   31.000;  275.000
874.995;  -71.000;  -80.000;  -20.000
875.242; -115.150; -540.000; -478.000
875.488; -109.350; -414.000; -439.000
875.734;  -53.575; -106.000; -234.000
875.980;  187.050; -872.000;-1032.000
876.226;  416.700; -157.000; -255.000
876.472;    8.100;  343.000;  237.000
876.718;  -47.675;  184.000;  158.000
876.964;  -46.700;   56.000;   55.000
877.210; -148.150; -547.000; -677.000
877.456; -134.625; -630.000; -557.000
877.702; -180.125; -821.000; -832.000
877.948; -111.600; -377.000; -497.000
878.193;  -12.750;  361.000;  255.000
878.439;  -92.475; -487.000; -472.000
878.685;  -98.650; -272.000; -343.000
878.931; -129.375; -618.000; -676.000
879.176;  -95.525; -201.000; -201.000
879.422; -169.325; -933.000; -820.000
879.668;   56.825;   10.000;   79.000
879.913;  153.075;   53.000;  137.000
880.159;  -62.650; -112.000;  -17.000
880.404;  -59.975; -152.000; -162.000
880.650;  -47.475;   91.000;  141.000
880.895; -147.775; -670.000; -710.000
881.141; -128.825; -454.000; -428.000
881.386; -150.600; -503.000; -658.000
881.631;  -81.600; -311.000; -166.000
881.877;  -32.575;  112.000;  -13.000
882.122; -131.275; -684.000; -600.000
882.367;  -88.800; -136.000; -186.000
882.612;  -74.150;  -80.000; -176.000
882.858; -165.650; -877.000; -823.000
883.103;  -93.775; -297.000; -267.000
883.348; -153.350; -759.000; -852.000
883.593; -145.675; -677.000; -602.000
883.838;  -45.950; -311.000;  -24.000
884.083;   28.450;  353.000;  288.000
884.328;  -93.225; -564.000; -545.000
884.573;  -52.800; -196.000; -143.000
884.818;  210.325; -694.000; -531.000
885.063;  221.950; -348.000; -315.000
885.308;  -96.550; -475.000; -398.000
885.553;  -21.975;  245.000;  325.000
885.797; -115.950; -545.000; -615.000
886.042;  -72.650;    8.000;   58.000
886.287;  -92.525; -253.000; -211.000
886.532;  -62.850;   26.000;  204.000
886.776;  -92.375; -407.000; -525.000
887.021; -144.925; -621.000; -574.000
887.265; -151.650; -685.000; -689.000
887.510; -124.775; -557.000; -496.000
887.755;  -98.450; -194.000; -164.000
887.999; -141.175; -552.000; -575.000
888.244;  -60.225;  -58.000;  161.000
888.488;  -13.775;  371.000;  393.000
888.732; -134.450; -368.000; -520.000
888.977; -120.475; -622.000; -567.000
889.221; -146.125; -683.000; -659.000
889.465; -139.900; -422.000; -566.000
889.710;  -82.000;  -56.000; -299.000
889.954;   -4.200;  579.000;  467.000
890.198; -141.425; -584.000; -707.000
890.442; -164.125; -716.000; -712.000
890.687; -159.550; -800.000; -753.000
890.931;  -92.450; -273.000; -210.000
891.175; -132.800; -502.000; -500.000
891.419;  -68.550; -105.000; -110.000
891.663;  -88.400; -239.000; -112.000
891.907; -167.500; -801.000; -545.000
892.151; -180.025; -920.000; -815.000
892.395; -104.000; -274.000; -387.000
892.638;  -17.150;  408.000;  291.000
892.882; -162.300; -780.000; -867.000
893.126;   26.575;  758.000;  558.000
893.370;  -97.125; -167.000; -168.000
893.614; -144.500; -714.000; -715.000
893.857; -105.025; -183.000; -197.000
894.101; -133.525; -527.000; -631.000
894.345;  -67.100;  300.000;  150.000
894.588;   13.150;  569.000;  380.000
894.832;  -91.100; -178.000;  -84.000
895.075;  -91.175;   15.000;  -92.000
895.319; -123.925; -552.000; -420.000
895.563; -119.175; -413.000; -353.000
895.806; -159.175; -628.000; -741.000
896.049;  -68.200; -576.000; -368.000
896.293;  105.575;  527.000;  405.000
896.536;  -75.075; -465.000; -468.000
896.779;  -62.700; -149.000;   -1.000
897.023; -146.700; -751.000; -714.000
897.266;  -23.700;  325.000;  269.000
897.509; -178.775; -900.000; -901.000
897.752;  -55.550;  149.000;  171.000
897.996; -186.900; -972.000; -864.000
898.239;  -46.425;  168.000;  102.000
898.482; -123.175; -431.000; -453.000
898.725;  -43.875;  101.000;   53.000
898.968; -150.250; -609.000; -744.000
899.211; -111.250; -513.000; -361.000
899.454; -127.500; -633.000; -539.000
899.697;  -72.500;   90.000;  -43.000
899.940; -155.325; -761.000; -757.000
900.182; -104.325; -335.000; -405.000
900.425; -107.925; -150.000; -298.000
900.668;  -23.075;  491.000;  350.000
900.911; -113.525; -292.000; -345.000
901.154;  -53.750;  141.000;   -3.000
901.396; -129.175; -407.000; -412.000
901.639; -154.150; -430.000; -496.000
901.882; -169.050; -790.000; -809.000
902.124;  -86.200;  -29.000; -143.000
902.367; -117.925; -315.000; -361.000
902.609; -136.575; -476.000; -453.000
902.852;  -94.225; -108.000; -260.000
903.094; -129.150; -458.000; -337.000
903.337;  -61.450;  -26.000;   53.000
903.579; -120.950; -228.000; -441.000
903.821; -165.125; -597.000; -744.000
904.064;  -64.775;   85.000;  127.000
904.306;  -88.425; -126.000; -166.000
904.548; -110.575; -152.000; -366.000
904.790; -103.525; -195.000; -340.000
905.033; -141.650; -625.000; -577.000
905.275; -114.625; -513.000; -524.000
905.517;   38.525;  468.000;  256.000
905.759;  -71.475; -667.000; -761.000
906.001;  -97.300; -322.000; -369.000
906.243;  -69.600; -162.000; -224.000
906.485;  108.675; -265.000; -207.000
906.727;  137.200; -499.000; -542.000
906.969;  -42.325;  -30.000; -135.000
907.211;  122.550; -316.000; -382.000
907.453;  299.125; -188.000; -237.000
907.695;   17.775; -158.000; -385.000
907.936;   38.775;  818.000;  706.000
908.178;  -57.925;   92.000; -135.000
908.420;  -76.625; -111.000; -162.000
908.662; -151.025; -633.000; -682.000
908.903;  -85.425; -208.000; -123.000
909.145;  -57.175; -240.000; -305.000
909.386;  -17.275;  315.000;  280.000
909.628;   41.875;  363.000;  397.000
909.870;    0.500;   29.000;  264.000
910.111;  -83.450; -809.000; -949.000
910.353;   -7.625; -123.000; -161.000
910.594;   18.300; -574.000; -606.000
910.835;   84.000; -265.000; -326.000
911.077;  157.675; -503.000; -604.000
911.318;  284.125; -505.000; -471.000
911.559;  456.025; -577.000; -880.000
911.801; 1317.100; -284.000; -280.000
912.042; 9786.450;  -50.000; -159.000
912.283;27385.575;  404.000;  371.000
912.524; 4679.525; -396.000; -457.000
912.765;  517.025; -193.000;   79.000
913.006;  261.000; -307.000; -338.000
913.247;   46.825; -270.000; -290.000
913.488;    1.900;  -43.000;   30.000
913.729;  -84.850; -373.000; -373.000
913.970;  -59.600;  -96.000; -292.000
914.211;  -81.900; -160.000; -198.000
914.452;  -66.250; -118.000;  -11.000
914.693;   -9.550;  510.000;  592.000
914.934;   17.200;  510.000;  440.000
915.175;  -68.225;   53.000;  -95.000
915.415;  -73.125; -137.000;   27.000
915.656;  -66.250;  -28.000;  192.000
915.897;  -96.600; -252.000;  -82.000
916.137;  -76.800;   74.000;   -9.000
916.378; -132.300; -573.000; -517.000
916.619;  -83.375; -159.000;  -63.000
916.859;  -27.375;  303.000;  330.000
917.100;  123.025; 1655.000; 1070.000
917.340;   45.775;  930.000;  728.000
917.581;   49.250;  965.000;  789.000
917.821;  -23.525; -171.000;  143.000
918.061;   20.275; -199.000;  -72.000
918.302;  -59.475; -152.000; -211.000
918.542;  -36.350;  -22.000;    3.000
918.782;   32.075;  369.000;  377.000
919.023;  126.500;  360.000;  427.000
919.263; 1293.575; 8131.000;  202.000
919.503; 1191.750; -137.000;  -54.000
919.743;  645.750;  390.000;  266.000
919.983;  295.650; -134.000;  -26.000
920.223;   85.600;  135.000;   14.000
920.463;  134.925;  631.000;  554.000
920.703;  124.825;   84.000;   39.000
920.943;  161.450; -110.000;   90.000
921.183;  224.275; -414.000; -405.000
921.423;  473.225;  307.000;  546.000
921.663;  708.650; -174.000; -257.000
921.903; 1509.375;  237.000;  173.000
922.143; 8167.125;  372.000;  389.000
922.383;32935.925;  158.000;  115.000
922.622;12418.300; -120.000;  -15.000
922.862; 1290.275;  796.000;  785.000
923.102;  476.300;  -51.000;   33.000
923.341;  205.700;   59.000;   74.000
923.581;   87.475;  450.000;  360.000
923.821;   29.975;  301.000;  398.000
924.060;    8.000;  351.000;  193.000
924.300;  -58.225;  -16.000; -128.000
924.539;  -21.725;  584.000;  473.000
924.779;   19.575;  812.000;  597.000
925.018;  -42.800;  247.000;  353.000
925.257;    3.275;  595.000;  666.000
925.497;  -40.550;  447.000;  412.000
925.736;  -77.575;  -35.000;  102.000
925.975;    8.375;  687.000;  669.000
926.214;   30.350;  907.000;  850.000
926.454;   34.950;  706.000;  757.000
926.693;  -47.000;  419.000;  543.000
926.932;   32.750; 1021.000;  825.000
927.171;   65.900; 1107.000; 1044.000
927.410;   61.700; 1144.000;  967.000
927.649;   19.475;  924.000;  742.000
927.888;  -10.425;  590.000;  564.000
928.127;   -8.350;  680.000;  678.000
928.366;   27.525;  842.000;  826.000
928.605;   53.350;  831.000;  737.000
928.844;  208.600; 1451.000; 1393.000
929.083;  605.675;  770.000;  613.000
929.321;  357.600; 1335.000; 1359.000
929.560;   81.450; 1158.000; 1122.000
929.799;  -21.700;  574.000;  475.000
930.038;   87.575; 1025.000; 1394.000
930.276;  -55.125;  334.000;  397.000
930.515;    1.100;  827.000;  681.000
930.753;  -17.475;  614.000;  589.000
930.992;  -26.775;  664.000;  717.000
931.230;    9.900;  847.000;  847.000
931.469;  159.800; 2162.000;  892.000
931.707;   74.825;  840.000;  751.000
931.946;   61.975; 1278.000; 1344.000
932.184;   62.750; 1437.000; 1175.000
932.423;   56.550; 1265.000;  963.000
932.661;   90.050; 1296.000; 1428.000
932.899;   19.225;  987.000;  821.000
933.137;   10.475;  754.000;  564.000
933.376;  139.550; 1664.000; 1335.000
933.614;  161.900; 1759.000; 1196.000
933.852;   46.425; 1357.000; 1171.000
934.090;  149.850; 1722.000; 1747.000
934.328;  113.850; 1252.000; 1457.000
934.566;   83.300; 1431.000; 1110.000
934.804;  122.300; 1263.000; 1309.000
935.042;  425.325; 1861.000; 1850.000
935.280; 1645.425; 2088.000; 2063.000
935.518; 1686.925; 2113.000; 2007.000
935.756;  376.100; 2481.000; 2316.000
935.994;  186.050; 1808.000; 1751.000
936.231;  351.450; 2890.000; 2950.000
936.469;  213.700; 2367.000; 2378.000
936.707;  180.025; 2220.000; 2167.000
936.945;  215.600; 2825.000; 2882.000
937.182;  203.225; 2679.000; 2741.000
937.420;  302.350; 3602.000; 3031.000
937.657;  411.175; 3365.000; 3478.000
937.895;  366.725; 3331.000; 3488.000
938.133;  300.225; 3540.000; 3528.000
938.370;  351.825; 3896.000; 4191.000
938.607;  381.750; 4488.000; 4205.000
938.845;  542.875; 5587.000; 5549.000
939.082;  473.900; 5387.000; 5177.000
939.320;  529.750; 5799.000; 5728.000
939.557;  636.050; 6549.000; 6491.000
939.794;  718.475; 7285.000; 7097.000
940.031;  905.800; 8421.000; 8368.000
940.269; 1132.075; 9552.000; 9107.000
940.506; 1092.925;10901.000;10507.000

